membrane
Integration time [ms]:   3.882
Averaging Nr. [scans]: 1000
Smoothing Nr. [pixels]: 0
Data measured with spectrometer [name]: 7414430SP
Wave   ;Sample   ;Dark     ;Reference
[nm]   ;[counts] ;[counts] ;[counts] 

288.544;  131.125;   10.292;  793.890
289.143;  133.938;    4.564;  681.602
289.742;  134.006;    6.144;  828.814
290.341;  121.470;    4.396;  789.841
290.940;  112.278;    0.938;  730.702
291.538;  113.411;   -0.684;  881.108
292.137;  111.347;   -2.845;  792.581
292.736;  115.886;   -0.144;  975.101
293.335;  112.732;   -6.352;  735.086
293.934;  112.235;   -7.642;  781.677
294.532;  111.550;   -4.992; 1031.958
295.131;   98.346;   -5.478;  834.394
295.730;   99.112;   -6.549;  809.588
296.328;   97.130;   -9.558;  783.442
296.927;   96.824;   -8.118;  779.652
297.525;   98.063;   -6.908;  781.236
298.124;   88.892;   -9.195;  654.009
298.722;   92.552;   -8.198;  761.933
299.321;   91.345;   -8.817;  708.597
299.919;   88.038;   -7.716;  751.918
300.518;   85.565;  -10.745;  689.338
301.116;   86.602;   -9.647;  691.381
301.715;   86.825;  -10.828;  730.222
302.313;   86.060;   -6.087;  704.943
302.911;   81.666;   -6.824;  733.830
303.509;   86.369;   -8.807;  925.627
304.108;   83.941;   -8.198;  760.383
304.706;   83.957;   -6.218;  801.664
305.304;   79.202;   -7.185;  796.707
305.902;   84.058;   -8.568;  784.484
306.500;   79.552;   -7.737;  728.200
307.098;   78.213;   -6.026;  746.560
307.696;   77.505;   -7.176;  780.432
308.294;   77.229;   -8.656;  731.359
308.892;   79.055;   -6.838;  759.769
309.490;   75.680;   -2.596;  712.161
310.088;   74.216;   -4.485;  788.444
310.686;   78.464;   -3.907;  821.749
311.284;   73.145;   -2.806;  766.040
311.882;   71.374;   -2.845;  731.225
312.480;   69.098;   -3.274;  697.167
313.078;   69.903;   -3.645;  808.331
313.675;   70.529;   -4.997;  691.600
314.273;   66.443;   -0.894;  797.837
314.871;   66.711;   -2.854;  589.829
315.468;   63.956;   -3.644;  652.090
316.066;   66.713;   -3.947;  694.427
316.664;   60.294;   -1.824;  656.351
317.261;   65.354;    1.565;  910.128
317.859;   60.428;   -3.955;  768.735
318.456;   60.586;   -2.886;  830.096
319.054;   57.309;   -0.995;  787.828
319.651;   57.218;   -1.765;  759.928
320.249;   55.421;   -3.685;  810.188
320.846;   52.877;   -3.736;  714.286
321.443;   52.440;   -2.065;  832.135
322.041;   50.536;   -5.635;  812.315
322.638;   47.515;   -5.985;  701.456
323.235;   48.771;   -6.677;  665.683
323.833;   47.422;   -3.497;  740.354
324.430;   42.853;   -6.756;  615.900
325.027;   43.622;   -7.647;  876.855
325.624;   44.904;   -7.598;  644.532
326.221;   42.779;   -5.848;  689.717
326.818;   42.889;   -5.777;  818.332
327.415;   44.364;   -8.769;  748.828
328.012;   43.261;   -6.299;  690.585
328.609;   42.112;   -6.639;  731.389
329.206;   41.172;   -6.358;  778.621
329.803;   39.921;   -8.698;  737.841
330.400;   42.037;   -8.379;  704.260
330.997;   42.385;   -6.178;  817.147
331.594;   40.761;   -5.646;  788.185
332.191;   44.304;   -6.928;  728.722
332.787;   44.959;   -6.057;  844.463
333.384;   43.085;   -6.445;  763.093
333.981;   43.235;   -8.002;  815.687
334.578;   43.122;   -8.443;  708.378
335.174;   45.036;   -6.053;  731.469
335.771;   45.072;   -5.791;  836.456
336.367;   43.107;   -6.570;  710.631
336.964;   45.462;   -6.741;  793.266
337.561;   44.373;   -5.710;  731.112
338.157;   41.188;   -3.928;  911.916
338.754;   37.722;   -5.577;  796.589
339.350;   36.062;   -9.667;  722.493
339.946;   38.819;   -5.269;  773.135
340.543;   31.648;   -4.485;  846.136
341.139;   26.411;   -7.584;  720.836
341.735;   24.618;   -8.553;  772.593
342.332;   23.120;   -4.984;  691.472
342.928;   24.229;   -3.475;  795.394
343.524;   19.629;   -6.653;  761.684
344.120;   16.178;   -7.173;  738.562
344.716;   18.529;   -4.385;  723.717
345.313;   17.225;   -3.565;  795.342
345.909;   13.985;   -7.495;  627.336
346.505;   14.936;   -8.276;  740.247
347.101;   16.276;   -5.697;  827.864
347.697;   17.156;   -4.767;  785.398
348.293;   11.021;   -7.226;  627.244
348.889;   12.455;   -7.547;  745.914
349.485;   11.775;   -9.147;  688.205
350.081;   12.885;   -6.568;  772.592
350.676;    7.862;   -6.516;  691.606
351.272;   12.485;   -7.378;  809.530
351.868;   11.954;   -6.759;  780.497
352.464;    9.591;   -4.798;  723.932
353.059;    6.716;   -7.977;  646.017
353.655;    9.195;   -8.769;  777.063
354.251;   10.768;   -5.920;  759.845
354.846;    5.532;   -7.647;  740.646
355.442;    3.709;   -6.956;  753.071
356.038;    5.202;   -9.928;  751.708
356.633;    4.404;   -7.698;  728.594
357.229;    3.874;   -6.307;  724.757
357.824;    2.248;   -7.647;  703.600
358.420;    0.800;  -10.047;  679.726
359.015;    1.732;   -7.458;  695.357
359.610;    3.283;   -5.748;  763.920
360.206;   -2.764;   -9.346;  603.240
360.801;    0.413;  -11.268;  646.503
361.396;    1.961;   -8.789;  725.975
361.992;   -2.014;   -6.347;  668.220
362.587;   -4.549;   -6.476;  670.160
363.182;   -2.927;   -9.457;  689.631
363.777;   -2.001;   -7.147;  738.242
364.372;   -1.938;   -5.507;  737.314
364.967;   -5.948;   -6.386;  680.744
365.563;   -1.285;   -7.858;  815.567
366.158;   -4.070;   -8.517;  685.161
366.753;   -3.242;   -8.728;  649.263
367.348;   -4.554;   -7.677;  746.056
367.942;   -5.021;  -10.387;  697.298
368.537;   -5.761;   -7.187;  754.245
369.132;   -5.578;   -8.587;  703.428
369.727;   -9.360;   -8.606;  638.079
370.322;   -8.696;  -10.426;  580.186
370.917;   -8.695;   -5.776;  710.646
371.511;   -4.352;   -6.007;  861.834
372.106;   -8.422;   -6.686;  776.964
372.701;  -12.120;   -9.335;  585.988
373.296;   -6.063;   -6.777;  863.135
373.890;  -10.803;   -7.546;  647.840
374.485;  -12.537;   -8.755;  691.199
375.079;   -8.440;   -9.797;  738.685
375.674;   -7.186;   -6.327;  812.970
376.268;  -11.333;   -9.046;  691.759
376.863;  -16.658;   -7.993;  580.327
377.457;  -10.879;   -9.206;  662.490
378.052;  -12.840;   -5.345;  764.884
378.646;  -13.201;   -5.605;  741.167
379.240;  -13.075;   -6.825;  721.176
379.835;  -12.885;  -10.476;  636.978
380.429;  -15.253;   -8.676;  562.557
381.023;  -14.140;   -4.945;  779.205
381.617;  -16.112;   -8.094;  680.106
382.212;  -13.809;  -10.646;  685.303
382.806;  -13.018;   -8.136;  760.690
383.400;  -16.304;   -7.855;  672.281
383.994;  -17.015;   -8.125;  664.870
384.588;  -13.651;   -7.637;  697.701
385.182;  -12.950;   -7.458;  726.624
385.776;  -13.523;   -6.277;  706.875
386.370;  -16.367;   -7.485;  681.968
386.964;  -15.120;   -9.416;  684.155
387.558;  -13.490;   -8.518;  598.360
388.152;  -16.604;   -7.096;  681.959
388.745;  -14.010;   -7.656;  814.707
389.339;  -12.863;   -8.927;  747.642
389.933;  -12.249;   -9.538;  695.370
390.527;  -13.082;   -5.857;  859.029
391.120;  -18.642;   -9.455;  595.318
391.714;  -16.281;   -9.746;  711.633
392.308;  -14.172;   -7.857;  780.253
392.901;  -16.282;   -9.106;  642.460
393.495;  -18.409;  -10.365;  595.414
394.089;  -16.370;   -9.696;  760.452
394.682;  -17.850;   -7.016;  697.188
395.275;  -16.692;   -8.466;  719.927
395.869;  -18.492;   -8.985;  667.314
396.462;  -17.198;  -11.496;  616.609
397.056;  -12.953;   -7.838;  776.621
397.649;  -16.986;   -6.895;  731.575
398.242;  -14.139;   -5.017;  712.645
398.836;  -13.089;   -8.787;  766.408
399.429;  -14.816;   -8.967;  631.041
400.022;  -18.420;   -8.815;  665.902
400.615;  -15.181;   -6.276;  805.609
401.208;  -13.435;   -8.407;  691.451
401.802;  -16.326;   -7.296;  699.329
402.395;  -17.823;   -7.585;  683.502
402.988;  -17.824;   -8.015;  696.627
403.581;  -14.723;   -9.577;  646.878
404.174;  -12.203;   -7.588;  686.568
404.767;  -15.618;   -7.906;  638.583
405.360;  -18.009;   -7.875;  621.445
405.953;  -11.884;   -8.127;  759.034
406.545;  -11.799;   -7.198;  725.342
407.138;  -15.679;   -8.916;  618.350
407.731;  -14.528;   -9.767;  613.303
408.324;  -10.959;  -10.659;  660.554
408.917;  -11.711;   -8.068;  681.864
409.509;  -12.645;   -9.837;  740.396
410.102;  -15.039;   -8.146;  643.948
410.695;   -9.106;   -7.969;  665.758
411.287;  -10.025;   -8.579;  599.821
411.880;  -11.237;   -6.968;  585.421
412.472;  -12.677;   -9.487;  613.092
413.065;  -11.625;  -10.338;  629.408
413.657;   -9.162;   -9.169;  576.678
414.250;   -8.475;  -10.119;  646.681
414.842;   -9.242;   -9.938;  676.353
415.434;   -7.971;  -10.409;  570.463
416.027;   -4.631;   -9.591;  652.196
416.619;   -6.116;   -7.379;  713.400
417.211;   -5.124;   -9.159;  599.352
417.804;   -2.189;   -9.191;  628.499
418.396;   -6.451;   -8.159;  607.643
418.988;   -4.454;   -6.960;  659.238
419.580;   -7.162;  -11.389;  568.276
420.172;   -4.594;  -13.460;  536.196
420.764;   -1.140;  -10.701;  672.482
421.356;   -1.473;   -8.961;  636.898
421.948;   -2.176;   -9.770;  677.661
422.540;    2.524;   -8.832;  680.027
423.132;    2.088;   -8.153;  600.641
423.724;   -1.999;   -8.481;  561.267
424.316;    1.180;   -9.261;  621.345
424.908;    4.636;   -9.643;  591.517
425.500;    5.175;   -8.663;  647.978
426.092;    6.037;   -8.503;  648.268
426.683;    5.411;  -10.522;  684.836
427.275;    7.301;  -11.734;  641.471
427.867;    8.427;  -10.264;  668.948
428.458;   10.258;   -7.644;  732.344
429.050;    7.627;   -7.853;  680.749
429.642;   10.646;   -8.904;  743.124
430.233;    9.891;  -10.795;  569.356
430.825;   12.004;   -7.665;  724.809
431.416;    9.971;   -8.843;  698.241
432.008;   14.137;   -9.885;  651.723
432.599;   13.546;   -9.966;  656.073
433.190;   11.710;   -9.164;  637.670
433.782;   10.792;   -8.584;  590.395
434.373;   18.064;   -8.296;  884.765
434.964;   16.258;   -9.896;  602.920
435.556;   14.509;   -8.255;  634.537
436.147;   17.605;   -8.075;  758.490
436.738;   16.958;   -9.716;  701.099
437.329;   22.116;   -7.318;  721.723
437.920;   15.548;   -6.694;  666.688
438.511;   15.468;   -9.644;  564.526
439.103;   22.288;   -9.427;  623.998
439.694;   24.385;  -10.748;  681.583
440.285;   25.214;   -7.997;  764.432
440.876;   23.930;  -10.046;  845.738
441.466;   23.163;  -13.467;  575.162
442.057;   28.236;   -9.329;  665.814
442.648;   26.979;   -7.707;  746.255
443.239;   26.153;   -9.017;  620.477
443.830;   30.809;  -10.279;  704.958
444.421;   32.509;  -12.630;  655.474
445.011;   28.684;   -8.697;  693.619
445.602;   29.835;   -7.787;  743.126
446.193;   30.924;  -13.329;  488.117
446.783;   35.322;   -9.171;  640.397
447.374;   30.768;   -7.457;  692.759
447.964;   31.868;   -9.277;  713.770
448.555;   40.224;   -9.041;  822.742
449.145;   35.652;   -8.969;  662.853
449.736;   37.700;   -6.809;  803.179
450.326;   37.859;   -7.229;  713.626
450.917;   42.725;  -11.391;  675.324
451.507;   41.741;   -9.501;  600.661
452.097;   42.344;   -8.460;  746.267
452.688;   43.876;  -10.080;  742.160
453.278;   43.885;  -12.861;  566.840
453.868;   48.131;   -8.372;  793.550
454.458;   46.039;   -8.131;  651.141
455.048;   46.416;   -8.520;  711.783
455.639;   47.569;  -13.632;  567.096
456.229;   51.113;  -10.143;  710.694
456.819;   53.878;   -9.163;  751.158
457.409;   54.676;   -8.652;  773.993
457.999;   57.128;   -9.933;  737.505
458.589;   56.920;  -10.363;  686.606
459.179;   56.835;  -10.633;  717.658
459.769;   55.347;  -12.442;  627.099
460.358;   59.792;   -9.844;  797.262
460.948;   59.053;   -9.924;  689.503
461.538;   61.518;  -10.484;  660.677
462.128;   59.689;  -10.703;  664.934
462.717;   66.435;  -11.486;  710.326
463.307;   69.804;  -10.767;  705.846
463.897;   65.388;   -8.814;  656.942
464.486;   65.435;   -8.182;  837.128
465.076;   68.723;   -9.985;  733.776
465.666;   72.805;  -10.447;  652.900
466.255;   70.336;   -7.754;  785.651
466.845;   69.734;  -10.884;  666.749
467.434;   72.696;  -12.525;  725.873
468.023;   73.225;  -11.456;  658.357
468.613;   71.748;   -9.173;  713.946
469.202;   76.149;   -9.306;  646.507
469.791;   80.127;   -8.917;  737.811
470.381;   81.808;   -9.657;  742.813
470.970;   81.090;   -9.947;  711.099
471.559;   82.646;   -9.256;  733.291
472.148;   84.909;  -13.397;  675.737
472.738;   87.268;   -9.928;  765.466
473.327;   87.332;  -10.897;  637.529
473.916;   87.748;   -8.526;  737.446
474.505;   91.849;  -11.078;  751.703
475.094;   94.839;   -9.559;  806.570
475.683;   94.755;   -8.838;  797.699
476.272;   95.164;  -10.198;  730.632
476.861;   98.696;  -11.489;  706.754
477.449;  104.588;  -10.721;  728.487
478.038;   98.771;   -9.818;  692.513
478.627;  100.115;   -9.887;  714.852
479.216;  106.695;  -10.030;  769.441
479.805;  110.528;   -9.401;  783.375
480.393;  110.945;   -5.739; 1008.945
480.982;  110.190;   -7.838;  874.501
481.571;  115.930;   -9.111;  858.333
482.159;  116.412;  -10.601;  705.386
482.748;  116.542;   -8.500;  821.385
483.336;  121.647;   -9.241;  858.209
483.925;  122.300;  -10.440;  774.373
484.513;  129.700;  -11.063;  758.962
485.102;  124.917;   -9.540;  810.965
485.690;  136.085;   -6.742; 1011.050
486.278;  137.752;   -8.442;  979.329
486.867;  136.659;  -10.472;  809.662
487.455;  139.087;   -8.811;  898.229
488.043;  141.777;  -10.721;  748.361
488.631;  151.279;  -10.393; 1005.079
489.220;  153.743;  -10.843;  908.626
489.808;  154.667;  -10.572;  741.415
490.396;  164.006;  -10.482;  914.645
490.984;  170.361;  -11.542;  830.161
491.572;  179.495;   -8.463;  940.315
492.160;  186.438;   -8.491;  919.081
492.748;  200.120;   -9.681;  884.341
493.336;  222.129;  -10.493; 1019.693
493.924;  248.885;   -9.354;  958.077
494.512;  280.490;   -9.132; 1066.638
495.100;  328.637;   -9.001; 1103.280
495.687;  391.518;  -11.924; 1206.373
496.275;  476.568;  -11.193; 1150.796
496.863;  561.409;   -9.241; 1281.171
497.451;  667.397;  -11.341; 1386.805
498.038;  807.702;  -11.364; 1556.729
498.626;  936.440;   -8.104; 1741.407
499.214; 1132.501;   -8.842; 2016.609
499.801; 1415.977;  -10.112; 2220.633
500.389; 1665.342;  -11.953; 2312.494
500.976; 1880.506;  -10.023; 2744.849
501.564; 2190.072;   -8.662; 3148.565
502.151; 2576.813;  -10.531; 3515.999
502.738; 3002.263;  -13.853; 3971.274
503.326; 3612.756;  -10.794; 4403.796
503.913; 4090.268;   -8.663; 5161.749
504.500; 4799.805;  -10.172; 5986.420
505.088; 5827.586;  -13.472; 6381.201
505.675; 6435.344;  -10.924; 6925.547
506.262; 6448.917;   -8.551; 7619.060
506.849; 6959.697;  -10.523; 8733.969
507.436; 7933.646;  -10.834; 9790.121
508.023; 8458.182;   -9.093; 9985.472
508.610; 8706.817;  -10.073;10434.618
509.197; 9825.826;   -9.500;11198.435
509.784;11612.130;  -13.242;12391.194
510.371;12586.359;  -10.964;13603.713
510.958;12985.239;   -9.772;14426.586
511.545;13392.949;   -7.842;15243.775
512.132;13460.508;  -12.184;15945.876
512.719;14725.692;   -9.733;16340.369
513.305;17788.098;   -9.172;18011.766
513.892;19347.688;   -9.581;19754.971
514.479;20441.727;  -10.253;20967.805
515.066;21473.139;   -8.183;22299.793
515.652;22604.373;   -9.253;22908.660
516.239;24493.414;   -9.412;23798.875
516.825;26001.930;  -11.153;25567.275
517.412;26093.201;  -10.263;28154.959
517.998;26115.473;   -8.802;28344.111
518.585;26802.064;  -10.401;27134.219
519.171;26268.682;  -12.744;27268.576
519.758;27156.172;  -11.793;28964.129
520.344;30316.639;   -8.912;30664.494
520.930;33876.289;  -10.901;32550.605
521.516;34222.305;  -12.034;35422.895
522.103;34790.711;  -10.473;38280.004
522.689;36495.848;   -8.311;37835.117
523.275;38973.508;  -10.691;37288.613
523.861;41031.422;  -11.193;37281.395
524.447;38655.992;  -11.484;37846.949
525.033;38538.195;   -7.702;38321.949
525.619;38634.930;  -11.241;38579.285
526.205;38672.984;  -12.152;40622.875
526.791;39854.418;  -11.423;42258.836
527.377;40284.305;   -7.981;42966.902
527.963;41006.547;   -9.450;42018.949
528.549;41103.051;  -11.351;42476.828
529.135;40690.441;  -10.202;41854.852
529.721;42341.602;   -8.672;41237.711
530.306;42434.547;   -9.111;41259.445
530.892;43853.645;  -11.252;41506.047
531.478;47322.816;  -10.432;43559.613
532.063;49476.605;  -10.721;47695.563
532.649;50368.086;   -7.450;50808.324
533.235;51917.590;  -11.811;51787.500
533.820;50727.078;   -9.383;52145.035
534.406;48221.613;   -9.400;51133.488
534.991;46800.430;   -8.861;49996.805
535.576;48066.410;  -10.612;48882.852
536.162;46177.918;   -7.322;46942.285
536.747;45102.008;   -9.360;45711.746
537.333;46017.570;  -10.450;48510.180
537.918;48943.273;  -12.610;50439.891
538.503;49385.414;  -12.132;50863.711
539.088;46096.234;  -10.831;50906.922
539.673;44972.633;  -11.220;52621.965
540.259;49387.117;  -11.481;52368.094
540.844;50253.730;  -11.462;50879.109
541.429;51249.633;   -7.869;52077.777
542.014;49746.227;  -11.859;52716.695
542.599;48156.297;  -11.061;52363.281
543.184;49108.281;  -12.300;53187.137
543.769;50415.289;   -9.369;54697.605
544.354;51794.184;  -12.020;53913.914
544.938;47015.195;  -10.350;49680.164
545.523;42966.121;  -10.841;47386.277
546.108;45942.637;   -8.579;49151.949
546.693;48744.488;   -8.818;51384.637
547.278;50388.590;  -11.331;51853.254
547.862;49773.715;  -10.292;51173.750
548.447;47066.625;   -8.349;51691.395
549.031;46293.070;  -10.838;52456.703
549.616;47917.527;  -11.681;52714.516
550.201;50817.727;  -11.140;52414.598
550.785;49201.094;   -8.649;52355.059
551.370;48540.375;  -11.889;54589.453
551.954;49940.402;  -11.239;58267.348
552.538;51835.188;   -8.850;59062.176
553.123;54344.961;  -10.829;58115.285
553.707;55585.680;   -8.887;56556.285
554.291;52469.582;  -10.430;56201.668
554.876;50182.434;   -9.799;55335.762
555.460;47507.914;  -10.018;54155.703
556.044;45983.680;   -7.307;53721.484
556.628;49689.488;  -12.229;53731.016
557.212;50891.602;   -9.820;54312.531
557.796;48651.484;   -9.109;53797.773
558.380;45024.758;   -9.707;56145.984
558.964;45656.379;  -10.980;57277.930
559.548;49619.445;  -12.010;56459.641
560.132;50646.262;   -7.928;54434.543
560.716;53500.910;  -10.247;54800.617
561.300;54661.852;  -11.250;57606.945
561.884;52780.711;  -10.568;58972.445
562.467;52500.418;   -9.727;57327.570
563.051;49574.781;  -11.847;54962.434
563.635;47842.129;  -10.747;52594.473
564.219;46306.695;  -13.108;50610.410
564.802;43403.234;  -11.417;49551.180
565.386;41301.535;  -10.457;48370.953
565.969;43477.320;   -8.959;48178.871
566.553;43600.914;  -10.328;49957.305
567.136;43613.020;  -10.257;50369.594
567.720;43534.984;  -10.186;49492.004
568.303;42378.559;  -10.027;50616.352
568.887;42550.465;  -10.397;50727.148
569.470;44120.582;   -8.185;51698.379
570.053;43355.172;  -11.596;52122.078
570.637;41910.574;  -11.378;52536.438
571.220;42045.570;   -9.138;51186.098
571.803;41160.422;   -7.675;51032.762
572.386;38810.070;   -8.976;49609.887
572.969;39354.719;  -12.477;48285.926
573.552;40069.316;   -9.767;47624.285
574.135;39369.500;   -8.175;45498.641
574.718;34531.406;  -11.096;41970.434
575.301;33379.234;  -11.966;41447.137
575.884;32227.063;  -12.836;40923.836
576.467;37662.109;   -9.116;45267.723
577.050;40011.156;  -10.536;48175.543
577.633;40441.813;  -11.027;47729.328
578.216;38832.340;   -9.946;47579.793
578.799;37320.070;   -9.645;47820.996
579.381;37465.688;   -9.446;48115.551
579.964;38173.695;  -12.217;47333.766
580.547;39056.461;  -10.586;46668.969
581.129;38600.031;   -8.374;44466.141
581.712;36634.406;  -10.434;44164.922
582.294;35606.281;  -10.896;46477.855
582.877;36801.766;   -8.906;48244.254
583.459;38376.465;   -9.994;47437.895
584.042;38125.645;  -10.084;46943.219
584.624;36609.758;  -13.534;46792.227
585.206;34810.945;  -12.716;46557.250
585.789;35497.586;  -11.614;45793.773
586.371;36536.172;  -10.203;43836.391
586.953;35419.484;  -10.314;42972.492
587.536;33352.570;   -9.776;42487.211
588.118;33652.199;   -9.821;42086.414
588.700;34754.012;  -10.073;43389.930
589.282;36152.008;  -12.395;43646.039
589.864;34292.117;  -11.514;43438.109
590.446;34267.879;  -10.803;43151.926
591.028;35710.836;  -11.043;42781.867
591.610;36092.270;  -13.244;42839.098
592.192;32678.795;  -11.095;42820.402
592.774;29988.842;  -10.823;40724.277
593.356;29167.213;  -11.052;39874.789
593.937;31572.227;  -11.664;39980.648
594.519;34642.227;  -10.454;42069.633
595.101;35705.059;  -10.322;42976.031
595.683;34376.191;  -10.042;44084.441
596.264;32463.701;  -14.334;43478.797
596.846;32502.877;  -10.863;43803.672
597.427;33423.285;   -9.901;42986.934
598.009;34180.629;  -10.911;42832.219
598.591;35339.141;  -10.483;42580.086
599.172;33939.852;   -9.663;43061.805
599.753;31689.270;  -10.631;41691.469
600.335;30915.479;   -9.371;40692.520
600.916;32104.086;  -13.992;39982.422
601.498;33668.348;   -8.352;40318.617
602.079;31931.076;   -8.411;40670.609
602.660;33214.074;  -10.841;41450.898
603.241;35469.699;  -12.963;41137.738
603.823;34492.313;  -11.523;38868.797
604.404;32496.182;  -11.881;38182.785
604.985;32350.539;  -11.721;38078.047
605.566;33669.391;   -9.293;38056.633
606.147;33450.758;  -10.940;37020.418
606.728;31898.775;  -11.840;37883.359
607.309;30752.039;  -11.781;38748.273
607.890;31227.902;  -11.262;38850.230
608.471;30831.506;  -10.111;37457.918
609.051;30549.873;   -7.709;36066.457
609.632;31372.949;  -12.409;35991.074
610.213;30665.828;  -10.811;37402.641
610.794;29824.275;  -11.630;38383.363
611.374;30997.965;   -8.030;40562.387
611.955;32266.586;  -10.809;38533.727
612.536;33823.563;  -10.531;36951.789
613.116;34145.445;  -12.820;37197.891
613.697;33096.223;  -11.419;38411.125
614.277;32581.281;   -9.768;38673.938
614.858;33052.313;  -10.251;37075.863
615.438;29584.063;  -11.981;35092.906
616.019;26864.439;   -8.978;33666.301
616.599;29477.822;  -12.219;34189.023
617.179;32946.535;  -14.170;36952.047
617.760;34540.914;   -9.211;39582.574
618.340;34769.367;   -9.018;38943.977
618.920;33453.188;   -9.249;37594.156
619.500;32444.424;  -12.728;37866.938
620.080;34237.332;  -12.939;37869.043
620.660;33937.023;  -11.586;36868.617
621.241;32834.945;  -11.538;36352.309
621.821;33403.813;  -11.398;35459.520
622.401;33986.508;  -10.179;35207.414
622.980;34812.113;  -11.587;35980.422
623.560;34032.465;  -12.888;37351.328
624.140;31760.221;  -13.149;34388.582
624.720;26920.463;   -9.928;32368.764
625.300;26202.656;  -10.869;32638.629
625.880;30899.541;   -8.617;34599.035
626.459;36021.105;  -12.138;36831.738
627.039;38020.609;  -12.267;38299.098
627.619;37619.477;   -7.476;38289.574
628.198;38030.398;  -11.347;37220.695
628.778;37476.695;  -11.678;37632.563
629.357;35221.785;  -12.438;38003.012
629.937;32915.695;   -9.576;38402.039
630.516;31786.168;  -11.096;37868.801
631.096;31158.768;  -11.828;35760.410
631.675;31162.191;  -11.565;35225.219
632.254;31087.189;  -11.845;35130.289
632.834;31965.646;  -11.545;35794.570
633.413;32903.488;  -10.887;35788.922
633.992;34795.535;  -10.175;34532.863
634.571;34111.949;   -9.704;33590.113
635.151;31780.986;  -10.815;34943.863
635.730;31077.621;  -11.617;35352.523
636.309;29889.064;  -10.836;35366.605
636.888;30285.389;   -9.755;36165.637
637.467;31101.064;  -11.684;37515.902
638.046;33021.078;  -11.987;39288.695
638.625;34487.707;  -10.455;38279.699
639.204;34219.938;  -11.234;37741.598
639.782;31635.563;  -12.023;38364.551
640.361;29134.324;  -11.506;36740.621
640.940;28720.893;  -12.316;34950.082
641.519;30716.072;  -11.616;34137.398
642.097;34640.645;   -9.266;35654.258
642.676;35450.961;  -12.936;35637.957
643.255;33982.180;   -9.966;36567.074
643.833;33395.734;   -8.916;37809.434
644.412;34652.277;  -10.936;37337.293
644.990;37653.047;  -12.176;37018.531
645.569;38671.035;  -12.246;36518.469
646.147;37856.633;  -12.107;36186.430
646.726;36453.961;  -12.937;36267.688
647.304;38383.715;  -12.547;36647.625
647.882;39493.660;  -12.597;39286.742
648.461;37740.512;   -9.427;39157.703
649.039;35466.703;   -8.937;35412.883
649.617;33087.645;  -11.067;34744.918
650.195;33388.477;  -10.657;35403.098
650.773;33096.504;  -10.097;35053.797
651.352;30895.928;  -11.887;33756.816
651.930;26416.002;  -13.557;31868.773
652.508;23040.006;  -11.767;33121.551
653.086;24186.598;  -10.777;33564.793
653.663;28024.928;  -12.067;34054.668
654.241;30958.010;  -14.918;35693.309
654.819;32552.309;  -11.788;36422.906
655.397;32146.189;  -11.268;38213.484
655.975;33131.832;  -11.738;39507.625
656.553;32509.867;  -11.018;39498.223
657.130;31324.373;  -12.848;40395.480
657.708;30546.271;  -10.098;39242.020
658.286;30954.170;  -11.678;38920.020
658.863;33597.875;  -11.498;40202.898
659.441;36492.426;  -11.008;39677.938
660.018;37143.207;  -11.048;40413.355
660.596;36820.090;  -12.058;39931.414
661.173;35835.625;  -14.158;39604.531
661.750;35301.285;  -12.298;39700.070
662.328;34331.598;  -10.699;39292.809
662.905;32356.998;  -12.119;38235.648
663.482;27541.742;  -11.829;36212.305
664.060;26485.051;  -11.009;35944.945
664.637;29257.598;  -10.369;35170.785
665.214;29754.617;  -10.459;34197.523
665.791;28445.572;  -12.599;34549.520
666.368;28326.598;  -12.919;35118.578
666.945;30311.354;  -10.699;36019.418
667.522;31760.604;  -11.359;36048.438
668.099;32120.293;  -13.529;36243.914
668.676;32069.855;  -10.229;35958.875
669.253;31946.088;   -9.279;37384.730
669.830;30557.883;  -11.370;36779.629
670.407;30429.826;  -10.950;35231.289
670.984;31572.926;  -12.850;35544.270
671.560;30968.041;   -8.440;35466.867
672.137;29500.428;  -13.520;34280.863
672.714;28981.074;  -13.620;34632.863
673.290;29868.359;  -10.450;35135.422
673.867;29701.439;  -10.960;36114.480
674.443;28372.947;  -13.300;36152.859
675.020;28824.400;  -12.370;35327.238
675.596;29517.191;  -11.250;35795.176
676.173;30019.533;  -11.080;35430.355
676.749;30058.189;  -13.220;33549.516
677.326;32677.861;  -13.000;32210.012
677.902;34616.875;  -12.701;32068.871
678.478;34739.703;  -12.801;32583.891
679.054;34047.699;   -8.601;32088.928
679.631;34311.453;  -12.631;30978.848
680.207;33679.273;   -9.451;33160.887
680.783;32262.695;  -11.701;35570.363
681.359;31875.076;  -12.701;36125.184
681.935;31769.104;  -13.271;35240.922
682.511;31048.199;  -10.791;34429.961
683.087;31113.434;  -10.791;34463.680
683.663;31154.602;   -8.121;34648.898
684.239;32873.461;  -13.261;34546.457
684.815;32713.910;  -10.581;35586.375
685.390;29530.293;   -9.961;35821.895
685.966;28274.258;  -11.182;35085.871
686.542;27813.373;  -13.512;34198.230
687.118;27928.152;  -11.472;32847.707
687.693;28082.223;  -10.152;32794.027
688.269;28895.760;  -14.442;33072.367
688.844;30342.230;  -11.852;33141.664
689.420;28794.404;  -13.942;33965.742
689.995;27563.375;   -9.702;34655.523
690.571;27522.537;  -11.312;33576.742
691.146;26908.891;  -14.332;32657.219
691.722;27611.035;  -11.192;32526.979
692.297;30234.715;  -10.962;33014.617
692.872;29849.215;  -11.082;34012.254
693.448;28711.266;  -14.732;34237.434
694.023;28287.705;  -12.363;34142.672
694.598;28306.619;  -12.393;34132.031
695.173;27291.104;  -11.023;34205.250
695.748;26652.883;  -12.743;32882.488
696.323;27903.199;  -11.103;32864.906
696.898;28994.805;   -8.123;33170.004
697.473;28787.000;  -12.603;32432.984
698.048;28754.143;  -12.553;31649.303
698.623;30328.598;  -12.573;30778.141
699.198;33908.652;  -12.743;31140.119
699.773;31860.969;  -12.843;31764.299
700.348;30308.219;  -16.683;31780.816
700.922;30491.859;  -11.403;32046.375
701.497;31102.871;  -11.253;32603.574
702.072;31668.822;  -10.044;34799.871
702.646;31603.998;  -13.054;35793.172
703.221;30242.342;  -11.414;35201.590
703.795;30095.209;  -10.644;34764.527
704.370;31653.455;  -13.484;34307.367
704.944;31879.715;  -12.144;33509.887
705.519;30731.965;  -12.024;31388.584
706.093;29304.033;  -11.234;31340.104
706.668;27419.016;   -9.874;32630.281
707.242;26658.617;  -12.404;32728.779
707.816;27038.230;  -10.644;32947.238
708.390;26482.818;  -11.174;33277.855
708.965;26504.635;  -10.324;33834.336
709.539;26398.480;  -12.014;33709.273
710.113;26468.967;  -12.295;33044.313
710.687;27532.367;  -10.965;31953.992
711.261;28269.053;  -13.685;30505.949
711.835;27675.271;  -15.335;30262.369
712.409;27061.533;  -13.785;31254.447
712.983;27535.666;  -10.525;32754.986
713.557;29126.033;  -13.175;34018.824
714.131;30620.148;  -13.245;34579.625
714.704;32542.189;  -13.175;33890.262
715.278;34871.063;  -11.545;33531.102
715.852;34330.844;  -10.975;33601.660
716.425;32669.699;  -10.075;33515.117
716.999;31841.863;  -12.185;33185.555
717.573;32180.848;   -9.685;33905.996
718.146;34126.328;  -10.516;35199.293
718.720;31497.240;  -12.106;35060.551
719.293;29948.828;  -12.386;34973.230
719.867;33419.602;  -12.456;36394.449
720.440;34122.609;  -10.686;36663.008
721.013;33957.676;  -12.596;35102.426
721.587;33652.152;  -13.956;33985.266
722.160;33004.918;   -9.806;33524.965
722.733;32799.078;  -11.676;32987.043
723.306;32065.902;  -14.276;33066.301
723.880;31937.324;  -12.126;33399.500
724.453;33535.785;  -10.156;33468.297
725.026;32284.619;  -12.956;33816.637
725.599;29870.303;  -11.676;32797.996
726.172;28177.477;  -12.337;33187.434
726.745;28622.578;  -11.277;35136.613
727.318;28702.002;  -11.927;35751.730
727.891;27498.418;  -13.607;35890.430
728.463;27409.330;  -11.327;34822.090
729.036;26488.465;  -11.917;32895.086
729.609;26609.674;  -12.697;31823.225
730.182;27408.537;  -11.787;31445.283
730.754;27814.711;  -12.957;32373.223
731.327;28739.957;  -11.017;33676.820
731.900;27556.180;  -12.797;33417.000
732.472;25682.553;  -10.677;31978.498
733.045;24787.637;  -12.797;30368.777
733.617;25751.523;  -13.908;30574.215
734.190;26066.361;  -12.258;31280.975
734.762;26778.607;  -13.438;31674.412
735.334;27392.172;  -11.758;31247.291
735.907;27337.906;  -11.158;29876.211
736.479;28732.061;  -11.258;29808.488
737.051;31340.436;  -10.918;30233.547
737.623;32507.195;  -11.038;31469.086
738.195;32576.994;  -12.188;31784.225
738.768;28997.744;  -11.378;32120.523
739.340;27239.273;  -12.598;32094.342
739.912;28986.549;  -11.568;31312.680
740.484;30032.398;   -9.348;31946.238
741.056;29310.439;  -12.628;32984.059
741.628;28720.934;  -13.349;33897.715
742.199;28722.898;  -11.309;33213.016
742.771;27705.293;  -12.699;31369.113
743.343;28636.262;  -11.919;31865.473
743.915;29083.021;  -11.679;32388.631
744.487;28089.680;  -12.249;31079.568
745.058;26491.568;  -11.119;30570.107
745.630;25272.006;   -9.439;29970.127
746.201;25824.707;  -11.949;29186.766
746.773;26797.924;  -12.639;28805.723
747.344;26440.742;  -11.039;29591.223
747.916;25088.768;  -12.549;31412.201
748.487;23736.934;  -12.659;32194.898
749.059;22685.213;  -13.059;32533.719
749.630;24330.555;  -12.080;32158.518
750.201;24552.859;  -13.100;30855.395
750.773;23517.561;  -15.310;28622.555
751.344;22568.865;  -12.240;28405.732
751.915;21809.162;  -11.960;28461.551
752.486;21045.045;  -13.200;27842.850
753.057;20962.488;  -15.230;27845.008
753.628;21510.117;  -13.130;27728.107
754.199;21841.918;  -12.720;27381.086
754.770;21515.939;  -10.680;25882.203
755.341;21441.240;  -11.010;25886.184
755.912;20974.164;  -12.990;26050.861
756.483;19705.664;  -11.110;26798.779
757.054;19033.580;  -12.190;27048.238
757.625;19509.414;  -13.981;26294.838
758.195;19314.486;  -11.041;26142.076
758.766;19880.965;  -11.861;26392.234
759.337;20669.537;  -11.461;26334.594
759.907;21833.385;  -15.001;27579.652
760.478;21866.145;   -9.681;28352.770
761.048;21090.023;  -12.421;27325.088
761.619;20544.141;  -11.761;26460.428
762.189;19046.580;  -12.391;26029.826
762.760;18016.727;  -10.201;26430.145
763.330;18300.168;  -10.811;26670.902
763.900;20843.326;  -10.261;26603.021
764.471;21888.502;  -13.061;25542.740
765.041;20057.471;  -11.051;24358.459
765.611;19352.816;  -11.032;23991.297
766.181;18905.449;  -10.532;24470.236
766.751;18880.734;  -13.502;24845.975
767.321;19026.383;  -11.392;24533.633
767.891;19205.881;  -11.522;24916.492
768.461;19587.830;  -13.672;24776.771
769.031;19221.682;  -14.652;24757.988
769.601;18562.146;  -10.182;24181.088
770.171;17423.699;  -11.752;23670.387
770.741;15498.799;  -12.272;22960.045
771.311;14907.855;  -13.112;22917.523
771.880;15287.697;  -14.122;23562.941
772.450;16254.632;  -11.782;24216.500
773.020;18451.482;  -12.642;24140.398
773.589;18678.387;  -13.043;24414.857
774.159;16662.811;  -11.783;23858.717
774.729;15328.448;  -13.473;22942.135
775.298;15862.623;  -14.523;22324.033
775.867;16691.332;  -12.013;21140.313
776.437;16112.614;  -12.113;20838.092
777.006;14861.521;  -13.543;20599.510
777.576;13708.771;  -12.523;20508.809
778.145;12945.614;  -12.173;20732.947
778.714;13651.465;  -12.153;21062.465
779.283;14107.123;  -11.833;20949.664
779.853;14991.417;  -13.483;20508.623
780.422;15873.832;  -12.933;20649.082
780.991;15459.249;  -13.173;21527.520
781.560;13660.445;  -10.224;22632.658
782.129;12756.721;  -12.684;23048.277
782.698;13824.733;  -11.284;23438.555
783.267;15083.676;  -11.684;23267.734
783.836;14547.476;  -10.974;22415.133
784.404;13179.975;  -13.534;20443.152
784.973;12890.184;  -16.734;19699.150
785.542;12811.389;  -12.594;19763.828
786.111;12389.105;  -11.644;20341.408
786.679;12629.481;  -11.384;20207.967
787.248;13346.828;  -12.014;19516.465
787.817;12365.379;  -12.804;18900.363
788.385;11233.054;  -11.994;17879.121
788.954;11489.442;  -12.564;17658.301
789.522;12993.178;  -12.225;17788.879
790.090;13451.588;  -13.775;18118.277
790.659;12541.796;  -12.485;18338.736
791.227;11717.691;  -12.295;18508.615
791.795;11702.092;  -13.415;17898.254
792.364;11179.500;  -12.995;17295.133
792.932;10787.026;   -8.365;16822.051
793.500;10988.677;  -11.925;17040.148
794.068;11406.089;  -13.245;17179.787
794.636;11664.498;  -13.815;16664.246
795.204;11016.616;  -13.375;16524.545
795.772;10670.640;  -12.125;17274.564
796.340;10889.889;  -13.855;17891.002
796.908;11265.355;  -13.456;17648.561
797.476;10880.136;  -13.116;17064.080
798.044;10163.438;  -13.226;16672.777
798.612;10578.865;  -11.236;17023.996
799.180;11632.882;  -10.476;16561.615
799.747;11793.876;  -11.746;15962.773
800.315;10834.440;  -12.366;15296.992
800.883; 9819.518;  -14.616;14801.771
801.450; 9341.831;  -11.996;14534.430
802.018;10045.677;  -11.206;14173.248
802.585; 9965.168;  -12.466;14029.547
803.153; 9161.153;  -12.846;13836.846
803.720; 8870.253;  -12.136;13567.324
804.287; 8580.638;  -10.966;13360.622
804.855; 8570.711;   -9.797;13681.981
805.422; 8449.861;  -13.037;13536.560
805.989; 8171.995;  -12.697;13355.958
806.556; 8306.494;  -11.737;13747.896
807.124; 8643.198;  -11.997;13987.376
807.691; 8250.523;  -13.997;14038.674
808.258; 7952.808;  -10.927;14120.152
808.825; 8351.022;  -13.727;13860.111
809.392; 8841.037;  -11.847;13268.790
809.959; 8409.033;  -14.217;12680.389
810.526; 7540.942;   -8.277;12427.308
811.093; 7186.628;   -9.647;12030.105
811.659; 7113.167;  -10.987;11653.664
812.226; 6823.783;  -13.447;11637.183
812.793; 6938.457;  -14.418;11611.521
813.360; 7367.645;  -13.908;11885.181
813.926; 7488.222;  -12.918;12770.539
814.493; 7261.102;  -14.888;12677.638
815.060; 7304.725;  -12.758;11974.336
815.626; 7687.975;  -13.478;11594.715
816.193; 7832.218;  -13.898;11579.474
816.759; 7671.609;  -13.588;11666.972
817.325; 7680.794;  -12.018;11325.530
817.892; 7416.055;  -14.068;11105.369
818.458; 6613.610;  -13.458;10843.928
819.024; 6206.848;  -11.968;10714.406
819.591; 5879.141;  -11.028;10469.165
820.157; 5592.776;  -12.088;10235.523
820.723; 5534.223;  -12.599;10847.563
821.289; 5730.626;  -10.419;11040.980
821.855; 6344.500;  -10.939;10357.100
822.421; 6960.540;  -12.539; 9978.918
822.987; 6986.686;  -13.259; 9754.177
823.553; 6378.386;  -15.369;10065.755
824.119; 6086.876;  -10.779;10036.294
824.685; 5746.658;   -9.999;10029.192
825.251; 5406.362;  -11.819;10199.230
825.816; 5153.915;  -13.369; 9820.189
826.382; 5196.269;  -12.679; 9297.248
826.948; 5482.512;  -11.199; 9381.347
827.513; 5443.369;  -11.179; 9450.726
828.079; 5335.623;  -13.489; 9472.444
828.645; 5567.043;  -12.500; 9292.643
829.210; 5927.375;  -15.120; 9065.341
829.776; 5931.326;  -12.590; 9132.620
830.341; 5744.818;  -11.540; 9092.878
830.906; 5614.063;  -12.400; 9078.557
831.472; 5474.091;  -12.720; 8534.535
832.037; 5121.395;  -11.490; 8677.874
832.602; 4656.515;  -14.380; 8628.692
833.167; 4706.769;  -12.780; 8879.031
833.733; 4895.490;  -11.100; 9189.790
834.298; 5067.138;  -12.080; 9052.608
834.863; 5195.249;  -13.910; 8895.087
835.428; 5050.965;  -13.470; 8824.266
835.993; 5248.708;  -11.760; 8845.385
836.558; 5586.175;  -12.731; 8888.563
837.123; 5753.731;  -12.431; 8966.582
837.688; 5582.068;  -11.241; 8617.860
838.253; 5264.614;  -13.681; 8590.699
838.817; 4885.408;  -12.531; 8443.797
839.382; 4831.702;  -12.671; 8799.356
839.947; 4840.934;  -11.541; 8810.595
840.511; 4690.549;  -12.021; 8796.394
841.076; 4676.193;  -13.071; 8347.231
841.641; 4668.494;  -11.411; 8224.330
842.205; 4443.018;  -13.671; 8223.349
842.770; 4287.998;  -11.291; 8622.107
843.334; 4357.909;  -12.951; 8410.386
843.898; 4456.040;  -11.221; 8337.465
844.463; 4446.407;  -11.322; 8506.283
845.027; 4311.995;  -11.412; 8280.962
845.591; 4066.795;  -11.512; 8231.141
846.156; 4168.292;  -14.042; 7969.179
846.720; 4419.782;  -12.152; 7768.278
847.284; 4389.129;  -10.922; 7630.957
847.848; 4118.347;  -10.962; 7472.395
848.412; 3779.666;  -14.612; 7437.394
848.976; 3695.863;  -11.492; 7674.592
849.540; 3711.710;   -9.172; 7836.011
850.104; 3924.202;  -11.232; 7913.669
850.668; 4366.028;  -15.182; 7694.508
851.232; 4231.082;  -15.332; 7756.887
851.796; 3833.912;  -13.703; 7926.545
852.359; 3832.447;  -11.113; 7827.844
852.923; 3930.211;  -11.843; 7641.163
853.487; 3895.361;  -11.173; 7342.501
854.050; 3742.727;  -13.443; 7042.820
854.614; 3521.853;  -13.823; 7151.338
855.177; 3410.644;  -16.393; 7105.077
855.741; 3509.200;  -11.693; 6989.675
856.304; 3608.216;  -10.843; 6596.634
856.868; 3577.458;  -13.783; 6356.272
857.431; 3401.813;  -11.953; 6468.571
857.995; 3246.741;  -13.683; 6373.210
858.558; 3258.780;  -11.433; 6324.448
859.121; 3263.170;  -12.493; 6408.327
859.684; 3206.578;  -12.384; 6347.886
860.247; 3150.816;  -14.774; 6321.264
860.810; 3029.187;  -13.154; 6301.903
861.374; 2905.254;  -11.264; 6607.881
861.937; 2847.197;  -15.424; 6408.200
862.500; 2841.231;  -12.854; 6572.639
863.062; 2852.401;  -12.344; 6387.297
863.625; 2849.487;  -13.314; 6190.836
864.188; 2709.449;  -14.724; 5807.254
864.751; 2587.669;  -13.464; 5682.413
865.314; 2550.390;  -11.684; 5547.492
865.876; 2613.550;  -11.104; 5500.150
866.439; 2764.058;  -12.344; 5415.909
867.002; 2793.479;  -13.494; 5501.567
867.564; 2802.620;  -10.935; 5413.946
868.127; 2678.647;  -12.665; 5160.325
868.689; 2472.203;  -14.515; 5133.183
869.252; 2453.837;  -13.425; 5252.382
869.814; 2464.487;  -11.595; 5297.141
870.377; 2460.113;  -12.175; 5390.919
870.939; 2335.169;  -10.265; 5599.898
871.501; 2214.521;  -12.375; 5248.336
872.063; 2194.175;  -14.355; 4854.235
872.626; 2262.263;  -14.435; 4817.074
873.188; 2209.069;  -12.415; 4987.732
873.750; 2168.206;  -14.555; 4868.651
874.312; 2177.230;  -11.185; 4779.330
874.874; 2131.142;  -12.715; 4866.348
875.436; 2000.058;  -13.196; 4718.887
875.998; 1900.235;  -11.426; 4660.005
876.560; 1821.842;   -9.786; 4462.964
877.122; 1811.238;  -12.796; 4145.042
877.683; 1764.290;  -13.226; 4056.481
878.245; 1679.991;  -12.036; 3950.740
878.807; 1593.016;  -11.536; 4058.958
879.369; 1538.715;  -10.806; 3954.677
879.930; 1589.778;  -13.946; 3941.495
880.492; 1716.360;  -11.876; 4067.014
881.053; 1705.194;  -13.216; 3859.633
881.615; 1604.231;  -12.226; 3776.071
882.176; 1550.474;  -12.946; 3734.750
882.738; 1531.751;  -10.736; 3678.489
883.299; 1468.556;  -12.057; 3405.407
883.860; 1358.479;  -12.677; 3351.106
884.422; 1282.719;  -14.097; 3394.044
884.983; 1227.198;  -13.667; 3166.443
885.544; 1168.939;  -10.717; 3189.802
886.105; 1119.892;  -14.357; 3160.360
886.666; 1071.199;  -14.287; 3093.059
887.227; 1021.950;  -14.297; 2941.957
887.788;  987.792;  -13.137; 2974.836
888.349;  931.757;  -14.637; 2721.214
888.910;  867.443;  -12.247; 2696.493
889.471;  861.568;  -10.577; 2560.172
890.032;  858.903;  -12.937; 2558.190
890.593;  840.224;  -12.487; 2567.669
891.153;  817.114;  -11.898; 2460.307
891.714;  779.357;  -14.278; 2372.046
892.275;  757.076;  -13.308; 2309.505
892.835;  723.631;  -12.058; 2382.543
893.396;  645.501;  -15.268; 2295.502
893.956;  591.310;  -13.278; 2162.420
894.517;  568.260;  -11.968; 2125.439
895.077;  569.993;  -12.798; 2086.978
895.638;  558.540;  -11.908; 2126.316
896.198;  543.923;  -13.288; 1838.275
896.758;  522.520;  -12.198; 1892.813
897.319;  495.607;  -13.048; 1792.232
897.879;  467.931;  -13.718; 1762.751
898.439;  432.879;  -14.138; 1661.149
898.999;  394.674;  -13.659; 1781.468
899.559;  373.626;  -14.699; 1703.347
900.119;  355.904;  -14.339; 1537.525
900.679;  330.539;  -11.789; 1638.384
901.239;  303.186;  -13.629; 1527.902
901.799;  286.850;  -13.679; 1456.441
902.359;  276.893;  -13.679; 1357.140
902.919;  269.360;  -14.159; 1331.118
903.479;  258.606;  -13.419; 1317.257
904.038;  243.875;  -14.899; 1262.595
904.598;  229.715;  -14.339; 1152.034
905.158;  221.591;  -13.959; 1240.893
905.717;  216.343;  -12.749; 1233.691
906.277;  213.155;  -11.889; 1217.330
906.836;  208.619;  -12.870; 1222.408
907.396;  202.821;  -11.790; 1193.047
907.955;  195.595;  -13.750; 1182.526
908.515;  186.755;  -14.760; 1099.364
909.074;  181.630;  -12.540; 1092.863
909.633;  175.092;  -12.120; 1069.121
910.192;  171.152;  -12.550; 1196.460
910.752;  165.751;  -12.760; 1029.960
911.311;  162.075;  -14.750; 1009.780
911.870;  159.119;  -13.860;  971.460
912.429;  159.073;  -13.480; 1094.080
912.988;  159.635;  -12.370; 1081.060
913.547;  155.902;  -14.670;  940.380
914.106;  153.668;  -12.800;  999.420
914.665;  153.354;  -11.370;  984.020
915.224;  151.170;  -11.430; 1035.760
915.782;  147.752;  -12.260;  922.560
916.341;  146.964;  -12.540; 1049.840
916.900;  144.705;  -12.540;  925.260
917.458;  143.177;  -13.480;  884.220
918.017;  142.086;  -12.470;  942.600
918.576;  141.498;  -13.450;  904.440
919.134;  140.234;  -12.890;  837.980
919.693;  139.540;  -15.480;  893.060
920.251;  138.782;  -14.420;  876.500
920.809;  137.684;  -12.170;  839.580
921.368;  136.343;  -13.650;  885.360
921.926;  136.579;  -12.750;  842.940
922.484;  136.699;  -14.150;  903.360
923.042;  135.374;  -15.100;  880.340
923.601;  136.666;  -10.990;  998.680
924.159;  135.203;  -12.470;  935.560
924.717;  135.462;  -15.640;  841.080
925.275;  136.558;  -12.380;  903.240
925.833;  135.159;  -12.710;  779.320
926.391;  138.851;  -11.200;  938.380
926.949;  138.253;  -16.000;  857.680
927.506;  138.984;  -12.260;  903.500
928.064;  139.424;  -11.300;  877.580
928.622;  139.972;  -13.750;  880.100
929.180;  140.259;  -15.290;  814.180
929.737;  139.605;  -14.500;  808.540
930.295;  142.394;  -10.630;  928.480
930.853;  144.429;  -14.590;  849.100
931.410;  145.135;  -14.450;  821.120
931.968;  146.430;  -14.390;  940.660
932.525;  148.682;  -13.050;  909.380
933.082;  151.946;  -15.620;  811.440
933.640;  157.709;  -15.650;  925.900
934.197;  162.879;  -13.610;  886.360
934.754;  165.991;  -13.320;  897.780
935.312;  166.133;  -13.370;  863.340
935.869;  168.007;  -12.780; 1012.980
936.426;  166.760;  -14.480;  872.800
936.983;  169.198;  -13.180;  889.020
937.540;  169.558;  -15.710;  838.280
938.097;  171.330;  -14.980;  940.120
938.654;  169.413;  -13.060;  898.860
939.211;  168.251;  -12.760;  952.480
939.768;  169.293;  -16.230;  915.420
940.324;  175.615;  -10.940;  904.200
940.881;  180.503;  -12.570;  878.500
941.438;  185.849;  -13.650; 1021.200
941.995;  183.935;  -13.300;  992.560
942.551;  182.182;  -15.800;  875.620
943.108;  181.160;  -14.180;  937.920
943.664;  175.990;  -13.890;  869.340
944.221;  175.850;  -12.640; 1088.140
944.777;  171.501;  -14.700;  869.680
945.334;  171.945;  -13.010;  884.840
945.890;  172.511;  -13.480;  946.480
946.446;  171.043;  -14.920;  947.020
947.003;  170.503;  -13.860;  964.940
947.559;  171.464;  -12.000; 1063.040
948.115;  171.462;  -10.510; 1026.540
948.671;  169.335;  -12.760;  967.300
949.227;  165.033;  -15.390;  859.560
949.783;  162.621;  -15.570;  858.900
950.339;  163.124;  -12.800;  991.000
950.895;  162.381;  -13.780; 1023.840
951.451;  159.551;  -13.810;  925.280
952.007;  159.159;  -12.390;  998.540
952.563;  156.904;  -11.980;  937.780
953.118;  152.836;  -14.070;  904.940
953.674;  151.076;  -14.140;  935.780
954.230;  151.108;  -12.680;  949.640
954.785;  151.111;  -12.770;  936.640
955.341;  151.255;  -11.450;  998.160
955.897;  146.875;  -15.350;  834.660
956.452;  145.130;  -14.200;  953.840
957.008;  144.483;  -10.820; 1083.640
957.563;  142.057;  -13.200; 1009.540
958.118;  136.577;  -14.460;  877.700
958.674;  134.926;  -13.840;  946.780
959.229;  135.436;  -10.670; 1013.980
959.784;  137.129;  -17.040;  832.400
960.339;  139.843;  -12.970; 1001.280
960.894;  139.458;  -12.700;  963.760
961.449;  137.563;  -13.790;  859.960
962.004;  143.731;  -11.760; 1212.840
962.559;  142.475;  -14.840;  860.140
963.114;  141.072;  -14.530;  742.480
963.669;  144.462;  -12.780;  915.500
964.224;  146.199;  -14.330;  874.340
964.779;  142.761;  -14.380;  828.420
965.334;  137.839;  -12.460; 1017.860
965.888;  131.499;  -13.490;  875.360
966.443;  131.554;  -14.140;  972.380
966.998;  127.999;  -16.240;  819.460
967.552;  125.405;  -12.730;  908.380
968.107;  122.335;  -14.510;  868.300
968.661;  124.301;  -11.850;  922.440
969.216;  121.128;  -14.370;  856.280
969.770;  120.554;  -13.010;  917.200
970.324;  120.897;  -12.460;  923.140
970.879;  121.491;  -11.580;  947.180
971.433;  120.599;  -13.130;  952.720
971.987;  117.420;  -12.360;  895.340
972.541;  116.729;  -14.330;  917.100
973.095;  116.798;  -13.310; 1009.460
973.649;  114.908;  -15.830;  809.480
974.203;  116.904;  -15.830;  829.040
974.757;  121.835;  -13.480;  855.220
975.311;  120.329;  -13.720;  872.600
975.865;  116.801;  -15.780;  881.820
976.419;  112.648;  -14.290;  857.400
976.973;  110.477;  -13.210;  849.620
977.526;  109.855;  -12.300;  949.920
978.080;  106.450;  -14.840;  796.780
978.634;  105.983;  -13.100;  921.320
979.187;  103.020;  -12.300;  905.400
979.741;  101.772;  -12.020; 1018.380
980.294;   95.685;  -14.590;  789.160
980.848;   91.500;  -14.390;  717.220
981.401;   91.693;  -14.280;  816.540
981.955;   92.511;  -11.920;  844.300
982.508;   91.224;  -15.790;  746.340
983.061;   90.681;  -12.070;  915.260
983.615;   87.751;  -13.260;  798.800
984.168;   84.797;  -15.540;  770.080
984.721;   85.302;  -13.230;  880.760
985.274;   82.937;  -11.820;  867.500
985.827;   80.664;  -13.510;  834.220
986.380;   79.027;  -14.840;  721.340
986.933;   79.745;  -13.970;  864.800
987.486;   77.731;  -12.450;  861.920
988.039;   75.489;  -11.170;  863.100
988.591;   74.245;  -13.070;  893.260
989.144;   70.202;  -15.530;  737.260
989.697;   68.934;  -14.300;  758.740
990.250;   67.574;  -13.310;  858.100
990.802;   67.122;  -14.490;  755.860
991.355;   68.563;  -12.980;  974.880
991.907;   66.781;  -13.715;  864.320
992.460;   64.998;  -14.450;  753.760
993.012;   64.248;  -12.590;  749.540
993.565;   63.433;  -15.180;  711.360
994.117;   64.446;  -11.630;  950.780
994.669;   59.970;  -13.760;  701.320
995.221;   59.394;  -12.710;  791.920
995.774;   59.162;  -14.620;  787.580
996.326;   58.005;  -13.150;  740.220
996.878;   57.999;  -12.880;  838.420
997.430;   56.722;  -14.580;  699.860
997.982;   56.345;  -14.030;  750.140
998.534;   55.417;  -12.190;  739.060
999.086;   53.758;  -12.990;  738.220
999.638;   52.779;  -13.180;  661.380
1000.190;   52.654;  -14.970;  699.320
1000.741;   51.956;  -12.200;  742.700
1001.293;   51.565;  -13.400;  686.020
1001.845;   50.745;  -14.490;  676.640
1002.396;   51.885;  -15.280;  743.400
1002.948;   52.142;  -12.380;  737.400
1003.500;   49.925;  -13.260;  723.780
1004.051;   50.910;  -13.730;  907.580
1004.603;   50.110;  -12.300;  791.820
1005.154;   45.599;  -15.330;  608.980
1005.705;   45.021;  -12.800;  723.960
1006.257;   45.196;  -13.900;  707.220
1006.808;   44.000;  -14.430;  685.460
1007.359;   43.467;  -12.010;  763.240
1007.910;   41.892;  -12.690;  646.640
1008.461;   42.319;  -13.610;  732.940
1009.013;   40.709;  -14.990;  588.340
1009.564;   41.572;  -11.860;  793.520
1010.115;   38.560;  -12.640;  597.040
1010.665;   40.252;  -14.570;  602.160
1011.216;   39.778;  -15.190;  667.920
1011.767;   38.716;  -13.470;  697.920
1012.318;   39.023;  -13.760;  736.980
1012.869;   37.906;  -15.950;  679.000
1013.419;   38.528;  -15.880;  603.120
1013.970;   37.833;  -14.540;  666.640
1014.521;   37.753;  -13.220;  620.620
1015.071;   37.997;  -15.020;  670.380
1015.622;   37.440;  -17.510;  635.460
1016.172;   36.611;  -14.130;  596.820
1016.723;   35.714;  -14.220;  614.380
1017.273;   35.966;  -15.370;  604.160
1017.823;   36.031;  -15.290;  650.340
1018.374;   35.486;  -13.420;  611.760
1018.924;   34.543;  -11.740;  716.880
1019.474;   35.858;  -12.250;  718.880
1020.024;   34.254;  -15.850;  657.580
1020.574;   35.261;  -13.280;  726.160
1021.124;   34.836;  -13.560;  673.580
1021.674;   33.562;  -13.790;  559.120
1022.224;   35.601;  -14.610;  708.940
1022.774;   33.633;  -13.100;  668.820
1023.324;   34.274;  -11.470;  753.520
1023.874;   35.648;  -11.990;  875.760
1024.423;   33.579;  -14.550;  613.700
1024.973;   32.714;  -14.440;  610.760
1025.523;   31.712;  -13.250;  620.960
1026.072;   31.952;  -15.200;  606.420
1026.622;   31.595;  -14.590;  675.740
1027.172;   32.713;  -11.080;  715.660
1027.721;   30.435;  -14.010;  601.220
1028.270;   31.286;  -13.690;  663.400
1028.820;   31.533;  -15.380;  638.080
1029.369;   30.278;  -14.980;  612.700
1029.918;   30.522;  -13.100;  649.840
1030.468;   30.194;  -13.680;  564.780
1031.017;   31.205;  -13.770;  634.800
1031.566;   29.281;  -14.100;  608.900
1032.115;   29.626;  -11.770;  694.500
1032.664;   29.204;  -14.940;  596.480
1033.213;   30.720;  -13.370;  735.420
1033.762;   29.256;  -13.660;  635.620
1034.311;   28.974;  -13.650;  677.220
1034.860;   29.423;  -13.820;  691.000
1035.408;   29.618;  -12.860;  722.720
1035.957;   29.727;  -13.060;  719.540
1036.506;   26.366;  -14.510;  530.800
1037.055;   30.108;  -13.470;  844.320
1037.603;   28.650;  -14.800;  664.000
1038.152;   26.443;  -14.190;  534.760
1038.700;   26.627;  -11.810;  585.740
1039.249;   27.303;  -12.850;  681.220
1039.797;   27.689;  -14.610;  633.360
1040.345;   27.205;  -15.220;  705.420
1040.894;   26.350;  -13.480;  625.300
1041.442;   26.423;  -13.310;  632.200
1041.990;   25.932;  -14.510;  559.160
1042.538;   25.457;  -15.700;  536.180
1043.087;   25.289;  -13.910;  570.860
1043.635;   26.917;  -13.620;  670.500
1044.183;   26.082;  -14.230;  586.400
1044.731;   25.665;  -13.730;  576.000
1045.279;   24.639;  -13.970;  674.920
1045.827;   27.534;  -10.750;  892.400
1046.374;   24.158;  -15.230;  515.420
1046.922;   23.641;  -15.390;  590.580
1047.470;   24.736;  -12.320;  691.300
1048.018;   25.117;  -13.230;  647.960
1048.565;   26.067;  -13.390;  708.600
1049.113;   23.424;  -15.030;  557.000
1049.660;   23.655;  -12.540;  629.660
1050.208;   24.763;  -15.040;  675.640
1050.755;   23.881;  -14.680;  606.580
1051.303;   24.031;  -13.610;  686.820
1051.850;   22.924;  -14.340;  635.120
1052.397;   20.590;  -16.330;  473.960
1052.945;   22.429;  -15.710;  617.760
1053.492;   23.638;  -12.320;  741.840
1054.039;   23.245;  -13.730;  720.180
1054.586;   21.925;  -16.140;  557.240
1055.133;   23.514;  -14.020;  693.140
1055.680;   22.103;  -13.430;  646.620
1056.227;   21.011;  -14.570;  542.780
1056.774;   23.390;  -14.400;  794.980
1057.321;   21.352;  -14.230;  523.260
1057.868;   21.126;  -14.220;  651.320
1058.415;   21.239;  -14.060;  651.980
1058.961;   21.908;  -14.640;  678.940
1059.508;   21.672;  -13.970;  643.820
1060.055;   20.575;  -15.100;  581.780
1060.601;   20.970;  -12.180;  624.300
1061.148;   20.776;  -15.010;  616.820
1061.694;   20.560;  -14.750;  592.580
1062.241;   20.760;  -14.130;  596.320
1062.787;   20.341;  -14.770;  663.140
1063.334;   22.370;  -13.130;  808.560
1063.880;   20.615;  -14.420;  668.360
1064.426;   20.553;  -13.130;  706.820
1064.972;   19.070;  -13.960;  601.340
1065.518;   18.452;  -13.680;  566.640
1066.065;   19.729;  -15.720;  624.460
1066.611;   18.452;  -13.970;  598.800
1067.157;   18.942;  -13.920;  641.860
1067.703;   18.612;  -14.760;  668.480
1068.249;   18.926;  -14.490;  605.220
1068.794;   18.776;  -14.740;  626.880
1069.340;   17.545;  -13.220;  578.960
1069.886;   18.683;  -14.930;  590.700
1070.432;   18.085;  -14.700;  541.720
1070.977;   17.182;  -14.470;  601.080
1071.523;   17.062;  -14.330;  573.060
1072.068;   17.700;  -14.960;  582.000
1072.614;   17.704;  -16.220;  527.760
1073.160;   18.228;  -11.280;  687.040
1073.705;   16.183;  -15.990;  572.520
1074.250;   17.054;  -16.550;  559.900
1074.796;   18.729;  -14.600;  655.160
1075.341;   17.680;  -13.440;  664.100
1075.886;   17.019;  -14.450;  594.240
1076.431;   16.734;  -13.160;  649.880
1076.976;   17.224;  -14.710;  639.220
1077.521;   15.753;  -14.000;  583.080
1078.067;   15.376;  -14.470;  579.400
1078.612;   15.960;  -14.530;  661.620
1079.156;   17.210;  -15.660;  601.540
1079.701;   15.789;  -16.120;  693.260
1080.246;   16.206;  -12.960;  696.300
1080.791;   16.758;  -13.700;  625.020
1081.336;   16.825;  -15.540;  659.320
1081.880;   15.785;  -14.640;  649.680
1082.425;   14.479;  -14.220;  573.480
1082.970;   16.783;  -11.890;  717.040
1083.514;   15.377;  -13.820;  597.000
1084.059;   14.277;  -14.280;  586.720
1084.603;   14.182;  -12.890;  565.840
1085.147;   14.564;  -13.590;  645.220
1085.692;   15.401;  -14.050;  716.800
1086.236;   12.888;  -14.990;  503.140
1086.780;   15.189;  -12.640;  751.440
1087.325;   14.123;  -15.550;  654.620
1087.869;   15.045;  -14.980;  610.700
1088.413;   14.185;  -13.440;  705.040
1088.957;   12.918;  -12.170;  543.400
1089.501;   15.688;  -12.730;  766.640
1090.045;   15.254;  -14.650;  726.480
1090.589;   11.760;  -14.500;  569.920
1091.133;   13.201;  -12.320;  673.340
1091.676;   14.215;  -16.130;  591.940
1092.220;   13.140;  -13.930;  600.920
1092.764;   14.032;  -12.820;  706.960
1093.307;   13.434;  -11.700;  673.780
1093.851;   12.029;  -15.600;  556.540
1094.395;   13.999;  -13.920;  683.140
1094.938;   12.960;  -16.090;  632.520
1095.482;   12.424;  -13.820;  559.800
1096.025;   13.586;  -12.720;  710.880
1096.568;   14.431;  -12.100;  779.280
1097.112;   10.057;  -15.450;  508.180
1097.655;   11.954;  -14.310;  603.000
1098.198;   10.318;  -14.740;  600.180
1098.741;   11.461;  -15.550;  612.860
1099.285;   12.204;  -12.600;  657.300
1099.828;    9.407;  -15.050;  439.400
1100.371;   11.478;  -14.800;  608.160
1100.914;   11.685;  -16.480;  682.660
1101.457;   11.719;  -12.990;  679.900
1101.999;    9.743;  -14.110;  584.680
1102.542;   11.046;  -11.450;  641.440
1103.085;   12.131;  -13.350;  658.500
1103.628;   11.643;  -13.200;  762.060
1104.170;   10.124;  -12.310;  588.280
1104.713;   10.773;  -14.320;  646.700
1105.256;   10.927;  -16.110;  557.440
1105.798;    8.801;  -15.910;  499.980
1106.341;   11.503;  -12.200;  728.900
1106.883;    9.084;  -14.910;  521.340
1107.425;   10.343;  -14.960;  668.180
1107.968;    9.575;  -13.440;  612.380
1108.510;   10.235;  -14.010;  684.960
1109.052;    8.601;  -15.430;  612.620
1109.594;    9.646;  -15.290;  554.440
1110.136;   10.229;  -13.360;  643.220
1110.679;    8.620;  -13.820;  633.080
1111.221;    9.702;  -13.690;  604.460
1111.763;    9.409;  -14.890;  559.220
1112.304;    8.543;  -14.550;  547.140
1112.846;    9.237;  -12.760;  666.240
1113.388;   12.172;  -10.780;  942.180
1113.930;    9.243;  -12.690;  694.200
1114.472;    8.409;  -15.730;  606.540
1115.013;    6.722;  -14.620;  551.280
1115.555;    7.494;  -14.950;  587.100
1116.097;    8.092;  -16.460;  579.480
1116.638;    8.356;  -13.730;  684.600
1117.180;    8.378;  -13.810;  667.740
1117.721;    7.455;  -13.280;  568.580
1118.262;    9.170;  -15.080;  677.960
1118.804;    8.273;  -14.040;  637.340
1119.345;    7.278;  -15.430;  578.400
1119.886;    8.718;  -15.240;  704.040
1120.427;    7.811;  -15.820;  589.020
1120.969;    6.622;  -14.550;  597.920
1121.510;    6.083;  -14.030;  563.060
1122.051;    8.230;  -11.990;  723.580
1122.592;    7.223;  -16.490;  655.420
1123.133;    5.498;  -15.580;  547.940
1123.673;    7.760;  -12.850;  706.480
1124.214;    6.539;  -13.630;  612.460
1124.755;    8.423;  -14.830;  639.460
1125.296;    6.497;  -13.110;  627.320
1125.836;    7.174;  -11.320;  691.500
1126.377;    6.780;  -14.330;  599.660
1126.918;    8.020;  -12.800;  614.980
1127.458;    5.989;  -13.580;  622.220
1127.999;    6.255;  -10.330;  656.980
1128.539;    6.518;  -13.390;  694.240
1129.079;    5.932;  -16.420;  632.720
1129.620;    5.043;  -15.700;  558.100
1130.160;    4.702;  -14.790;  539.480
1130.700;    6.179;  -12.910;  640.840
1131.240;    6.575;  -15.610;  643.700
1131.781;    4.402;  -12.920;  619.680
1132.321;    5.114;  -15.300;  599.120
1132.861;    4.520;  -14.760;  564.200
1133.401;    5.367;  -15.470;  593.940
1133.941;    4.983;  -13.710;  626.280
1134.481;    4.233;  -11.820;  597.580
1135.020;    4.801;  -14.810;  609.160
1135.560;    5.498;  -13.660;  674.940
1136.100;    4.610;  -13.940;  501.160
1136.640;    3.161;  -15.410;  510.480
1137.179;    3.779;  -16.920;  537.960
1137.719;    4.977;  -16.430;  605.400
1138.258;    5.033;  -16.300;  587.360
1138.798;    4.861;  -13.710;  663.780
1139.337;    2.995;  -13.840;  482.840
1139.877;    4.945;  -16.140;  642.360
1140.416;    6.264;  -11.410;  878.060
1140.955;    3.325;  -12.820;  535.380
1141.494;    4.136;  -12.310;  669.280
1142.034;    3.544;  -16.280;  583.520
1142.573;    4.309;  -13.090;  646.280
1143.112;    2.696;  -13.770;  553.480
1143.651;    3.688;  -15.830;  536.480
1144.190;    5.007;  -15.010;  691.640
1144.729;    3.599;  -13.650;  607.420
1145.267;    2.929;  -13.670;  584.900
1145.806;    4.433;  -13.630;  637.040
1146.345;    3.551;  -14.160;  635.020
1146.884;    3.618;  -11.180;  622.500
1147.422;    1.799;  -15.890;  533.060
1147.961;    4.809;  -12.760;  708.460
1148.500;    4.242;  -15.220;  669.720
1149.038;    3.797;  -13.720;  632.500
1149.577;    2.919;  -13.250;  698.640
1150.115;    0.750;  -16.790;  452.280
1150.653;    3.690;  -15.810;  607.340
1151.192;    2.682;  -14.730;  552.920
1151.730;    3.504;  -13.660;  652.560
1152.268;    1.599;  -15.120;  589.520
1152.806;    2.206;  -15.580;  571.180
1153.344;    1.219;  -16.210;  577.640
1153.882;    1.206;  -12.810;  600.060
1154.421;    0.968;  -14.150;  470.620
1154.958;    1.922;  -15.360;  595.240
1155.496;    2.332;  -14.710;  645.280
1156.034;    1.776;  -13.640;  721.880
1156.572;    2.971;  -13.740;  667.060
1157.110;    1.225;  -16.960;  473.940
1157.647;    1.854;  -11.940;  676.960
1158.185;    0.668;  -14.090;  564.320
1158.723;    0.433;  -13.610;  509.200
1159.260;    2.418;  -14.760;  701.700
1159.798;    2.098;  -13.700;  658.160
1160.335;    1.114;  -13.820;  631.820

