
Integration time [ms]:   3.276
Averaging Nr. [scans]: 1000
Smoothing Nr. [pixels]: 0
Data measured with spectrometer [name]: 7414430SP
Wave   ;Sample   ;Dark     ;Reference
[nm]   ;[counts] ;[counts] ;[counts] 

288.544;  158.907;    7.793;  793.890
289.143;  160.623;    7.462;  681.602
289.742;  161.978;    8.602;  828.814
290.341;  149.491;    1.321;  789.841
290.940;  138.832;   -0.709;  730.702
291.538;  140.391;    0.881;  881.108
292.137;  140.289;    0.122;  792.581
292.736;  143.198;   -1.929;  975.101
293.335;  139.104;   -8.229;  735.086
293.934;  139.421;   -5.279;  781.677
294.532;  141.153;   -1.369; 1031.958
295.131;  127.323;   -7.641;  834.394
295.730;  126.515;   -8.420;  809.588
296.328;  123.364;   -5.611;  783.442
296.927;  123.906;   -5.781;  779.652
297.525;  125.212;   -6.361;  781.236
298.124;  116.865;  -11.382;  654.009
298.722;  120.745;   -7.641;  761.933
299.321;  117.687;   -6.811;  708.597
299.919;  114.280;   -6.991;  751.918
300.518;  111.205;  -10.362;  689.338
301.116;  112.703;   -9.581;  691.381
301.715;  113.724;   -4.891;  730.222
302.313;  112.510;   -8.801;  704.943
302.911;  106.385;   -8.522;  733.830
303.509;  111.143;   -6.171;  925.627
304.108;  110.525;   -7.311;  760.383
304.706;  110.284;   -8.321;  801.664
305.304;  103.471;  -10.222;  796.707
305.902;  108.706;   -6.021;  784.484
306.500;  104.597;   -4.971;  728.200
307.098;  103.921;   -7.061;  746.560
307.696;  101.581;   -8.801;  780.432
308.294;  100.630;   -6.411;  731.359
308.892;  102.895;   -2.901;  759.769
309.490;   99.434;   -5.041;  712.161
310.088;   97.641;   -5.002;  788.444
310.686;  101.825;   -2.041;  821.749
311.284;   97.741;   -2.351;  766.040
311.882;   95.773;   -4.422;  731.225
312.480;   92.066;   -4.192;  697.167
313.078;   92.784;   -1.172;  808.331
313.675;   93.987;   -2.601;  691.600
314.273;   89.567;   -1.312;  797.837
314.871;   88.467;   -3.942;  589.829
315.468;   85.593;   -2.802;  652.090
316.066;   89.368;   -0.701;  694.427
316.664;   82.286;   -4.362;  656.351
317.261;   85.766;   -2.872;  910.128
317.859;   81.580;   -2.022;  768.735
318.456;   81.865;   -0.531;  830.096
319.054;   79.024;   -3.912;  787.828
319.651;   77.282;   -4.752;  759.928
320.249;   75.112;   -2.602;  810.188
320.846;   72.558;   -0.821;  714.286
321.443;   71.204;   -4.642;  832.135
322.041;   68.211;   -5.002;  812.315
322.638;   64.773;   -3.982;  701.456
323.235;   66.292;   -3.411;  665.683
323.833;   63.658;   -7.361;  740.354
324.430;   58.979;   -8.611;  615.900
325.027;   59.185;   -4.061;  876.855
325.624;   59.501;   -4.031;  644.532
326.221;   56.566;   -7.481;  689.717
326.818;   55.035;   -5.281;  818.332
327.415;   57.863;   -7.460;  748.828
328.012;   57.041;   -5.510;  690.585
328.609;   56.321;   -7.880;  731.389
329.206;   54.521;   -8.331;  778.621
329.803;   54.352;   -5.121;  737.841
330.400;   57.102;   -4.510;  704.260
330.997;   58.313;   -6.441;  817.147
331.594;   56.732;   -8.831;  788.185
332.191;   61.081;   -7.621;  728.722
332.787;   65.063;   -4.591;  844.463
333.384;   65.516;   -7.412;  763.093
333.981;   64.094;   -8.293;  815.687
334.578;   66.405;   -7.052;  708.378
335.174;   69.898;   -3.102;  731.469
335.771;   68.570;   -5.943;  836.456
336.367;   65.487;   -7.393;  710.631
336.964;   69.954;   -4.063;  793.266
337.561;   68.242;   -3.813;  731.112
338.157;   64.451;   -4.654;  911.916
338.754;   62.510;   -7.934;  796.589
339.350;   60.331;   -4.414;  722.493
339.946;   62.999;   -4.664;  773.135
340.543;   54.999;   -6.375;  846.136
341.139;   47.994;   -9.815;  720.836
341.735;   44.041;   -4.526;  772.593
342.332;   44.738;   -4.895;  691.472
342.928;   44.571;   -4.295;  795.394
343.524;   37.894;   -5.476;  761.684
344.120;   33.193;   -5.856;  738.562
344.716;   37.222;   -2.155;  723.717
345.313;   35.404;   -6.275;  795.342
345.909;   29.762;   -8.815;  627.336
346.505;   30.296;   -5.305;  740.247
347.101;   30.733;   -2.674;  827.864
347.697;   32.287;   -4.344;  785.398
348.293;   26.475;   -9.975;  627.244
348.889;   26.957;   -5.774;  745.914
349.485;   26.135;   -5.004;  688.205
350.081;   27.740;   -4.704;  772.592
350.676;   21.972;   -6.635;  691.606
351.272;   26.327;   -4.504;  809.530
351.868;   26.302;   -3.914;  780.497
352.464;   22.936;   -9.044;  723.932
353.059;   19.566;   -8.314;  646.017
353.655;   22.535;   -7.024;  777.063
354.251;   23.626;   -5.343;  759.845
354.846;   18.802;   -8.604;  740.646
355.442;   15.823;   -6.945;  753.071
356.038;   17.573;   -7.564;  751.708
356.633;   17.946;   -5.814;  728.594
357.229;   16.060;   -7.364;  724.757
357.824;   13.987;   -8.024;  703.600
358.420;   13.019;   -9.384;  679.726
359.015;   13.800;   -5.104;  695.357
359.610;   14.494;   -6.854;  763.920
360.206;    7.961;  -10.185;  603.240
360.801;   10.942;   -7.054;  646.503
361.396;   13.209;   -5.034;  725.975
361.992;    9.403;   -8.284;  668.220
362.587;    5.641;   -8.625;  670.160
363.182;    7.348;   -7.674;  689.631
363.777;    9.083;   -5.164;  738.242
364.372;    8.712;   -8.604;  737.314
364.967;    4.512;   -9.055;  680.744
365.563;    8.508;   -6.114;  815.567
366.158;    6.282;   -5.814;  685.161
366.753;    6.458;   -7.854;  649.263
367.348;    4.866;   -7.804;  746.056
367.942;    4.131;   -7.954;  697.298
368.537;    3.378;   -4.984;  754.245
369.132;    3.350;   -8.564;  703.428
369.727;   -0.321;   -8.855;  638.079
370.322;    0.857;   -6.245;  580.186
370.917;    0.322;   -6.425;  710.646
371.511;    4.466;   -6.294;  861.834
372.106;   -0.528;   -7.685;  776.964
372.701;   -4.562;   -7.335;  585.988
373.296;    2.022;   -4.564;  863.135
373.890;   -2.720;  -10.235;  647.840
374.485;   -4.921;   -7.885;  691.199
375.079;   -0.921;   -7.324;  738.685
375.674;    0.439;   -3.494;  812.970
376.268;   -4.113;   -8.525;  691.759
376.863;  -10.420;  -10.086;  580.327
377.457;   -4.146;   -7.025;  662.490
378.052;   -5.438;   -3.585;  764.884
378.646;   -6.330;   -7.595;  741.167
379.240;   -6.353;   -8.335;  721.176
379.835;   -6.034;   -5.785;  636.978
380.429;   -7.824;   -4.335;  562.557
381.023;   -8.022;   -6.805;  779.205
381.617;  -10.789;   -9.195;  680.106
382.212;   -7.490;   -6.905;  685.303
382.806;   -5.830;   -3.745;  760.690
383.400;  -10.810;   -7.745;  672.281
383.994;  -11.744;   -9.765;  664.870
384.588;   -7.862;   -6.564;  697.701
385.182;   -6.924;   -5.344;  726.624
385.776;   -8.090;   -8.514;  706.875
386.370;  -10.965;   -9.555;  681.968
386.964;  -10.891;   -8.715;  684.155
387.558;   -8.419;   -6.174;  598.360
388.152;  -11.837;   -8.725;  681.959
388.745;  -10.390;   -7.965;  814.707
389.339;   -8.864;   -5.924;  747.642
389.933;   -7.721;   -5.524;  695.370
390.527;   -8.214;   -7.114;  859.029
391.120;  -15.333;  -10.725;  595.318
391.714;  -12.248;   -8.035;  711.633
392.308;   -8.816;   -3.574;  780.253
392.901;  -12.053;   -7.245;  642.460
393.495;  -14.467;   -9.285;  595.414
394.089;  -12.991;   -5.895;  760.452
394.682;  -13.417;   -4.295;  697.188
395.275;  -12.977;   -9.875;  719.927
395.869;  -15.362;   -8.485;  667.314
396.462;  -13.308;   -7.455;  616.609
397.056;   -9.029;   -5.424;  776.621
397.649;  -13.592;   -6.605;  731.575
398.242;  -11.522;   -8.224;  712.645
398.836;  -10.722;   -7.474;  766.408
399.429;  -11.373;   -7.094;  631.041
400.022;  -15.610;   -9.475;  665.902
400.615;  -12.614;   -7.145;  805.609
401.208;  -10.400;   -7.174;  691.451
401.802;  -13.393;   -5.515;  699.329
402.395;  -14.175;   -9.875;  683.502
402.988;  -15.228;   -8.845;  696.627
403.581;  -12.090;   -8.874;  646.878
404.174;   -9.656;   -5.324;  686.568
404.767;  -12.873;   -9.575;  638.583
405.360;  -15.784;  -10.965;  621.445
405.953;  -10.506;   -8.764;  759.034
406.545;   -9.385;   -7.514;  725.342
407.138;  -13.727;  -10.025;  618.350
407.731;  -13.179;  -10.034;  613.303
408.324;   -8.517;   -9.374;  660.554
408.917;   -9.368;   -6.534;  681.864
409.509;  -10.575;   -8.004;  740.396
410.102;  -13.808;   -9.875;  643.948
410.695;   -6.928;   -8.604;  665.758
411.287;   -8.787;   -6.794;  599.821
411.880;   -8.910;   -9.334;  585.421
412.472;  -11.848;  -10.254;  613.092
413.065;  -10.042;   -6.714;  629.408
413.657;   -7.025;   -7.234;  576.678
414.250;   -7.200;  -10.544;  646.681
414.842;   -9.777;   -9.744;  676.353
415.434;   -7.474;   -6.994;  570.463
416.027;   -3.158;   -5.893;  652.196
416.619;   -4.614;   -7.264;  713.400
417.211;   -5.544;  -10.374;  599.352
417.804;   -2.014;   -7.993;  628.499
418.396;   -5.639;   -7.234;  607.643
418.988;   -4.406;   -9.443;  659.238
419.580;   -6.987;  -10.724;  568.276
420.172;   -5.339;  -10.323;  536.196
420.764;   -0.521;   -8.793;  672.482
421.356;   -0.935;  -11.143;  636.898
421.948;   -3.695;   -8.293;  677.661
422.540;    1.343;   -7.893;  680.027
423.132;    1.060;   -7.082;  600.641
423.724;   -1.790;   -8.653;  561.267
424.316;   -0.039;  -10.213;  621.345
424.908;    3.515;   -9.762;  591.517
425.500;    4.871;   -5.572;  647.978
426.092;    4.964;   -8.422;  648.268
426.683;    3.480;   -9.283;  684.836
427.275;    6.160;   -7.852;  641.471
427.867;    8.093;   -5.272;  668.948
428.458;    8.866;   -7.682;  732.344
429.050;    7.246;  -10.612;  680.749
429.642;    9.174;   -9.882;  743.124
430.233;    9.928;   -6.962;  569.356
430.825;   11.109;   -6.842;  724.809
431.416;    8.481;   -9.672;  698.241
432.008;   12.256;   -6.552;  651.723
432.599;   13.017;   -6.891;  656.073
433.190;    9.538;  -10.912;  637.670
433.782;    8.718;  -11.172;  590.395
434.373;   15.917;   -6.061;  884.765
434.964;   14.890;   -8.251;  602.920
435.556;   12.801;   -9.722;  634.537
436.147;   15.964;   -9.082;  758.490
436.738;   14.681;   -8.041;  701.099
437.329;   21.015;   -7.341;  721.723
437.920;   13.685;   -8.162;  666.688
438.511;   13.151;  -11.802;  564.526
439.103;   19.840;  -10.191;  623.998
439.694;   22.392;   -7.601;  681.583
440.285;   23.709;   -8.541;  764.432
440.876;   21.243;   -9.751;  845.738
441.466;   19.883;   -9.401;  575.162
442.057;   25.419;   -7.760;  665.814
442.648;   24.043;   -9.971;  746.255
443.239;   22.029;  -11.001;  620.477
443.830;   28.113;   -7.990;  704.958
444.421;   29.455;   -7.910;  655.474
445.011;   26.110;   -8.131;  693.619
445.602;   26.193;   -7.111;  743.126
446.193;   28.095;  -10.920;  488.117
446.783;   32.886;   -6.500;  640.397
447.374;   27.665;   -8.671;  692.759
447.964;   27.598;  -10.781;  713.770
448.555;   36.272;   -9.650;  822.742
449.145;   33.103;   -8.660;  662.853
449.736;   33.996;   -8.990;  803.179
450.326;   33.589;   -9.500;  713.626
450.917;   38.276;   -8.680;  675.324
451.507;   38.719;   -7.520;  600.661
452.097;   39.476;   -8.590;  746.267
452.688;   40.120;  -11.340;  742.160
453.278;   39.685;  -10.100;  566.840
453.868;   44.024;   -6.019;  793.550
454.458;   42.189;   -9.440;  651.141
455.048;   42.276;  -10.560;  711.783
455.639;   42.791;  -11.799;  567.096
456.229;   47.002;   -6.899;  710.694
456.819;   49.639;   -7.389;  751.158
457.409;   49.622;  -11.119;  773.993
457.999;   52.405;   -9.289;  737.505
458.589;   52.188;   -6.139;  686.606
459.179;   53.035;   -8.729;  717.658
459.769;   50.235;   -9.789;  627.099
460.358;   54.984;  -10.259;  797.262
460.948;   54.369;   -7.299;  689.503
461.538;   56.858;  -10.289;  660.677
462.128;   54.116;  -11.269;  664.934
462.717;   60.260;   -9.368;  710.326
463.307;   64.191;   -7.908;  705.846
463.897;   60.111;   -9.599;  656.942
464.486;   59.152;   -9.769;  837.128
465.076;   63.386;   -8.048;  733.776
465.666;   67.019;   -9.358;  652.900
466.255;   64.754;   -7.919;  785.651
466.845;   63.429;  -11.689;  666.749
467.434;   66.176;   -7.818;  725.873
468.023;   68.006;   -7.678;  658.357
468.613;   66.097;  -10.939;  713.946
469.202;   70.020;  -10.118;  646.507
469.791;   74.343;   -9.108;  737.811
470.381;   76.408;   -6.058;  742.813
470.970;   76.253;  -10.428;  711.099
471.559;   75.949;  -10.268;  733.291
472.148;   78.186;   -8.448;  675.737
472.738;   82.033;   -6.917;  765.466
473.327;   81.079;  -11.978;  637.529
473.916;   80.543;  -11.888;  737.446
474.505;   84.728;   -9.437;  751.703
475.094;   88.225;   -6.747;  806.570
475.683;   87.163;   -9.367;  797.699
476.272;   88.217;  -12.637;  730.632
476.861;   89.878;  -10.027;  706.754
477.449;   96.178;   -8.716;  728.487
478.038;   91.344;   -9.577;  692.513
478.627;   92.241;   -9.718;  714.852
479.216;   99.496;   -8.947;  769.441
479.805;  102.165;   -6.256;  783.375
480.393;  102.948;   -7.937; 1008.945
480.982;  101.242;   -7.717;  874.501
481.571;  107.711;   -9.266;  858.333
482.159;  108.629;   -7.636;  705.386
482.748;  108.550;   -9.667;  821.385
483.336;  112.350;  -10.376;  858.209
483.925;  113.688;   -7.147;  774.373
484.513;  120.204;   -7.996;  758.962
485.102;  118.113;  -10.027;  810.965
485.690;  126.700;  -10.446; 1011.050
486.278;  126.724;   -8.446;  979.329
486.867;  128.265;   -6.356;  809.662
487.455;  131.018;   -9.136;  898.229
488.043;  131.798;  -10.646;  748.361
488.631;  141.800;   -7.456; 1005.079
489.220;  145.527;   -6.636;  908.626
489.808;  145.224;  -11.036;  741.415
490.396;  153.176;  -10.246;  914.645
490.984;  159.940;   -8.556;  830.161
491.572;  172.116;   -5.886;  940.315
492.160;  179.426;   -9.486;  919.081
492.748;  193.648;  -10.976;  884.341
493.336;  215.833;   -8.776; 1019.693
493.924;  245.361;   -5.465;  958.077
494.512;  278.847;   -9.986; 1066.638
495.100;  327.879;  -10.636; 1103.280
495.687;  390.038;  -10.885; 1206.373
496.275;  444.955;   -8.126; 1150.796
496.863;  513.403;  -10.586; 1281.171
497.451;  629.365;  -11.926; 1386.805
498.038;  742.467;  -10.885; 1556.729
498.626;  838.604;   -6.315; 1741.407
499.214;  992.817;   -7.326; 2016.609
499.801; 1213.510;  -11.906; 2220.633
500.389; 1464.892;  -10.466; 2312.494
500.976; 1713.962;   -5.236; 2744.849
501.564; 2137.446;   -8.936; 3148.565
502.151; 2592.062;  -13.176; 3515.999
502.738; 3115.903;  -10.646; 3971.274
503.326; 3497.474;   -9.525; 4403.796
503.913; 3788.402;  -10.856; 5161.749
504.500; 4293.784;  -11.586; 5986.420
505.088; 4601.328;  -10.336; 6381.201
505.675; 5070.379;   -6.355; 6925.547
506.262; 5526.846;   -9.046; 7619.060
506.849; 6022.668;  -10.416; 8733.969
507.436; 6554.489;  -10.305; 9790.121
508.023; 7028.817;   -5.496; 9985.472
508.610; 7851.056;   -7.856;10434.618
509.197; 9153.007;  -10.097;11198.435
509.784;10605.637;  -10.886;12391.194
510.371;11951.509;   -9.315;13603.713
510.958;12762.503;   -9.936;14426.586
511.545;13390.969;   -9.326;15243.775
512.132;14046.200;  -10.075;15945.876
512.719;14238.854;   -7.796;16340.369
513.305;15070.505;  -10.606;18011.766
513.892;16391.742;  -11.486;19754.971
514.479;18131.035;   -9.126;20967.805
515.066;19725.074;   -6.026;22299.793
515.652;19970.018;   -8.466;22908.660
516.239;21004.215;  -10.886;23798.875
516.825;23249.072;  -11.496;25567.275
517.412;25331.697;   -5.796;28154.959
517.998;27305.223;  -10.506;28344.111
518.585;26929.365;  -10.076;27134.219
519.171;25472.541;   -8.315;27268.576
519.758;26346.039;   -8.596;28964.129
520.344;27572.189;   -8.466;30664.494
520.930;30084.648;  -11.006;32550.605
521.516;30409.111;  -10.495;35422.895
522.103;28917.646;   -5.526;38280.004
522.689;29555.619;   -8.746;37835.117
523.275;31224.771;  -11.376;37288.613
523.861;33147.418;  -11.156;37281.395
524.447;36562.957;   -8.135;37846.949
525.033;37593.016;   -7.896;38321.949
525.619;37191.742;  -12.476;38579.285
526.205;37471.965;   -9.516;40622.875
526.791;37217.566;   -6.926;42258.836
527.377;38230.441;   -8.346;42966.902
527.963;39647.168;   -8.717;42018.949
528.549;38479.426;  -11.016;42476.828
529.135;38833.527;   -8.536;41854.852
529.721;38581.137;   -9.666;41237.711
530.306;36995.918;  -10.066;41259.445
530.892;36906.176;  -11.356;41506.047
531.478;36309.574;   -6.596;43559.613
532.063;36831.254;   -8.836;47695.563
532.649;40358.789;  -10.047;50808.324
533.235;41723.594;   -9.746;51787.500
533.820;40919.504;   -6.566;52145.035
534.406;39924.055;  -10.817;51133.488
534.991;42795.980;   -9.416;49996.805
535.576;43811.105;   -9.036;48882.852
536.162;44055.984;   -6.156;46942.285
536.747;45388.836;  -11.607;45711.746
537.333;45769.863;  -11.787;48510.180
537.918;45794.180;  -12.437;50439.891
538.503;47064.445;   -7.196;50863.711
539.088;44825.160;  -10.556;50906.922
539.673;43288.082;   -8.767;52621.965
540.259;44361.941;  -10.026;52368.094
540.844;46058.750;   -7.416;50879.109
541.429;45115.707;   -9.467;52077.777
542.014;44908.469;   -9.527;52716.695
542.599;47296.566;   -9.946;52363.281
543.184;49911.336;   -7.927;53187.137
543.769;48227.152;   -9.297;54697.605
544.354;44980.574;  -10.127;53913.914
544.938;43311.918;   -9.267;49680.164
545.523;45430.129;   -6.506;47386.277
546.108;49060.211;   -9.787;49151.949
546.693;48669.113;  -11.587;51384.637
547.278;48534.871;  -10.986;51853.254
547.862;45669.367;   -8.206;51173.750
548.447;43005.074;  -10.067;51691.395
549.031;43708.887;   -9.637;52456.703
549.616;44592.227;   -9.926;52714.516
550.201;43366.719;   -6.347;52414.598
550.785;42759.762;   -7.917;52355.059
551.370;43795.258;  -10.867;54589.453
551.954;44693.109;   -9.047;58267.348
552.538;45831.191;   -7.827;59062.176
553.123;45711.691;  -10.287;58115.285
553.707;41926.758;  -12.178;56556.285
554.291;42752.855;   -8.717;56201.668
554.876;45783.777;   -7.457;55335.762
555.460;46770.203;  -10.387;54155.703
556.044;47749.410;   -9.618;53721.484
556.628;46976.695;  -11.567;53731.016
557.212;44904.555;   -8.097;54312.531
557.796;46290.766;  -11.077;53797.773
558.380;44438.598;  -11.108;56145.984
558.964;43137.832;   -9.057;57277.930
559.548;42745.605;   -6.977;56459.641
560.132;41559.012;  -11.457;54434.543
560.716;40632.441;  -11.378;54800.617
561.300;41578.930;   -9.577;57606.945
561.884;43531.164;   -7.127;58972.445
562.467;44253.973;   -7.118;57327.570
563.051;43757.270;  -13.358;54962.434
563.635;41577.820;  -10.178;52594.473
564.219;41017.355;   -7.837;50610.410
564.802;40603.340;  -11.398;49551.180
565.386;41721.980;  -12.788;48370.953
565.969;42468.129;   -9.077;48178.871
566.553;42626.438;   -6.207;49957.305
567.136;39901.637;   -8.568;50369.594
567.720;39008.973;  -11.868;49492.004
568.303;39081.461;   -8.268;50616.352
568.887;37901.402;   -8.698;50727.148
569.470;38015.602;   -6.808;51698.379
570.053;36721.723;  -13.188;52122.078
570.637;35352.574;  -12.037;52536.438
571.220;34611.539;   -8.577;51186.098
571.803;34990.875;   -8.498;51032.762
572.386;37148.656;  -10.498;49609.887
572.969;38142.910;   -9.388;48285.926
573.552;34002.527;   -8.338;47624.285
574.135;31175.604;   -8.518;45498.641
574.718;28246.014;  -13.628;41970.434
575.301;28960.473;  -10.893;41447.137
575.884;29674.932;   -8.158;40923.836
576.467;34897.219;  -10.328;45267.723
577.050;33631.758;  -13.058;48175.543
577.633;32861.367;   -9.458;47729.328
578.216;34447.004;   -8.928;47579.793
578.799;35423.328;   -9.358;47820.996
579.381;34796.676;  -11.388;48115.551
579.964;31875.504;  -11.718;47333.766
580.547;31694.910;   -8.588;46668.969
581.129;33257.340;   -8.859;44466.141
581.712;33412.430;  -10.729;44164.922
582.294;34695.164;  -11.118;46477.855
582.877;32626.775;   -5.218;48244.254
583.459;32543.416;   -8.679;47437.895
584.042;34364.469;  -10.709;46943.219
584.624;36491.785;  -11.669;46792.227
585.206;35474.648;   -8.218;46557.250
585.789;34262.949;  -10.569;45793.773
586.371;34590.438;  -11.859;43836.391
586.953;33130.992;  -10.719;42972.492
587.536;34728.340;   -7.198;42487.211
588.118;36146.996;   -8.720;42086.414
588.700;35358.879;  -10.439;43389.930
589.282;35331.820;   -9.198;43646.039
589.864;34036.250;   -9.199;43438.109
590.446;31775.650;  -11.319;43151.926
591.028;31171.465;  -11.159;42781.867
591.610;30680.127;  -11.779;42839.098
592.192;27390.264;   -7.668;42820.402
592.774;26968.621;  -11.949;40724.277
593.356;26445.314;  -12.129;39874.789
593.937;24121.213;  -10.669;39980.648
594.519;26632.949;   -6.509;42069.633
595.101;30375.555;  -10.849;42976.031
595.683;30480.270;  -11.679;44084.441
596.264;30801.900;   -9.049;43478.797
596.846;32916.500;   -8.849;43803.672
597.427;32960.617;   -9.570;42986.934
598.009;34157.496;  -12.620;42832.219
598.591;33523.125;  -10.039;42580.086
599.172;32473.156;  -10.369;43061.805
599.753;30651.807;   -9.140;41691.469
600.335;30438.121;  -11.430;40692.520
600.916;30831.738;   -9.939;39982.422
601.498;29597.928;   -8.479;40318.617
602.079;28471.889;  -10.920;40670.609
602.660;30207.135;  -11.480;41450.898
603.241;31572.770;  -11.699;41137.738
603.823;32144.750;   -9.579;38868.797
604.404;32037.016;  -10.620;38182.785
604.985;30823.861;  -10.450;38078.047
605.566;30300.135;   -9.129;38056.633
606.147;30250.982;   -7.510;37020.418
606.728;31434.900;  -10.660;37883.359
607.309;32424.748;  -11.740;38748.273
607.890;31976.838;   -9.759;38850.230
608.471;30316.805;   -8.250;37457.918
609.051;30657.340;   -9.240;36066.457
609.632;28960.488;  -12.120;35991.074
610.213;27776.391;   -9.110;37402.641
610.794;29864.297;   -8.030;38383.363
611.374;32235.625;   -8.110;40562.387
611.955;31884.736;  -13.560;38533.727
612.536;29182.922;  -11.400;36951.789
613.116;28003.564;   -8.070;37197.891
613.697;30040.242;  -10.830;38411.125
614.277;31287.143;  -11.641;38673.938
614.858;30639.281;  -13.310;37075.863
615.438;29000.387;   -7.460;35092.906
616.019;27439.936;   -7.601;33666.301
616.599;28387.473;  -12.020;34189.023
617.179;30039.896;  -11.780;36952.047
617.760;32692.725;   -8.570;39582.574
618.340;32741.902;  -11.471;38943.977
618.920;31249.682;  -11.170;37594.156
619.500;33021.820;  -11.071;37866.938
620.080;33380.527;   -7.750;37869.043
620.660;31635.771;  -12.711;36868.617
621.241;30178.092;  -10.211;36352.309
621.821;29360.244;  -10.961;35459.520
622.401;28597.701;   -7.720;35207.414
622.980;29717.408;   -8.981;35980.422
623.560;30115.555;   -9.331;37351.328
624.140;28859.574;   -9.850;34388.582
624.720;26231.051;   -7.451;32368.764
625.300;24484.975;   -9.070;32638.629
625.880;27940.162;  -12.601;34599.035
626.459;29818.912;  -11.751;36831.738
627.039;30466.500;   -9.281;38299.098
627.619;32466.193;   -8.801;38289.574
628.198;31937.047;  -12.071;37220.695
628.778;30767.275;   -9.461;37632.563
629.357;31672.355;   -8.491;38003.012
629.937;31862.830;   -9.721;38402.039
630.516;31974.594;   -9.951;37868.801
631.096;32292.453;  -11.731;35760.410
631.675;33447.879;   -8.572;35225.219
632.254;33081.895;  -11.282;35130.289
632.834;32532.445;  -13.322;35794.570
633.413;32434.020;  -10.301;35788.922
633.992;31664.434;   -8.582;34532.863
634.571;33359.172;   -8.352;33590.113
635.151;33507.719;  -11.912;34943.863
635.730;32394.455;  -10.511;35352.523
636.309;34559.594;   -7.731;35366.605
636.888;32703.420;   -9.952;36165.637
637.467;30645.307;  -11.672;37515.902
638.046;30626.740;   -8.901;39288.695
638.625;31596.738;   -7.912;38279.699
639.204;31953.621;  -10.022;37741.598
639.782;30165.367;  -12.252;38364.551
640.361;28490.420;  -10.041;36740.621
640.940;27559.646;  -11.161;34950.082
641.519;28552.830;   -9.701;34137.398
642.097;30218.768;  -11.271;35654.258
642.676;31755.799;   -8.651;35637.957
643.255;32964.348;   -8.711;36567.074
643.833;30537.359;   -9.581;37809.434
644.412;28244.564;  -13.711;37337.293
644.990;30102.715;  -11.811;37018.531
645.569;32654.672;   -9.411;36518.469
646.147;32155.387;  -10.291;36186.430
646.726;31001.674;  -12.401;36267.688
647.304;30907.939;  -10.411;36647.625
647.882;30088.355;   -9.651;39286.742
648.461;31336.098;   -9.631;39157.703
649.039;34912.855;  -11.881;35412.883
649.617;35442.109;   -9.661;34744.918
650.195;33178.457;   -9.301;35403.098
650.773;32091.268;  -10.511;35053.797
651.352;31305.350;  -11.521;33756.816
651.930;28867.063;  -12.211;31868.773
652.508;25613.734;   -9.171;33121.551
653.086;26462.924;   -9.371;33564.793
653.663;32142.270;  -13.161;34054.668
654.241;36016.641;  -13.031;35693.309
654.819;36869.063;   -9.371;36422.906
655.397;36954.688;  -10.511;38213.484
655.975;33479.488;  -10.371;39507.625
656.553;30184.408;  -10.051;39498.223
657.130;28614.266;  -10.061;40395.480
657.708;26788.469;   -9.561;39242.020
658.286;24335.342;  -11.511;38920.020
658.863;26527.732;  -10.261;40202.898
659.441;30259.607;   -7.531;39677.938
660.018;32167.166;   -9.501;40413.355
660.596;31338.184;  -13.301;39931.414
661.173;30931.527;  -11.211;39604.531
661.750;32719.256;   -9.951;39700.070
662.328;31791.957;   -9.390;39292.809
662.905;30621.896;  -11.330;38235.648
663.482;28208.082;   -9.050;36212.305
664.060;25313.506;   -8.240;35944.945
664.637;26004.570;  -10.050;35170.785
665.214;29319.682;  -11.760;34197.523
665.791;29947.504;  -10.530;34549.520
666.368;28920.463;   -9.690;35118.578
666.945;30236.641;   -9.320;36019.418
667.522;30750.955;  -11.860;36048.438
668.099;32067.543;  -10.770;36243.914
668.676;31934.695;   -6.260;35958.875
669.253;34395.156;   -7.000;37384.730
669.830;35761.813;  -10.190;36779.629
670.407;32649.785;   -9.550;35231.289
670.984;32928.426;   -9.260;35544.270
671.560;30410.357;   -9.280;35466.867
672.137;26495.016;  -11.810;34280.863
672.714;28043.592;  -11.490;34632.863
673.290;31591.018;   -7.740;35135.422
673.867;31263.008;  -10.660;36114.480
674.443;31570.074;  -12.230;36152.859
675.020;31357.271;  -10.450;35327.238
675.596;29817.664;   -9.260;35795.176
676.173;28653.432;  -10.780;35430.355
676.749;28222.662;  -13.690;33549.516
677.326;28275.713;  -11.980;32210.012
677.902;27516.672;   -8.630;32068.871
678.478;29114.959;  -10.730;32583.891
679.054;29891.164;  -10.520;32088.928
679.631;29277.523;  -11.920;30978.848
680.207;29456.520;   -7.490;33160.887
680.783;31290.154;   -9.860;35570.363
681.359;32763.500;  -13.380;36125.184
681.935;33461.871;  -12.480;35240.922
682.511;32718.742;   -7.900;34429.961
683.087;31618.320;   -7.710;34463.680
683.663;31198.830;  -11.480;34648.898
684.239;29990.158;  -14.090;34546.457
684.815;28916.982;   -7.560;35586.375
685.390;29182.641;   -9.910;35821.895
685.966;30382.043;  -11.159;35085.871
686.542;31869.672;  -11.169;34198.230
687.118;33306.832;   -5.959;32847.707
687.693;32411.332;  -10.329;32794.027
688.269;33321.504;  -12.059;33072.367
688.844;33282.477;  -10.909;33141.664
689.420;30548.439;   -8.019;33965.742
689.995;29415.305;   -8.399;34655.523
690.571;30802.066;  -10.949;33576.742
691.146;30170.979;   -9.619;32657.219
691.722;28649.586;   -8.999;32526.979
692.297;28040.684;  -11.589;33014.617
692.872;28212.441;  -11.739;34012.254
693.448;31044.367;  -11.059;34237.434
694.023;31629.963;  -10.139;34142.672
694.598;29619.313;   -9.029;34132.031
695.173;30711.834;  -13.319;34205.250
695.748;31219.123;  -10.169;32882.488
696.323;28896.318;   -8.339;32864.906
696.898;27249.576;   -8.169;33170.004
697.473;27863.512;  -12.309;32432.984
698.048;28090.590;  -10.989;31649.303
698.623;26791.781;   -9.329;30778.141
699.198;27604.150;   -9.849;31140.119
699.773;28560.992;  -12.329;31764.299
700.348;29949.795;  -10.389;31780.816
700.922;30221.662;   -9.269;32046.375
701.497;31136.307;   -9.329;32603.574
702.072;32183.650;  -10.789;34799.871
702.646;31190.709;  -10.839;35793.172
703.221;30379.811;   -9.099;35201.590
703.795;32301.307;  -10.939;34764.527
704.370;29939.037;  -12.859;34307.367
704.944;28325.133;  -11.559;33509.887
705.519;29488.141;   -7.939;31388.584
706.093;31741.836;  -10.499;31340.104
706.668;33987.207;  -11.289;32630.281
707.242;33423.457;  -11.509;32728.779
707.816;31458.982;   -9.639;32947.238
708.390;30123.262;  -11.429;33277.855
708.965;29349.637;  -11.869;33834.336
709.539;30828.994;  -11.689;33709.273
710.113;31129.652;  -10.478;33044.313
710.687;30408.145;  -10.228;31953.992
711.261;29720.178;  -13.698;30505.949
711.835;30164.236;  -13.378;30262.369
712.409;29174.699;   -9.698;31254.447
712.983;28581.391;  -11.898;32754.986
713.557;30915.652;  -15.138;34018.824
714.131;28953.494;  -14.098;34579.625
714.704;28370.031;   -9.958;33890.262
715.278;30456.061;  -10.028;33531.102
715.852;29219.291;  -11.148;33601.660
716.425;28113.219;   -9.068;33515.117
716.999;26818.580;  -10.038;33185.555
717.573;26488.535;   -9.798;33905.996
718.146;25909.283;  -12.378;35199.293
718.720;26321.547;  -11.918;35060.551
719.293;26724.641;   -8.088;34973.230
719.867;29107.852;  -10.888;36394.449
720.440;30852.549;  -11.938;36663.008
721.013;31489.498;  -12.818;35102.426
721.587;29224.883;  -10.298;33985.266
722.160;27334.764;  -10.048;33524.965
722.733;26670.141;  -12.108;32987.043
723.306;26987.400;  -10.818;33066.301
723.880;28776.635;   -8.908;33399.500
724.453;28354.227;   -9.878;33468.297
725.026;28523.809;  -11.188;33816.637
725.599;31374.166;  -11.678;32797.996
726.172;30944.475;   -9.618;33187.434
726.745;28398.355;   -8.258;35136.613
727.318;27951.381;  -12.978;35751.730
727.891;27189.203;  -12.148;35890.430
728.463;26206.082;   -8.968;34822.090
729.036;26075.691;  -10.188;32895.086
729.609;26064.627;  -11.788;31823.225
730.182;24039.336;  -11.788;31445.283
730.754;22743.938;  -10.268;32373.223
731.327;22957.822;   -9.998;33676.820
731.900;24170.658;  -12.228;33417.000
732.472;24022.787;  -13.848;31978.498
733.045;23070.617;   -8.698;30368.777
733.617;22834.045;  -10.607;30574.215
734.190;24948.896;  -11.507;31280.975
734.762;25990.912;  -13.647;31674.412
735.334;27300.953;   -9.767;31247.291
735.907;27668.580;   -9.897;29876.211
736.479;27329.887;  -11.637;29808.488
737.051;28234.625;   -9.567;30233.547
737.623;27593.486;   -8.187;31469.086
738.195;26211.271;  -11.187;31784.225
738.768;24978.689;  -12.337;32120.523
739.340;23393.178;  -12.227;32094.342
739.912;22543.414;  -11.057;31312.680
740.484;22523.346;  -10.207;31946.238
741.056;22228.605;  -10.047;32984.059
741.628;23292.379;  -13.627;33897.715
742.199;24199.848;   -7.177;33213.016
742.771;26449.045;  -10.797;31369.113
743.343;27338.963;  -11.997;31865.473
743.915;27108.871;  -12.867;32388.631
744.487;24516.086;   -7.617;31079.568
745.058;21619.529;   -9.557;30570.107
745.630;22638.371;   -9.877;29970.127
746.201;24197.305;  -14.177;29186.766
746.773;24655.221;   -9.237;28805.723
747.344;22731.012;   -9.847;29591.223
747.916;21085.238;  -11.657;31412.201
748.487;22120.635;  -10.587;32194.898
749.059;23908.189;   -8.707;32533.719
749.630;24205.494;  -10.537;32158.518
750.201;23520.645;  -11.687;30855.395
750.773;22222.342;  -11.647;28622.555
751.344;21991.799;   -7.147;28405.732
751.915;24268.576;   -9.757;28461.551
752.486;25620.545;  -12.427;27842.850
753.057;24453.754;  -12.227;27845.008
753.628;24393.229;  -10.417;27728.107
754.199;23996.824;  -11.767;27381.086
754.770;23507.678;  -11.187;25882.203
755.341;22300.199;  -10.507;25886.184
755.912;20716.197;   -9.387;26050.861
756.483;19309.098;  -10.647;26798.779
757.054;19832.217;  -11.837;27048.238
757.625;19890.320;  -12.716;26294.838
758.195;19620.957;   -9.666;26142.076
758.766;19811.328;   -8.656;26392.234
759.337;19381.293;  -12.856;26334.594
759.907;19159.053;  -13.366;27579.652
760.478;18872.813;   -8.576;28352.770
761.048;20003.416;  -10.526;27325.088
761.619;20144.027;  -11.116;26460.428
762.189;18761.467;  -12.136;26029.826
762.760;18345.438;   -9.456;26430.145
763.330;18631.377;   -7.136;26670.902
763.900;18661.850;  -11.786;26603.021
764.471;18234.357;  -11.546;25542.740
765.041;17444.635;   -8.096;24358.459
765.611;16755.305;   -8.876;23991.297
766.181;16718.174;  -12.196;24470.236
766.751;16439.396;  -11.636;24845.975
767.321;17435.057;  -10.156;24533.633
767.891;16899.002;  -11.766;24916.492
768.461;17118.211;  -14.936;24776.771
769.031;18241.498;  -12.356;24757.988
769.601;18932.707;   -7.526;24181.088
770.171;18689.666;  -10.766;23670.387
770.741;17826.422;  -13.176;22960.045
771.311;17330.498;  -10.616;22917.523
771.880;17644.299;   -9.576;23562.941
772.450;17318.271;  -10.336;24216.500
773.020;16958.758;  -13.516;24140.398
773.589;17563.834;  -13.466;24414.857
774.159;17387.094;   -8.686;23858.717
774.729;16021.786;   -9.476;22942.135
775.298;14250.591;  -13.666;22324.033
775.867;13930.572;  -11.716;21140.313
776.437;14043.947;   -9.906;20838.092
777.006;13343.248;  -12.166;20599.510
777.576;12801.749;  -12.356;20508.809
778.145;12705.024;  -11.646;20732.947
778.714;13115.361;   -8.226;21062.465
779.283;14123.082;   -9.556;20949.664
779.853;14800.248;  -14.116;20508.623
780.422;14271.879;  -11.506;20649.082
780.991;13859.068;   -9.556;21527.520
781.560;13541.834;   -9.095;22632.658
782.129;13396.073;  -12.135;23048.277
782.698;13259.319;  -10.865;23438.555
783.267;12976.128;   -9.335;23267.734
783.836;13138.698;  -11.045;22415.133
784.404;13829.925;  -13.865;20443.152
784.973;13047.403;  -13.095;19699.150
785.542;11647.007;  -11.575;19763.828
786.111;10976.833;   -9.705;20341.408
786.679;11706.841;  -12.105;20207.967
787.248;12013.388;  -12.455;19516.465
787.817;11667.878;  -11.535;18900.363
788.385;11736.163;   -9.765;17879.121
788.954;11751.074;  -14.005;17658.301
789.522;11268.118;  -11.955;17788.879
790.090;11522.861;  -10.135;18118.277
790.659;12422.204;  -10.975;18338.736
791.227;12343.117;  -13.375;18508.615
791.795;11815.481;  -12.375;17898.254
792.364;11291.096;  -10.725;17295.133
792.932;11406.388;   -9.715;16822.051
793.500;11524.351;  -12.675;17040.148
794.068;11286.177;  -13.495;17179.787
794.636;10126.963;  -10.885;16664.246
795.204; 9083.315;  -11.045;16524.545
795.772; 9777.630;  -13.175;17274.564
796.340;10937.924;  -12.445;17891.002
796.908;10717.525;   -9.735;17648.561
797.476;11062.226;   -9.815;17064.080
798.044;11910.654;  -13.985;16672.777
798.612;11766.454;  -13.115;17023.996
799.180;10471.267;  -10.185;16561.615
799.747; 9431.430;   -9.055;15962.773
800.315; 8849.367;  -12.385;15296.992
800.883; 9145.328;  -15.035;14801.771
801.450; 9438.778;  -10.365;14534.430
802.018; 9532.405;   -9.855;14173.248
802.585; 9692.402;  -11.905;14029.547
803.153; 9267.122;  -11.585;13836.846
803.720; 8630.302;   -9.095;13567.324
804.287; 8665.380;   -9.135;13360.622
804.855; 8961.493;  -11.604;13681.981
805.422; 9063.024;  -11.794;13536.560
805.989; 8898.979;  -10.734;13355.958
806.556; 8469.013;  -10.444;13747.896
807.124; 8361.820;  -12.764;13987.376
807.691; 8944.052;  -12.964;14038.674
808.258; 9362.283;  -11.134;14120.152
808.825; 9580.048;   -9.854;13860.111
809.392; 9233.101;  -10.504;13268.790
809.959; 8731.074;  -13.054;12680.389
810.526; 8574.495;   -8.294;12427.308
811.093; 8287.871;   -8.394;12030.105
811.659; 7544.101;  -12.304;11653.664
812.226; 7300.935;  -13.944;11637.183
812.793; 7793.282;  -10.484;11611.521
813.360; 7920.425;  -10.144;11885.181
813.926; 7196.885;  -11.684;12770.539
814.493; 6588.739;  -13.644;12677.638
815.060; 6461.185;   -9.724;11974.336
815.626; 6796.593;   -9.854;11594.715
816.193; 6848.634;  -13.254;11579.474
816.759; 6850.042;  -13.204;11666.972
817.325; 6614.423;   -9.434;11325.530
817.892; 6287.589;  -10.134;11105.369
818.458; 6244.899;  -13.474;10843.928
819.024; 6256.080;  -11.854;10714.406
819.591; 6539.065;  -10.244;10469.165
820.157; 6618.829;  -10.704;10235.523
820.723; 6851.942;  -12.324;10847.563
821.289; 7285.726;   -9.444;11040.980
821.855; 7353.310;   -8.374;10357.100
822.421; 6960.097;  -10.234; 9978.918
822.987; 6688.022;  -13.294; 9754.177
823.553; 6529.145;  -10.884;10065.755
824.119; 6093.285;   -8.884;10036.294
824.685; 5913.907;   -6.784;10029.192
825.251; 5861.370;  -12.004;10199.230
825.816; 5964.004;  -11.474; 9820.189
826.382; 5731.756;   -9.174; 9297.248
826.948; 5456.404;   -9.214; 9381.347
827.513; 5232.078;  -10.774; 9450.726
828.079; 5171.618;  -11.924; 9472.444
828.645; 5259.316;  -10.543; 9292.643
829.210; 5471.327;  -10.533; 9065.341
829.776; 5496.816;  -10.753; 9132.620
830.341; 5406.428;  -10.173; 9092.878
830.906; 5502.126;  -10.743; 9078.557
831.472; 5385.413;  -11.113; 8534.535
832.037; 4888.290;  -10.603; 8677.874
832.602; 4816.078;  -13.323; 8628.692
833.167; 5194.494;  -10.823; 8879.031
833.733; 5177.134;  -10.113; 9189.790
834.298; 4898.314;  -13.583; 9052.608
834.863; 4762.049;  -12.703; 8895.087
835.428; 4639.109;  -10.523; 8824.266
835.993; 4572.678;   -6.963; 8845.385
836.558; 4660.320;  -10.763; 8888.563
837.123; 4786.302;   -9.903; 8966.582
837.688; 4638.366;   -9.913; 8617.860
838.253; 4469.698;  -10.283; 8590.699
838.817; 4598.293;  -12.963; 8443.797
839.382; 4800.595;  -14.243; 8799.356
839.947; 4704.864;  -10.733; 8810.595
840.511; 4768.500;   -9.383; 8796.394
841.076; 4777.553;  -12.563; 8347.231
841.641; 4580.686;  -12.953; 8224.330
842.205; 4309.312;   -7.043; 8223.349
842.770; 4265.629;   -8.163; 8622.107
843.334; 4294.786;  -12.503; 8410.386
843.898; 4245.205;  -11.693; 8337.465
844.463; 4133.765;  -10.203; 8506.283
845.027; 4043.445;   -9.533; 8280.962
845.591; 4098.959;  -13.443; 8231.141
846.156; 4014.354;  -13.143; 7969.179
846.720; 3803.887;   -9.433; 7768.278
847.284; 3511.506;  -11.033; 7630.957
847.848; 3361.093;  -10.403; 7472.395
848.412; 3388.393;  -11.553; 7437.394
848.976; 3581.302;   -8.393; 7674.592
849.540; 3636.319;   -8.713; 7836.011
850.104; 3609.167;  -12.463; 7913.669
850.668; 3729.958;  -12.973; 7694.508
851.232; 3752.789;  -10.793; 7756.887
851.796; 3653.740;  -10.662; 7926.545
852.359; 3674.669;  -13.082; 7827.844
852.923; 3408.631;  -12.192; 7641.163
853.487; 3318.472;  -11.912; 7342.501
854.050; 3500.037;  -10.892; 7042.820
854.614; 3501.098;  -13.992; 7151.338
855.177; 3394.766;  -11.732; 7105.077
855.741; 3321.713;   -8.962; 6989.675
856.304; 3220.049;   -9.442; 6596.634
856.868; 2973.765;  -14.192; 6356.272
857.431; 2742.468;  -12.702; 6468.571
857.995; 2768.267;   -9.942; 6373.210
858.558; 2800.821;   -9.112; 6324.448
859.121; 2624.153;  -12.932; 6408.327
859.684; 2579.337;  -13.442; 6347.886
860.247; 3004.995;  -10.632; 6321.264
860.810; 3339.355;  -11.272; 6301.903
861.374; 3353.989;   -9.832; 6607.881
861.937; 3324.044;  -11.762; 6408.200
862.500; 3186.142;   -9.722; 6572.639
863.062; 2875.243;  -10.512; 6387.297
863.625; 2758.816;  -11.232; 6190.836
864.188; 2757.395;  -14.112; 5807.254
864.751; 2762.828;  -11.302; 5682.413
865.314; 2879.080;  -10.112; 5547.492
865.876; 2902.059;  -12.182; 5500.150
866.439; 2808.135;  -10.722; 5415.909
867.002; 2645.394;   -9.252; 5501.567
867.564; 2532.578;   -9.572; 5413.946
868.127; 2399.701;  -13.142; 5160.325
868.689; 2116.254;  -12.902; 5133.183
869.252; 1983.051;   -9.732; 5252.382
869.814; 1998.996;   -9.432; 5297.141
870.377; 2100.660;  -11.552; 5390.919
870.939; 2085.634;   -9.052; 5599.898
871.501; 2016.214;  -10.982; 5248.336
872.063; 2048.701;  -12.292; 4854.235
872.626; 2062.792;  -14.912; 4817.074
873.188; 2070.516;  -13.112; 4987.732
873.750; 2020.549;  -13.442; 4868.651
874.312; 2083.105;   -9.402; 4779.330
874.874; 2231.886;  -11.062; 4866.348
875.436; 2114.349;  -13.931; 4718.887
875.998; 1815.472;   -9.561; 4660.005
876.560; 1643.477;  -11.321; 4462.964
877.122; 1629.502;  -12.221; 4145.042
877.683; 1620.223;  -12.191; 4056.481
878.245; 1709.832;  -12.101; 3950.740
878.807; 1861.134;   -8.971; 4058.958
879.369; 1898.088;  -12.071; 3954.677
879.930; 1822.021;  -14.621; 3941.495
880.492; 1642.079;  -10.311; 4067.014
881.053; 1482.719;  -10.901; 3859.633
881.615; 1462.841;  -14.411; 3776.071
882.176; 1491.862;  -13.761; 3734.750
882.738; 1510.235;   -9.181; 3678.489
883.299; 1477.051;  -11.791; 3405.407
883.860; 1402.550;  -13.121; 3351.106
884.422; 1290.928;  -11.211; 3394.044
884.983; 1208.880;  -10.091; 3166.443
885.544; 1188.783;   -8.461; 3189.802
886.105; 1133.861;  -12.361; 3160.360
886.666; 1055.391;  -14.141; 3093.059
887.227; 1023.600;  -11.361; 2941.957
887.788; 1036.917;  -11.401; 2974.836
888.349;  993.020;  -13.791; 2721.214
888.910;  891.415;  -13.191; 2696.493
889.471;  785.592;   -9.881; 2560.172
890.032;  712.849;   -9.881; 2558.190
890.593;  711.313;  -10.371; 2567.669
891.153;  713.969;  -13.301; 2460.307
891.714;  650.776;  -11.431; 2372.046
892.275;  600.871;  -11.291; 2309.505
892.835;  585.497;  -11.471; 2382.543
893.396;  573.480;  -11.541; 2295.502
893.956;  568.846;  -11.181; 2162.420
894.517;  556.235;  -11.741; 2125.439
895.077;  510.761;  -11.671; 2086.978
895.638;  459.766;  -11.311; 2126.316
896.198;  439.125;   -9.831; 1838.275
896.758;  437.950;   -8.421; 1892.813
897.319;  431.255;  -12.351; 1792.232
897.879;  410.883;  -13.511; 1762.751
898.439;  384.578;  -12.001; 1661.149
898.999;  364.414;  -10.180; 1781.468
899.559;  350.625;  -12.030; 1703.347
900.119;  341.631;  -15.710; 1537.525
900.679;  318.725;   -8.900; 1638.384
901.239;  291.645;   -8.340; 1527.902
901.799;  277.170;  -13.910; 1456.441
902.359;  267.534;  -13.460; 1357.140
902.919;  261.896;  -11.490; 1331.118
903.479;  258.889;  -12.110; 1317.257
904.038;  251.532;  -11.720; 1262.595
904.598;  235.388;  -13.610; 1152.034
905.158;  224.205;  -11.040; 1240.893
905.717;  218.003;  -10.900; 1233.691
906.277;  213.117;  -15.080; 1217.330
906.836;  210.680;  -13.380; 1222.408
907.396;  207.680;  -10.780; 1193.047
907.955;  201.671;   -8.500; 1182.526
908.515;  192.766;  -12.760; 1099.364
909.074;  188.068;  -11.900; 1092.863
909.633;  185.808;   -8.950; 1069.121
910.192;  182.906;   -8.770; 1196.460
910.752;  179.052;  -12.390; 1029.960
911.311;  174.300;  -13.680; 1009.780
911.870;  169.716;  -12.370;  971.460
912.429;  166.725;  -10.900; 1094.080
912.988;  164.033;  -11.690; 1081.060
913.547;  160.104;  -13.240;  940.380
914.106;  158.967;  -11.990;  999.420
914.665;  159.907;   -9.990;  984.020
915.224;  157.873;  -12.880; 1035.760
915.782;  156.128;  -12.350;  922.560
916.341;  156.384;   -9.110; 1049.840
916.900;  155.172;   -9.270;  925.260
917.458;  152.094;  -13.240;  884.220
918.017;  149.901;  -13.550;  942.600
918.576;  149.273;  -12.320;  904.440
919.134;  149.573;  -11.490;  837.980
919.693;  147.501;  -13.670;  893.060
920.251;  145.795;  -15.470;  876.500
920.809;  146.078;  -11.290;  839.580
921.368;  145.198;  -10.210;  885.360
921.926;  145.123;  -12.140;  842.940
922.484;  142.934;  -13.080;  903.360
923.042;  143.327;  -11.720;  880.340
923.601;  146.017;   -7.480;  998.680
924.159;  143.900;  -11.570;  935.560
924.717;  143.531;  -13.840;  841.080
925.275;  144.795;  -10.640;  903.240
925.833;  143.392;  -11.540;  779.320
926.391;  143.462;  -12.960;  938.380
926.949;  144.002;  -14.130;  857.680
927.506;  144.011;  -11.750;  903.500
928.064;  143.737;  -10.250;  877.580
928.622;  141.711;  -13.030;  880.100
929.180;  142.969;  -13.400;  814.180
929.737;  144.606;  -10.700;  808.540
930.295;  145.969;  -10.070;  928.480
930.853;  146.109;  -11.960;  849.100
931.410;  145.277;  -13.120;  821.120
931.968;  146.074;  -10.770;  940.660
932.525;  148.582;  -10.680;  909.380
933.082;  150.773;  -13.130;  811.440
933.640;  156.383;  -13.210;  925.900
934.197;  157.416;  -11.060;  886.360
934.754;  157.234;   -9.580;  897.780
935.312;  158.393;  -14.000;  863.340
935.869;  160.568;  -10.710; 1012.980
936.426;  159.770;   -9.860;  872.800
936.983;  159.116;   -9.710;  889.020
937.540;  156.630;  -13.990;  838.280
938.097;  156.234;  -14.040;  940.120
938.654;  158.737;  -10.310;  898.860
939.211;  160.805;  -10.560;  952.480
939.768;  158.877;  -13.900;  915.420
940.324;  160.039;  -14.760;  904.200
940.881;  164.891;  -10.370;  878.500
941.438;  172.120;   -8.260; 1021.200
941.995;  172.613;  -12.540;  992.560
942.551;  170.670;  -14.670;  875.620
943.108;  170.880;  -10.450;  937.920
943.664;  171.721;  -10.750;  869.340
944.221;  178.135;  -11.550; 1088.140
944.777;  179.897;  -14.770;  869.680
945.334;  179.734;  -12.820;  884.840
945.890;  178.349;  -10.130;  946.480
946.446;  174.606;  -13.470;  947.020
947.003;  175.295;  -12.120;  964.940
947.559;  175.178;   -9.980; 1063.040
948.115;  172.054;   -9.080; 1026.540
948.671;  169.084;  -10.830;  967.300
949.227;  165.667;  -12.440;  859.560
949.783;  165.862;  -12.910;  858.900
950.339;  169.022;  -10.270;  991.000
950.895;  170.165;  -13.630; 1023.840
951.451;  168.449;  -15.100;  925.280
952.007;  168.943;  -11.330;  998.540
952.563;  167.398;  -10.580;  937.780
953.118;  162.636;  -13.440;  904.940
953.674;  159.255;  -12.710;  935.780
954.230;  161.274;  -10.350;  949.640
954.785;  166.519;   -9.190;  936.640
955.341;  168.230;  -11.200;  998.160
955.897;  164.954;  -16.560;  834.660
956.452;  162.715;  -12.570;  953.840
957.008;  160.391;   -7.970; 1083.640
957.563;  159.447;  -11.940; 1009.540
958.118;  156.642;  -13.450;  877.700
958.674;  157.077;  -12.030;  946.780
959.229;  157.223;   -9.410; 1013.980
959.784;  155.457;  -12.000;  832.400
960.339;  151.776;  -14.780; 1001.280
960.894;  146.159;   -9.860;  963.760
961.449;  141.427;   -9.970;  859.960
962.004;  139.834;  -10.900; 1212.840
962.559;  135.744;  -13.150;  860.140
963.114;  135.052;  -13.740;  742.480
963.669;  135.215;   -9.820;  915.500
964.224;  129.823;  -13.890;  874.340
964.779;  121.333;  -12.600;  828.420
965.334;  113.379;  -10.950; 1017.860
965.888;  103.996;  -11.170;  875.360
966.443;   99.210;  -12.540;  972.380
966.998;   97.177;  -15.780;  819.460
967.552;  100.197;   -9.760;  908.380
968.107;  101.120;   -9.060;  868.300
968.661;  104.142;  -11.950;  922.440
969.216;  105.285;  -12.800;  856.280
969.770;  106.041;  -11.210;  917.200
970.324;  106.345;  -11.610;  923.140
970.879;  104.522;  -11.370;  947.180
971.433;  104.484;  -12.540;  952.720
971.987;  102.979;  -11.320;  895.340
972.541;  103.873;  -10.720;  917.100
973.095;  105.670;   -9.680; 1009.460
973.649;  103.884;  -11.440;  809.480
974.203;  103.448;  -11.210;  829.040
974.757;  106.197;  -10.240;  855.220
975.311;  106.643;  -13.720;  872.600
975.865;  105.767;  -13.770;  881.820
976.419;  105.221;  -11.690;  857.400
976.973;  105.037;   -9.510;  849.620
977.526;  105.748;  -12.620;  949.920
978.080;  102.669;  -12.010;  796.780
978.634;  101.959;  -10.170;  921.320
979.187;   98.350;   -9.020;  905.400
979.741;   98.207;   -9.820; 1018.380
980.294;   93.256;  -14.870;  789.160
980.848;   90.225;  -12.380;  717.220
981.401;   89.668;  -10.350;  816.540
981.955;   90.065;  -13.720;  844.300
982.508;   86.865;  -11.490;  746.340
983.061;   86.357;  -10.000;  915.260
983.615;   85.691;  -11.480;  798.800
984.168;   85.720;  -13.220;  770.080
984.721;   85.171;  -13.960;  880.760
985.274;   82.754;  -10.870;  867.500
985.827;   82.965;   -9.790;  834.220
986.380;   81.133;  -13.120;  721.340
986.933;   81.679;  -12.450;  864.800
987.486;   81.305;  -10.210;  861.920
988.039;   80.809;   -8.430;  863.100
988.591;   77.508;  -10.520;  893.260
989.144;   73.990;  -14.860;  737.260
989.697;   71.957;  -13.080;  758.740
990.250;   71.480;  -10.150;  858.100
990.802;   69.496;  -13.430;  755.860
991.355;   69.580;  -12.750;  974.880
991.907;   67.155;  -12.040;  864.320
992.460;   64.729;  -11.330;  753.760
993.012;   63.355;  -13.610;  749.540
993.565;   62.321;  -13.460;  711.360
994.117;   63.491;   -9.360;  950.780
994.669;   61.302;  -11.300;  701.320
995.221;   61.181;  -13.540;  791.920
995.774;   59.876;  -13.430;  787.580
996.326;   58.193;  -12.520;  740.220
996.878;   59.182;  -10.950;  838.420
997.430;   56.627;  -14.300;  699.860
997.982;   55.775;  -13.760;  750.140
998.534;   55.342;  -11.530;  739.060
999.086;   53.583;  -10.310;  738.220
999.638;   53.346;  -12.530;  661.380
1000.190;   52.426;  -11.840;  699.320
1000.741;   52.057;  -10.260;  742.700
1001.293;   51.629;   -8.860;  686.020
1001.845;   51.178;  -13.700;  676.640
1002.396;   51.070;  -12.100;  743.400
1002.948;   50.386;  -12.760;  737.400
1003.500;   49.617;  -10.380;  723.780
1004.051;   49.268;  -11.900;  907.580
1004.603;   47.959;  -12.250;  791.820
1005.154;   44.747;  -13.210;  608.980
1005.705;   44.147;  -10.950;  723.960
1006.257;   44.338;  -13.880;  707.220
1006.808;   42.207;  -12.840;  685.460
1007.359;   41.318;  -10.570;  763.240
1007.910;   40.299;   -9.620;  646.640
1008.461;   41.019;  -13.630;  732.940
1009.013;   39.749;  -17.200;  588.340
1009.564;   40.605;  -10.200;  793.520
1010.115;   38.594;  -12.570;  597.040
1010.665;   38.514;  -15.150;  602.160
1011.216;   38.480;  -14.480;  667.920
1011.767;   38.031;  -11.340;  697.920
1012.318;   38.496;   -9.780;  736.980
1012.869;   36.666;  -12.380;  679.000
1013.419;   36.275;  -15.560;  603.120
1013.970;   36.640;  -11.010;  666.640
1014.521;   35.515;  -11.610;  620.620
1015.071;   36.319;  -13.450;  670.380
1015.622;   35.649;  -13.870;  635.460
1016.172;   35.400;  -11.610;  596.820
1016.723;   34.817;  -12.120;  614.380
1017.273;   35.304;  -13.620;  604.160
1017.823;   34.829;  -14.140;  650.340
1018.374;   33.919;  -12.800;  611.760
1018.924;   34.442;  -12.340;  716.880
1019.474;   35.459;  -11.410;  718.880
1020.024;   32.619;  -14.770;  657.580
1020.574;   33.402;   -9.780;  726.160
1021.124;   33.945;   -8.560;  673.580
1021.674;   32.066;  -15.190;  559.120
1022.224;   33.675;  -13.530;  708.940
1022.774;   32.939;  -13.280;  668.820
1023.324;   33.709;  -10.690;  753.520
1023.874;   34.949;  -10.240;  875.760
1024.423;   31.740;  -12.540;  613.700
1024.973;   31.292;  -10.010;  610.760
1025.523;   31.208;  -10.550;  620.960
1026.072;   30.428;  -13.560;  606.420
1026.622;   30.497;  -15.120;  675.740
1027.172;   31.580;  -11.260;  715.660
1027.721;   30.603;  -11.410;  601.220
1028.270;   31.049;  -13.530;  663.400
1028.820;   30.372;  -13.680;  638.080
1029.369;   29.657;  -13.520;  612.700
1029.918;   30.363;  -10.980;  649.840
1030.468;   30.288;  -13.530;  564.780
1031.017;   30.466;  -13.170;  634.800
1031.566;   28.948;  -12.200;  608.900
1032.115;   29.940;   -9.960;  694.500
1032.664;   28.270;  -13.210;  596.480
1033.213;   28.552;  -12.500;  735.420
1033.762;   28.171;  -11.910;  635.620
1034.311;   28.801;   -9.640;  677.220
1034.860;   29.028;  -13.310;  691.000
1035.408;   28.023;  -11.830;  722.720
1035.957;   29.122;  -12.000;  719.540
1036.506;   26.645;  -11.690;  530.800
1037.055;   29.007;  -10.990;  844.320
1037.603;   27.465;  -15.120;  664.000
1038.152;   25.574;  -12.450;  534.760
1038.700;   25.927;  -10.560;  585.740
1039.249;   26.716;  -11.080;  681.220
1039.797;   26.105;  -12.540;  633.360
1040.345;   26.276;  -11.920;  705.420
1040.894;   26.272;  -11.410;  625.300
1041.442;   25.570;  -14.320;  632.200
1041.990;   24.610;  -16.240;  559.160
1042.538;   24.376;  -11.680;  536.180
1043.087;   23.655;  -10.760;  570.860
1043.635;   26.217;  -11.850;  670.500
1044.183;   24.078;  -15.480;  586.400
1044.731;   24.840;  -11.770;  576.000
1045.279;   24.110;  -13.090;  674.920
1045.827;   26.561;  -12.440;  892.400
1046.374;   22.543;  -13.840;  515.420
1046.922;   22.594;  -13.220;  590.580
1047.470;   24.888;  -10.230;  691.300
1048.018;   24.937;  -14.590;  647.960
1048.565;   24.681;  -12.050;  708.600
1049.113;   23.010;  -11.650;  557.000
1049.660;   23.689;  -10.510;  629.660
1050.208;   23.693;  -13.310;  675.640
1050.755;   22.730;  -15.900;  606.580
1051.303;   23.599;  -11.430;  686.820
1051.850;   21.957;   -8.480;  635.120
1052.397;   21.033;  -15.010;  473.960
1052.945;   21.324;  -13.960;  617.760
1053.492;   22.759;  -13.150;  741.840
1054.039;   22.822;   -9.630;  720.180
1054.586;   21.532;  -13.680;  557.240
1055.133;   22.953;  -14.570;  693.140
1055.680;   22.397;  -13.820;  646.620
1056.227;   20.978;  -11.730;  542.780
1056.774;   23.149;  -12.480;  794.980
1057.321;   20.415;  -13.930;  523.260
1057.868;   21.075;  -11.690;  651.320
1058.415;   20.967;   -9.520;  651.980
1058.961;   21.104;  -13.160;  678.940
1059.508;   20.561;  -12.920;  643.820
1060.055;   20.330;  -11.920;  581.780
1060.601;   21.227;  -11.500;  624.300
1061.148;   20.372;  -14.330;  616.820
1061.694;   19.630;  -16.870;  592.580
1062.241;   20.100;  -10.330;  596.320
1062.787;   19.882;  -10.620;  663.140
1063.334;   21.984;  -10.110;  808.560
1063.880;   19.446;  -13.400;  668.360
1064.426;   18.985;  -10.680;  706.820
1064.972;   17.951;   -9.920;  601.340
1065.518;   17.834;  -10.980;  566.640
1066.065;   19.215;  -14.890;  624.460
1066.611;   17.848;  -12.870;  598.800
1067.157;   18.756;  -12.950;  641.860
1067.703;   18.909;  -13.540;  668.480
1068.249;   19.004;  -13.540;  605.220
1068.794;   18.406;  -12.600;  626.880
1069.340;   17.832;  -10.620;  578.960
1069.886;   18.633;  -12.830;  590.700
1070.432;   17.336;  -14.870;  541.720
1070.977;   16.971;  -11.980;  601.080
1071.523;   17.692;   -8.200;  573.060
1072.068;   18.373;  -12.330;  582.000
1072.614;   17.391;  -16.370;  527.760
1073.160;   18.051;  -11.100;  687.040
1073.705;   16.622;  -10.480;  572.520
1074.250;   16.869;  -14.520;  559.900
1074.796;   17.770;  -11.460;  655.160
1075.341;   17.574;  -11.950;  664.100
1075.886;   17.622;  -11.460;  594.240
1076.431;   16.683;  -13.770;  649.880
1076.976;   16.429;  -12.680;  639.220
1077.521;   15.760;  -13.170;  583.080
1078.067;   15.892;  -10.860;  579.400
1078.612;   15.805;  -13.920;  661.620
1079.156;   15.868;  -13.880;  601.540
1079.701;   16.264;  -13.120;  693.260
1080.246;   16.372;   -9.940;  696.300
1080.791;   16.176;  -14.740;  625.020
1081.336;   16.101;  -13.750;  659.320
1081.880;   15.961;  -13.400;  649.680
1082.425;   14.516;  -12.220;  573.480
1082.970;   16.333;  -11.610;  717.040
1083.514;   15.633;  -13.580;  597.000
1084.059;   13.813;  -12.810;  586.720
1084.603;   13.712;  -12.320;  565.840
1085.147;   14.959;  -13.190;  645.220
1085.692;   15.585;  -12.480;  716.800
1086.236;   13.120;  -13.020;  503.140
1086.780;   15.829;   -9.190;  751.440
1087.325;   15.092;  -12.480;  654.620
1087.869;   14.751;  -12.450;  610.700
1088.413;   14.359;  -12.240;  705.040
1088.957;   13.165;   -9.020;  543.400
1089.501;   14.600;  -10.320;  766.640
1090.045;   13.723;  -12.720;  726.480
1090.589;   12.316;  -13.690;  569.920
1091.133;   13.756;  -10.020;  673.340
1091.676;   13.602;  -12.330;  591.940
1092.220;   13.373;  -14.970;  600.920
1092.764;   13.644;  -12.430;  706.960
1093.307;   13.589;   -9.800;  673.780
1093.851;   11.763;  -14.970;  556.540
1094.395;   12.966;  -15.310;  683.140
1094.938;   12.678;  -10.370;  632.520
1095.482;   12.504;  -11.050;  559.800
1096.025;   13.579;  -11.840;  710.880
1096.568;   13.279;  -12.840;  779.280
1097.112;    9.878;  -14.700;  508.180
1097.655;   12.720;   -8.720;  603.000
1098.198;   10.980;  -13.610;  600.180
1098.741;   11.136;  -13.350;  612.860
1099.285;   12.405;  -11.230;  657.300
1099.828;    9.885;  -11.840;  439.400
1100.371;   11.400;  -10.840;  608.160
1100.914;   11.567;  -14.190;  682.660
1101.457;   11.317;  -11.240;  679.900
1101.999;   10.418;  -11.270;  584.680
1102.542;   11.147;  -11.480;  641.440
1103.085;   10.678;  -11.750;  658.500
1103.628;   11.529;  -11.400;  762.060
1104.170;   10.239;  -10.490;  588.280
1104.713;   10.734;  -10.600;  646.700
1105.256;   10.267;  -14.360;  557.440
1105.798;    9.130;  -13.210;  499.980
1106.341;   11.150;  -10.270;  728.900
1106.883;   10.085;  -12.200;  521.340
1107.425;    9.861;  -13.110;  668.180
1107.968;    9.453;  -12.840;  612.380
1108.510;   10.555;   -6.480;  684.960
1109.052;    8.360;  -13.940;  612.620
1109.594;    8.915;  -13.690;  554.440
1110.136;   10.303;  -11.880;  643.220
1110.679;    8.764;   -9.500;  633.080
1111.221;    9.529;  -14.160;  604.460
1111.763;    8.665;  -13.980;  559.220
1112.304;    8.222;  -13.880;  547.140
1112.846;    9.030;  -12.210;  666.240
1113.388;   12.490;  -11.390;  942.180
1113.930;    8.600;  -14.540;  694.200
1114.472;    8.064;  -12.640;  606.540
1115.013;    7.097;  -11.620;  551.280
1115.555;    7.669;  -13.640;  587.100
1116.097;    7.094;  -15.380;  579.480
1116.638;    7.826;  -12.640;  684.600
1117.180;    7.982;   -9.850;  667.740
1117.721;    8.477;  -13.690;  568.580
1118.262;    8.344;  -12.680;  677.960
1118.804;    8.282;  -12.530;  637.340
1119.345;    7.061;  -11.690;  578.400
1119.886;    8.665;  -13.380;  704.040
1120.427;    7.174;  -14.070;  589.020
1120.969;    6.975;  -13.500;  597.920
1121.510;    6.648;  -11.480;  563.060
1122.051;    7.312;  -12.830;  723.580
1122.592;    6.494;  -14.290;  655.420
1123.133;    5.438;  -12.400;  547.940
1123.673;    7.644;  -10.130;  706.480
1124.214;    6.596;  -12.930;  612.460
1124.755;    7.307;  -14.380;  639.460
1125.296;    6.425;  -14.000;  627.320
1125.836;    7.122;  -10.070;  691.500
1126.377;    6.830;  -12.640;  599.660
1126.918;    7.013;  -12.960;  614.980
1127.458;    5.357;  -13.350;  622.220
1127.999;    6.532;  -10.750;  656.980
1128.539;    6.585;  -12.350;  694.240
1129.079;    5.409;  -14.860;  632.720
1129.620;    5.113;  -13.840;  558.100
1130.160;    5.100;  -12.330;  539.480
1130.700;    5.890;  -14.530;  640.840
1131.240;    6.130;  -12.530;  643.700
1131.781;    5.327;  -14.450;  619.680
1132.321;    5.160;   -9.790;  599.120
1132.861;    4.688;  -14.860;  564.200
1133.401;    4.687;  -14.290;  593.940
1133.941;    5.052;  -11.750;  626.280
1134.481;    4.635;   -9.920;  597.580
1135.020;    4.924;  -12.290;  609.160
1135.560;    4.464;  -11.650;  674.940
1136.100;    3.592;  -16.270;  501.160
1136.640;    3.925;  -10.890;  510.480
1137.179;    4.293;  -14.180;  537.960
1137.719;    4.136;  -16.250;  605.400
1138.258;    4.265;  -14.230;  587.360
1138.798;    4.726;   -9.090;  663.780
1139.337;    3.309;  -15.130;  482.840
1139.877;    4.334;  -13.680;  642.360
1140.416;    5.580;  -11.320;  878.060
1140.955;    3.094;  -10.860;  535.380
1141.494;    3.669;  -12.920;  669.280
1142.034;    2.975;  -13.930;  583.520
1142.573;    4.171;  -11.440;  646.280
1143.112;    2.933;  -12.000;  553.480
1143.651;    3.591;  -13.670;  536.480
1144.190;    3.758;  -12.730;  691.640
1144.729;    3.806;  -14.560;  607.420
1145.267;    3.110;  -11.830;  584.900
1145.806;    4.230;  -12.230;  637.040
1146.345;    3.297;  -14.130;  635.020
1146.884;    2.425;  -11.590;  622.500
1147.422;    2.232;  -12.550;  533.060
1147.961;    3.881;  -11.180;  708.460
1148.500;    3.193;  -11.510;  669.720
1149.038;    3.119;  -11.640;  632.500
1149.577;    3.088;  -10.130;  698.640
1150.115;    1.670;  -13.970;  452.280
1150.653;    2.659;  -14.520;  607.340
1151.192;    2.769;  -12.810;  552.920
1151.730;    2.515;   -9.100;  652.560
1152.268;    2.314;  -12.220;  589.520
1152.806;    2.181;  -14.140;  571.180
1153.344;    0.449;  -12.350;  577.640
1153.882;    1.891;   -8.980;  600.060
1154.421;    0.581;  -15.190;  470.620
1154.958;    1.406;  -15.210;  595.240
1155.496;    2.340;  -12.850;  645.280
1156.034;    1.833;   -9.940;  721.880
1156.572;    2.685;  -13.570;  667.060
1157.110;    0.863;  -14.590;  473.940
1157.647;    2.020;  -13.030;  676.960
1158.185;    1.189;  -12.140;  564.320
1158.723;    0.281;  -14.390;  509.200
1159.260;    1.710;  -14.090;  701.700
1159.798;    0.828;  -11.920;  658.160
1160.335;    1.028;  -11.110;  631.820

