
Integration time [ms]:   3.276
Averaging Nr. [scans]: 1000
Smoothing Nr. [pixels]: 0
Data measured with spectrometer [name]: 7414430SP
Wave   ;Sample   ;Dark     ;Reference
[nm]   ;[counts] ;[counts] ;[counts] 

288.544;  158.076;    7.793;  793.890
289.143;  161.035;    7.462;  681.602
289.742;  162.311;    8.602;  828.814
290.341;  149.810;    1.321;  789.841
290.940;  139.118;   -0.709;  730.702
291.538;  140.143;    0.881;  881.108
292.137;  140.358;    0.122;  792.581
292.736;  143.625;   -1.929;  975.101
293.335;  139.097;   -8.229;  735.086
293.934;  139.859;   -5.279;  781.677
294.532;  140.525;   -1.369; 1031.958
295.131;  127.430;   -7.641;  834.394
295.730;  126.843;   -8.420;  809.588
296.328;  123.732;   -5.611;  783.442
296.927;  123.395;   -5.781;  779.652
297.525;  125.715;   -6.361;  781.236
298.124;  116.430;  -11.382;  654.009
298.722;  120.755;   -7.641;  761.933
299.321;  117.082;   -6.811;  708.597
299.919;  114.072;   -6.991;  751.918
300.518;  111.572;  -10.362;  689.338
301.116;  113.450;   -9.581;  691.381
301.715;  114.389;   -4.891;  730.222
302.313;  112.460;   -8.801;  704.943
302.911;  107.453;   -8.522;  733.830
303.509;  111.295;   -6.171;  925.627
304.108;  110.024;   -7.311;  760.383
304.706;  110.117;   -8.321;  801.664
305.304;  104.523;  -10.222;  796.707
305.902;  108.743;   -6.021;  784.484
306.500;  104.670;   -4.971;  728.200
307.098;  103.869;   -7.061;  746.560
307.696;  101.992;   -8.801;  780.432
308.294;  100.897;   -6.411;  731.359
308.892;  103.068;   -2.901;  759.769
309.490;  100.280;   -5.041;  712.161
310.088;   98.169;   -5.002;  788.444
310.686;  101.980;   -2.041;  821.749
311.284;   97.763;   -2.351;  766.040
311.882;   95.005;   -4.422;  731.225
312.480;   92.784;   -4.192;  697.167
313.078;   93.027;   -1.172;  808.331
313.675;   93.976;   -2.601;  691.600
314.273;   89.360;   -1.312;  797.837
314.871;   88.846;   -3.942;  589.829
315.468;   86.369;   -2.802;  652.090
316.066;   89.040;   -0.701;  694.427
316.664;   82.477;   -4.362;  656.351
317.261;   86.517;   -2.872;  910.128
317.859;   82.072;   -2.022;  768.735
318.456;   81.887;   -0.531;  830.096
319.054;   78.612;   -3.912;  787.828
319.651;   77.256;   -4.752;  759.928
320.249;   74.850;   -2.602;  810.188
320.846;   72.905;   -0.821;  714.286
321.443;   70.798;   -4.642;  832.135
322.041;   69.132;   -5.002;  812.315
322.638;   65.645;   -3.982;  701.456
323.235;   66.607;   -3.411;  665.683
323.833;   64.891;   -7.361;  740.354
324.430;   59.132;   -8.611;  615.900
325.027;   59.688;   -4.061;  876.855
325.624;   59.151;   -4.031;  644.532
326.221;   56.786;   -7.481;  689.717
326.818;   56.202;   -5.281;  818.332
327.415;   58.237;   -7.460;  748.828
328.012;   58.054;   -5.510;  690.585
328.609;   57.167;   -7.880;  731.389
329.206;   55.713;   -8.331;  778.621
329.803;   55.089;   -5.121;  737.841
330.400;   56.913;   -4.510;  704.260
330.997;   58.302;   -6.441;  817.147
331.594;   56.917;   -8.831;  788.185
332.191;   61.902;   -7.621;  728.722
332.787;   66.020;   -4.591;  844.463
333.384;   66.008;   -7.412;  763.093
333.981;   64.961;   -8.293;  815.687
334.578;   66.769;   -7.052;  708.378
335.174;   69.415;   -3.102;  731.469
335.771;   68.554;   -5.943;  836.456
336.367;   66.436;   -7.393;  710.631
336.964;   70.450;   -4.063;  793.266
337.561;   68.206;   -3.813;  731.112
338.157;   64.558;   -4.654;  911.916
338.754;   63.859;   -7.934;  796.589
339.350;   60.044;   -4.414;  722.493
339.946;   62.166;   -4.664;  773.135
340.543;   55.261;   -6.375;  846.136
341.139;   48.601;   -9.815;  720.836
341.735;   46.029;   -4.526;  772.593
342.332;   44.965;   -4.895;  691.472
342.928;   44.697;   -4.295;  795.394
343.524;   37.760;   -5.476;  761.684
344.120;   33.932;   -5.856;  738.562
344.716;   37.167;   -2.155;  723.717
345.313;   35.440;   -6.275;  795.342
345.909;   29.956;   -8.815;  627.336
346.505;   30.626;   -5.305;  740.247
347.101;   31.644;   -2.674;  827.864
347.697;   32.181;   -4.344;  785.398
348.293;   26.293;   -9.975;  627.244
348.889;   26.909;   -5.774;  745.914
349.485;   26.619;   -5.004;  688.205
350.081;   28.024;   -4.704;  772.592
350.676;   23.004;   -6.635;  691.606
351.272;   26.633;   -4.504;  809.530
351.868;   26.544;   -3.914;  780.497
352.464;   24.103;   -9.044;  723.932
353.059;   20.031;   -8.314;  646.017
353.655;   23.242;   -7.024;  777.063
354.251;   23.991;   -5.343;  759.845
354.846;   18.945;   -8.604;  740.646
355.442;   16.953;   -6.945;  753.071
356.038;   17.848;   -7.564;  751.708
356.633;   18.170;   -5.814;  728.594
357.229;   17.354;   -7.364;  724.757
357.824;   14.145;   -8.024;  703.600
358.420;   13.080;   -9.384;  679.726
359.015;   13.810;   -5.104;  695.357
359.610;   15.087;   -6.854;  763.920
360.206;    8.441;  -10.185;  603.240
360.801;   11.446;   -7.054;  646.503
361.396;   13.635;   -5.034;  725.975
361.992;    8.618;   -8.284;  668.220
362.587;    6.690;   -8.625;  670.160
363.182;    8.496;   -7.674;  689.631
363.777;    9.300;   -5.164;  738.242
364.372;    9.504;   -8.604;  737.314
364.967;    4.969;   -9.055;  680.744
365.563;    8.541;   -6.114;  815.567
366.158;    6.194;   -5.814;  685.161
366.753;    7.217;   -7.854;  649.263
367.348;    4.587;   -7.804;  746.056
367.942;    5.099;   -7.954;  697.298
368.537;    4.129;   -4.984;  754.245
369.132;    4.912;   -8.564;  703.428
369.727;    0.172;   -8.855;  638.079
370.322;    1.346;   -6.245;  580.186
370.917;    0.834;   -6.425;  710.646
371.511;    3.509;   -6.294;  861.834
372.106;    0.537;   -7.685;  776.964
372.701;   -3.589;   -7.335;  585.988
373.296;    2.033;   -4.564;  863.135
373.890;   -2.082;  -10.235;  647.840
374.485;   -4.314;   -7.885;  691.199
375.079;   -0.894;   -7.324;  738.685
375.674;    0.510;   -3.494;  812.970
376.268;   -3.266;   -8.525;  691.759
376.863;   -8.831;  -10.086;  580.327
377.457;   -3.031;   -7.025;  662.490
378.052;   -4.995;   -3.585;  764.884
378.646;   -5.801;   -7.595;  741.167
379.240;   -6.414;   -8.335;  721.176
379.835;   -5.794;   -5.785;  636.978
380.429;   -7.228;   -4.335;  562.557
381.023;   -7.169;   -6.805;  779.205
381.617;  -10.015;   -9.195;  680.106
382.212;   -6.504;   -6.905;  685.303
382.806;   -5.976;   -3.745;  760.690
383.400;   -9.653;   -7.745;  672.281
383.994;  -10.454;   -9.765;  664.870
384.588;   -7.891;   -6.564;  697.701
385.182;   -6.311;   -5.344;  726.624
385.776;   -7.164;   -8.514;  706.875
386.370;  -10.033;   -9.555;  681.968
386.964;   -9.620;   -8.715;  684.155
387.558;   -8.352;   -6.174;  598.360
388.152;  -11.147;   -8.725;  681.959
388.745;  -10.070;   -7.965;  814.707
389.339;   -7.915;   -5.924;  747.642
389.933;   -7.004;   -5.524;  695.370
390.527;   -8.262;   -7.114;  859.029
391.120;  -14.895;  -10.725;  595.318
391.714;  -11.652;   -8.035;  711.633
392.308;   -8.582;   -3.574;  780.253
392.901;  -11.864;   -7.245;  642.460
393.495;  -14.249;   -9.285;  595.414
394.089;  -11.968;   -5.895;  760.452
394.682;  -13.267;   -4.295;  697.188
395.275;  -13.202;   -9.875;  719.927
395.869;  -14.593;   -8.485;  667.314
396.462;  -12.907;   -7.455;  616.609
397.056;   -8.977;   -5.424;  776.621
397.649;  -13.940;   -6.605;  731.575
398.242;  -10.982;   -8.224;  712.645
398.836;  -10.627;   -7.474;  766.408
399.429;  -11.885;   -7.094;  631.041
400.022;  -14.944;   -9.475;  665.902
400.615;  -12.034;   -7.145;  805.609
401.208;  -10.815;   -7.174;  691.451
401.802;  -13.420;   -5.515;  699.329
402.395;  -14.537;   -9.875;  683.502
402.988;  -14.215;   -8.845;  696.627
403.581;  -11.109;   -8.874;  646.878
404.174;   -9.143;   -5.324;  686.568
404.767;  -13.074;   -9.575;  638.583
405.360;  -14.898;  -10.965;  621.445
405.953;   -9.305;   -8.764;  759.034
406.545;   -8.860;   -7.514;  725.342
407.138;  -13.151;  -10.025;  618.350
407.731;  -12.010;  -10.034;  613.303
408.324;   -8.032;   -9.374;  660.554
408.917;   -9.349;   -6.534;  681.864
409.509;  -11.376;   -8.004;  740.396
410.102;  -12.791;   -9.875;  643.948
410.695;   -6.723;   -8.604;  665.758
411.287;   -7.729;   -6.794;  599.821
411.880;   -8.847;   -9.334;  585.421
412.472;  -11.841;  -10.254;  613.092
413.065;   -9.077;   -6.714;  629.408
413.657;   -7.628;   -7.234;  576.678
414.250;   -7.306;  -10.544;  646.681
414.842;   -7.930;   -9.744;  676.353
415.434;   -6.648;   -6.994;  570.463
416.027;   -2.610;   -5.893;  652.196
416.619;   -4.460;   -7.264;  713.400
417.211;   -4.505;  -10.374;  599.352
417.804;   -1.775;   -7.993;  628.499
418.396;   -5.164;   -7.234;  607.643
418.988;   -3.222;   -9.443;  659.238
419.580;   -6.244;  -10.724;  568.276
420.172;   -4.906;  -10.323;  536.196
420.764;   -0.361;   -8.793;  672.482
421.356;   -1.024;  -11.143;  636.898
421.948;   -2.195;   -8.293;  677.661
422.540;    2.655;   -7.893;  680.027
423.132;    2.294;   -7.082;  600.641
423.724;   -0.818;   -8.653;  561.267
424.316;    1.163;  -10.213;  621.345
424.908;    4.056;   -9.762;  591.517
425.500;    4.757;   -5.572;  647.978
426.092;    5.398;   -8.422;  648.268
426.683;    4.203;   -9.283;  684.836
427.275;    6.910;   -7.852;  641.471
427.867;    8.305;   -5.272;  668.948
428.458;    9.495;   -7.682;  732.344
429.050;    7.561;  -10.612;  680.749
429.642;    8.953;   -9.882;  743.124
430.233;   10.220;   -6.962;  569.356
430.825;   12.105;   -6.842;  724.809
431.416;    8.500;   -9.672;  698.241
432.008;   13.047;   -6.552;  651.723
432.599;   12.874;   -6.891;  656.073
433.190;   10.995;  -10.912;  637.670
433.782;    9.756;  -11.172;  590.395
434.373;   16.865;   -6.061;  884.765
434.964;   14.982;   -8.251;  602.920
435.556;   13.275;   -9.722;  634.537
436.147;   16.433;   -9.082;  758.490
436.738;   15.757;   -8.041;  701.099
437.329;   21.485;   -7.341;  721.723
437.920;   14.872;   -8.162;  666.688
438.511;   14.221;  -11.802;  564.526
439.103;   21.031;  -10.191;  623.998
439.694;   22.164;   -7.601;  681.583
440.285;   23.331;   -8.541;  764.432
440.876;   21.922;   -9.751;  845.738
441.466;   21.159;   -9.401;  575.162
442.057;   26.676;   -7.760;  665.814
442.648;   25.879;   -9.971;  746.255
443.239;   23.721;  -11.001;  620.477
443.830;   28.423;   -7.990;  704.958
444.421;   29.829;   -7.910;  655.474
445.011;   26.954;   -8.131;  693.619
445.602;   26.822;   -7.111;  743.126
446.193;   28.386;  -10.920;  488.117
446.783;   32.753;   -6.500;  640.397
447.374;   27.968;   -8.671;  692.759
447.964;   29.137;  -10.781;  713.770
448.555;   36.564;   -9.650;  822.742
449.145;   33.348;   -8.660;  662.853
449.736;   34.536;   -8.990;  803.179
450.326;   35.432;   -9.500;  713.626
450.917;   39.070;   -8.680;  675.324
451.507;   38.462;   -7.520;  600.661
452.097;   39.983;   -8.590;  746.267
452.688;   41.029;  -11.340;  742.160
453.278;   39.833;  -10.100;  566.840
453.868;   44.997;   -6.019;  793.550
454.458;   42.798;   -9.440;  651.141
455.048;   42.316;  -10.560;  711.783
455.639;   44.899;  -11.799;  567.096
456.229;   47.784;   -6.899;  710.694
456.819;   49.786;   -7.389;  751.158
457.409;   50.785;  -11.119;  773.993
457.999;   53.553;   -9.289;  737.505
458.589;   53.225;   -6.139;  686.606
459.179;   52.436;   -8.729;  717.658
459.769;   51.141;   -9.789;  627.099
460.358;   55.003;  -10.259;  797.262
460.948;   55.830;   -7.299;  689.503
461.538;   57.462;  -10.289;  660.677
462.128;   55.316;  -11.269;  664.934
462.717;   61.409;   -9.368;  710.326
463.307;   65.496;   -7.908;  705.846
463.897;   60.017;   -9.599;  656.942
464.486;   60.991;   -9.769;  837.128
465.076;   65.284;   -8.048;  733.776
465.666;   67.838;   -9.358;  652.900
466.255;   65.737;   -7.919;  785.651
466.845;   64.951;  -11.689;  666.749
467.434;   68.181;   -7.818;  725.873
468.023;   69.474;   -7.678;  658.357
468.613;   66.547;  -10.939;  713.946
469.202;   71.648;  -10.118;  646.507
469.791;   75.594;   -9.108;  737.811
470.381;   77.009;   -6.058;  742.813
470.970;   76.820;  -10.428;  711.099
471.559;   76.870;  -10.268;  733.291
472.148;   79.266;   -8.448;  675.737
472.738;   82.299;   -6.917;  765.466
473.327;   81.693;  -11.978;  637.529
473.916;   81.851;  -11.888;  737.446
474.505;   85.681;   -9.437;  751.703
475.094;   88.735;   -6.747;  806.570
475.683;   89.364;   -9.367;  797.699
476.272;   89.540;  -12.637;  730.632
476.861;   91.193;  -10.027;  706.754
477.449;   97.562;   -8.716;  728.487
478.038;   92.330;   -9.577;  692.513
478.627;   93.665;   -9.718;  714.852
479.216;   99.882;   -8.947;  769.441
479.805;  103.903;   -6.256;  783.375
480.393;  103.749;   -7.937; 1008.945
480.982;  102.682;   -7.717;  874.501
481.571;  109.062;   -9.266;  858.333
482.159;  109.268;   -7.636;  705.386
482.748;  109.230;   -9.667;  821.385
483.336;  114.083;  -10.376;  858.209
483.925;  113.902;   -7.147;  774.373
484.513;  121.167;   -7.996;  758.962
485.102;  118.712;  -10.027;  810.965
485.690;  127.818;  -10.446; 1011.050
486.278;  129.330;   -8.446;  979.329
486.867;  129.785;   -6.356;  809.662
487.455;  132.389;   -9.136;  898.229
488.043;  133.723;  -10.646;  748.361
488.631;  142.295;   -7.456; 1005.079
489.220;  146.231;   -6.636;  908.626
489.808;  146.919;  -11.036;  741.415
490.396;  155.867;  -10.246;  914.645
490.984;  162.424;   -8.556;  830.161
491.572;  174.057;   -5.886;  940.315
492.160;  182.249;   -9.486;  919.081
492.748;  195.283;  -10.976;  884.341
493.336;  217.777;   -8.776; 1019.693
493.924;  247.974;   -5.465;  958.077
494.512;  283.068;   -9.986; 1066.638
495.100;  333.083;  -10.636; 1103.280
495.687;  395.474;  -10.885; 1206.373
496.275;  452.253;   -8.126; 1150.796
496.863;  523.553;  -10.586; 1281.171
497.451;  640.893;  -11.926; 1386.805
498.038;  755.087;  -10.885; 1556.729
498.626;  850.899;   -6.315; 1741.407
499.214; 1000.650;   -7.326; 2016.609
499.801; 1231.399;  -11.906; 2220.633
500.389; 1494.769;  -10.466; 2312.494
500.976; 1746.299;   -5.236; 2744.849
501.564; 2165.096;   -8.936; 3148.565
502.151; 2626.696;  -13.176; 3515.999
502.738; 3168.477;  -10.646; 3971.274
503.326; 3554.161;   -9.525; 4403.796
503.913; 3861.052;  -10.856; 5161.749
504.500; 4385.638;  -11.586; 5986.420
505.088; 4662.028;  -10.336; 6381.201
505.675; 5124.691;   -6.355; 6925.547
506.262; 5587.541;   -9.046; 7619.060
506.849; 6121.140;  -10.416; 8733.969
507.436; 6692.435;  -10.305; 9790.121
508.023; 7166.874;   -5.496; 9985.472
508.610; 7962.707;   -7.856;10434.618
509.197; 9245.188;  -10.097;11198.435
509.784;10728.856;  -10.886;12391.194
510.371;12072.341;   -9.315;13603.713
510.958;12953.156;   -9.936;14426.586
511.545;13661.844;   -9.326;15243.775
512.132;14183.866;  -10.075;15945.876
512.719;14356.065;   -7.796;16340.369
513.305;15286.538;  -10.606;18011.766
513.892;16553.158;  -11.486;19754.971
514.479;18232.861;   -9.126;20967.805
515.066;19753.773;   -6.026;22299.793
515.652;19884.369;   -8.466;22908.660
516.239;20923.426;  -10.886;23798.875
516.825;23353.758;  -11.496;25567.275
517.412;25554.039;   -5.796;28154.959
517.998;27399.133;  -10.506;28344.111
518.585;26860.506;  -10.076;27134.219
519.171;25513.961;   -8.315;27268.576
519.758;26550.947;   -8.596;28964.129
520.344;27771.021;   -8.466;30664.494
520.930;30004.320;  -11.006;32550.605
521.516;30180.350;  -10.495;35422.895
522.103;28585.963;   -5.526;38280.004
522.689;29019.121;   -8.746;37835.117
523.275;30242.168;  -11.376;37288.613
523.861;31716.439;  -11.156;37281.395
524.447;33510.660;   -8.135;37846.949
525.033;31645.881;   -7.896;38321.949
525.619;30091.594;  -12.476;38579.285
526.205;32590.488;   -9.516;40622.875
526.791;35988.266;   -6.926;42258.836
527.377;38839.238;   -8.346;42966.902
527.963;40791.246;   -8.717;42018.949
528.549;39851.445;  -11.016;42476.828
529.135;40259.898;   -8.536;41854.852
529.721;39960.324;   -9.666;41237.711
530.306;38315.152;  -10.066;41259.445
530.892;38145.852;  -11.356;41506.047
531.478;37454.672;   -6.596;43559.613
532.063;37877.383;   -8.836;47695.563
532.649;41193.262;  -10.047;50808.324
533.235;42295.066;   -9.746;51787.500
533.820;41546.977;   -6.566;52145.035
534.406;40729.598;  -10.817;51133.488
534.991;43538.035;   -9.416;49996.805
535.576;44519.949;   -9.036;48882.852
536.162;44459.391;   -6.156;46942.285
536.747;45666.281;  -11.607;45711.746
537.333;45900.703;  -11.787;48510.180
537.918;45986.313;  -12.437;50439.891
538.503;46840.133;   -7.196;50863.711
539.088;44078.750;  -10.556;50906.922
539.673;42077.488;   -8.767;52621.965
540.259;42249.512;  -10.026;52368.094
540.844;42048.672;   -7.416;50879.109
541.429;38451.395;   -9.467;52077.777
542.014;36125.004;   -9.527;52716.695
542.599;38703.766;   -9.946;52363.281
543.184;44536.840;   -7.927;53187.137
543.769;47028.875;   -9.297;54697.605
544.354;46286.184;  -10.127;53913.914
544.938;45683.863;   -9.267;49680.164
545.523;47962.152;   -6.506;47386.277
546.108;51066.406;   -9.787;49151.949
546.693;50511.957;  -11.587;51384.637
547.278;50565.523;  -10.986;51853.254
547.862;47559.879;   -8.206;51173.750
548.447;44716.098;  -10.067;51691.395
549.031;45297.441;   -9.637;52456.703
549.616;46252.945;   -9.926;52714.516
550.201;45204.563;   -6.347;52414.598
550.785;44717.340;   -7.917;52355.059
551.370;46077.664;  -10.867;54589.453
551.954;46901.977;   -9.047;58267.348
552.538;47651.340;   -7.827;59062.176
553.123;47450.781;  -10.287;58115.285
553.707;43591.391;  -12.178;56556.285
554.291;44271.363;   -8.717;56201.668
554.876;47298.414;   -7.457;55335.762
555.460;48250.949;  -10.387;54155.703
556.044;49379.840;   -9.618;53721.484
556.628;48343.555;  -11.567;53731.016
557.212;46136.297;   -8.097;54312.531
557.796;47630.145;  -11.077;53797.773
558.380;45842.805;  -11.108;56145.984
558.964;44590.012;   -9.057;57277.930
559.548;44311.801;   -6.977;56459.641
560.132;43073.422;  -11.457;54434.543
560.716;42251.539;  -11.378;54800.617
561.300;43053.656;   -9.577;57606.945
561.884;44939.668;   -7.127;58972.445
562.467;45739.832;   -7.118;57327.570
563.051;45148.016;  -13.358;54962.434
563.635;42692.438;  -10.178;52594.473
564.219;41924.852;   -7.837;50610.410
564.802;41648.582;  -11.398;49551.180
565.386;42944.594;  -12.788;48370.953
565.969;43908.527;   -9.077;48178.871
566.553;44087.895;   -6.207;49957.305
567.136;41238.680;   -8.568;50369.594
567.720;40353.121;  -11.868;49492.004
568.303;40275.652;   -8.268;50616.352
568.887;39265.785;   -8.698;50727.148
569.470;39415.859;   -6.808;51698.379
570.053;38101.434;  -13.188;52122.078
570.637;36749.344;  -12.037;52536.438
571.220;35999.656;   -8.577;51186.098
571.803;36493.016;   -8.498;51032.762
572.386;39192.383;  -10.498;49609.887
572.969;40596.234;   -9.388;48285.926
573.552;37023.668;   -8.338;47624.285
574.135;35048.859;   -8.518;45498.641
574.718;31732.482;  -13.628;41970.434
575.301;31314.922;  -10.893;41447.137
575.884;30897.361;   -8.158;40923.836
576.467;35915.051;  -10.328;45267.723
577.050;34505.859;  -13.058;48175.543
577.633;33810.301;   -9.458;47729.328
578.216;35619.957;   -8.928;47579.793
578.799;36301.855;   -9.358;47820.996
579.381;35382.395;  -11.388;48115.551
579.964;32557.699;  -11.718;47333.766
580.547;32378.623;   -8.588;46668.969
581.129;33854.758;   -8.859;44466.141
581.712;34061.332;  -10.729;44164.922
582.294;35499.418;  -11.118;46477.855
582.877;33370.824;   -5.218;48244.254
583.459;33350.551;   -8.679;47437.895
584.042;35210.992;  -10.709;46943.219
584.624;37148.430;  -11.669;46792.227
585.206;36048.949;   -8.218;46557.250
585.789;34984.355;  -10.569;45793.773
586.371;35454.094;  -11.859;43836.391
586.953;34104.961;  -10.719;42972.492
587.536;36085.938;   -7.198;42487.211
588.118;37435.508;   -8.720;42086.414
588.700;36593.520;  -10.439;43389.930
589.282;36660.801;   -9.198;43646.039
589.864;35417.719;   -9.199;43438.109
590.446;33306.117;  -11.319;43151.926
591.028;32968.680;  -11.159;42781.867
591.610;32714.479;  -11.779;42839.098
592.192;29641.021;   -7.668;42820.402
592.774;30291.945;  -11.949;40724.277
593.356;31209.693;  -12.129;39874.789
593.937;29047.758;  -10.669;39980.648
594.519;30483.375;   -6.509;42069.633
595.101;32411.434;  -10.849;42976.031
595.683;31162.338;  -11.679;44084.441
596.264;31249.324;   -9.049;43478.797
596.846;33291.699;   -8.849;43803.672
597.427;33304.922;   -9.570;42986.934
598.009;34716.270;  -12.620;42832.219
598.591;33872.117;  -10.039;42580.086
599.172;32719.461;  -10.369;43061.805
599.753;30831.457;   -9.140;41691.469
600.335;30819.225;  -11.430;40692.520
600.916;31171.121;   -9.939;39982.422
601.498;29708.555;   -8.479;40318.617
602.079;28628.508;  -10.920;40670.609
602.660;30440.514;  -11.480;41450.898
603.241;31838.590;  -11.699;41137.738
603.823;32241.797;   -9.579;38868.797
604.404;32099.332;  -10.620;38182.785
604.985;31006.035;  -10.450;38078.047
605.566;30806.299;   -9.129;38056.633
606.147;30807.680;   -7.510;37020.418
606.728;31923.129;  -10.660;37883.359
607.309;32678.160;  -11.740;38748.273
607.890;32211.838;   -9.759;38850.230
608.471;30591.904;   -8.250;37457.918
609.051;30747.016;   -9.240;36066.457
609.632;28945.313;  -12.120;35991.074
610.213;27941.707;   -9.110;37402.641
610.794;30230.969;   -8.030;38383.363
611.374;32506.920;   -8.110;40562.387
611.955;31919.533;  -13.560;38533.727
612.536;29131.756;  -11.400;36951.789
613.116;28031.129;   -8.070;37197.891
613.697;30152.100;  -10.830;38411.125
614.277;31574.813;  -11.641;38673.938
614.858;30795.621;  -13.310;37075.863
615.438;29169.594;   -7.460;35092.906
616.019;27536.783;   -7.601;33666.301
616.599;28497.826;  -12.020;34189.023
617.179;30128.934;  -11.780;36952.047
617.760;33074.535;   -8.570;39582.574
618.340;33175.449;  -11.471;38943.977
618.920;31817.090;  -11.170;37594.156
619.500;33623.387;  -11.071;37866.938
620.080;33744.117;   -7.750;37869.043
620.660;31776.898;  -12.711;36868.617
621.241;30193.986;  -10.211;36352.309
621.821;29329.598;  -10.961;35459.520
622.401;28645.502;   -7.720;35207.414
622.980;29869.682;   -8.981;35980.422
623.560;30300.215;   -9.331;37351.328
624.140;28978.400;   -9.850;34388.582
624.720;26265.246;   -7.451;32368.764
625.300;24451.756;   -9.070;32638.629
625.880;27797.934;  -12.601;34599.035
626.459;29700.184;  -11.751;36831.738
627.039;30598.000;   -9.281;38299.098
627.619;32504.404;   -8.801;38289.574
628.198;31782.311;  -12.071;37220.695
628.778;30857.004;   -9.461;37632.563
629.357;31879.840;   -8.491;38003.012
629.937;32102.658;   -9.721;38402.039
630.516;32334.852;   -9.951;37868.801
631.096;32626.953;  -11.731;35760.410
631.675;33726.090;   -8.572;35225.219
632.254;33210.559;  -11.282;35130.289
632.834;32541.350;  -13.322;35794.570
633.413;32504.643;  -10.301;35788.922
633.992;31673.043;   -8.582;34532.863
634.571;33282.898;   -8.352;33590.113
635.151;33362.688;  -11.912;34943.863
635.730;32585.686;  -10.511;35352.523
636.309;34975.734;   -7.731;35366.605
636.888;32806.023;   -9.952;36165.637
637.467;30715.473;  -11.672;37515.902
638.046;30920.352;   -8.901;39288.695
638.625;31957.854;   -7.912;38279.699
639.204;32151.887;  -10.022;37741.598
639.782;30163.705;  -12.252;38364.551
640.361;28696.951;  -10.041;36740.621
640.940;27837.180;  -11.161;34950.082
641.519;28649.746;   -9.701;34137.398
642.097;30130.662;  -11.271;35654.258
642.676;31992.023;   -8.651;35637.957
643.255;33288.492;   -8.711;36567.074
643.833;30703.486;   -9.581;37809.434
644.412;28493.158;  -13.711;37337.293
644.990;30506.631;  -11.811;37018.531
645.569;33116.758;   -9.411;36518.469
646.147;32517.754;  -10.291;36186.430
646.726;31405.715;  -12.401;36267.688
647.304;31278.553;  -10.411;36647.625
647.882;30419.852;   -9.651;39286.742
648.461;31948.467;   -9.631;39157.703
649.039;35385.035;  -11.881;35412.883
649.617;35413.023;   -9.661;34744.918
650.195;33087.754;   -9.301;35403.098
650.773;31914.215;  -10.511;35053.797
651.352;31108.623;  -11.521;33756.816
651.930;28990.332;  -12.211;31868.773
652.508;25995.809;   -9.171;33121.551
653.086;26842.131;   -9.371;33564.793
653.663;32729.672;  -13.161;34054.668
654.241;36831.844;  -13.031;35693.309
654.819;37579.270;   -9.371;36422.906
655.397;37346.555;  -10.511;38213.484
655.975;33620.898;  -10.371;39507.625
656.553;30181.496;  -10.051;39498.223
657.130;28530.166;  -10.061;40395.480
657.708;26677.879;   -9.561;39242.020
658.286;24365.117;  -11.511;38920.020
658.863;26709.508;  -10.261;40202.898
659.441;30284.689;   -7.531;39677.938
660.018;32256.125;   -9.501;40413.355
660.596;31572.363;  -13.301;39931.414
661.173;31585.873;  -11.211;39604.531
661.750;33255.465;   -9.951;39700.070
662.328;32137.809;   -9.390;39292.809
662.905;30941.771;  -11.330;38235.648
663.482;28481.166;   -9.050;36212.305
664.060;25506.342;   -8.240;35944.945
664.637;26151.004;  -10.050;35170.785
665.214;29426.898;  -11.760;34197.523
665.791;29778.709;  -10.530;34549.520
666.368;28913.051;   -9.690;35118.578
666.945;30457.262;   -9.320;36019.418
667.522;31080.953;  -11.860;36048.438
668.099;32425.549;  -10.770;36243.914
668.676;32317.348;   -6.260;35958.875
669.253;34587.832;   -7.000;37384.730
669.830;35694.215;  -10.190;36779.629
670.407;32804.973;   -9.550;35231.289
670.984;33284.629;   -9.260;35544.270
671.560;30676.881;   -9.280;35466.867
672.137;26862.295;  -11.810;34280.863
672.714;28708.984;  -11.490;34632.863
673.290;32138.416;   -7.740;35135.422
673.867;31697.453;  -10.660;36114.480
674.443;31834.984;  -12.230;36152.859
675.020;31417.293;  -10.450;35327.238
675.596;29643.408;   -9.260;35795.176
676.173;28396.982;  -10.780;35430.355
676.749;28161.254;  -13.690;33549.516
677.326;28258.756;  -11.980;32210.012
677.902;27517.127;   -8.630;32068.871
678.478;29325.709;  -10.730;32583.891
679.054;30072.533;  -10.520;32088.928
679.631;29265.539;  -11.920;30978.848
680.207;29384.197;   -7.490;33160.887
680.783;31235.434;   -9.860;35570.363
681.359;32967.578;  -13.380;36125.184
681.935;33872.957;  -12.480;35240.922
682.511;33071.395;   -7.900;34429.961
683.087;31848.008;   -7.710;34463.680
683.663;31396.314;  -11.480;34648.898
684.239;30152.355;  -14.090;34546.457
684.815;28888.182;   -7.560;35586.375
685.390;29194.135;   -9.910;35821.895
685.966;30543.045;  -11.159;35085.871
686.542;32189.654;  -11.169;34198.230
687.118;33521.449;   -5.959;32847.707
687.693;32596.744;  -10.329;32794.027
688.269;33754.484;  -12.059;33072.367
688.844;33543.133;  -10.909;33141.664
689.420;30542.633;   -8.019;33965.742
689.995;29404.559;   -8.399;34655.523
690.571;30713.553;  -10.949;33576.742
691.146;30038.006;   -9.619;32657.219
691.722;28670.863;   -8.999;32526.979
692.297;28133.689;  -11.589;33014.617
692.872;28231.686;  -11.739;34012.254
693.448;31141.133;  -11.059;34237.434
694.023;31721.494;  -10.139;34142.672
694.598;30012.928;   -9.029;34132.031
695.173;31013.928;  -13.319;34205.250
695.748;31188.455;  -10.169;32882.488
696.323;28808.551;   -8.339;32864.906
696.898;27303.686;   -8.169;33170.004
697.473;28051.771;  -12.309;32432.984
698.048;28179.635;  -10.989;31649.303
698.623;26799.764;   -9.329;30778.141
699.198;27691.047;   -9.849;31140.119
699.773;28798.330;  -12.329;31764.299
700.348;30137.277;  -10.389;31780.816
700.922;30404.123;   -9.269;32046.375
701.497;31250.738;   -9.329;32603.574
702.072;32206.107;  -10.789;34799.871
702.646;31119.707;  -10.839;35793.172
703.221;30460.965;   -9.099;35201.590
703.795;32430.020;  -10.939;34764.527
704.370;29980.096;  -12.859;34307.367
704.944;28499.506;  -11.559;33509.887
705.519;29819.348;   -7.939;31388.584
706.093;32052.904;  -10.499;31340.104
706.668;33992.566;  -11.289;32630.281
707.242;33192.352;  -11.509;32728.779
707.816;31556.627;   -9.639;32947.238
708.390;30341.232;  -11.429;33277.855
708.965;29553.459;  -11.869;33834.336
709.539;30874.594;  -11.689;33709.273
710.113;31085.410;  -10.478;33044.313
710.687;30512.596;  -10.228;31953.992
711.261;29957.332;  -13.698;30505.949
711.835;30303.598;  -13.378;30262.369
712.409;29131.545;   -9.698;31254.447
712.983;28878.457;  -11.898;32754.986
713.557;31152.594;  -15.138;34018.824
714.131;29069.486;  -14.098;34579.625
714.704;28570.740;   -9.958;33890.262
715.278;30798.762;  -10.028;33531.102
715.852;29501.203;  -11.148;33601.660
716.425;28246.043;   -9.068;33515.117
716.999;26839.313;  -10.038;33185.555
717.573;26289.756;   -9.798;33905.996
718.146;25617.898;  -12.378;35199.293
718.720;26085.629;  -11.918;35060.551
719.293;26489.646;   -8.088;34973.230
719.867;28872.754;  -10.888;36394.449
720.440;30768.908;  -11.938;36663.008
721.013;31534.066;  -12.818;35102.426
721.587;29100.775;  -10.298;33985.266
722.160;27185.053;  -10.048;33524.965
722.733;26459.514;  -12.108;32987.043
723.306;26833.084;  -10.818;33066.301
723.880;28846.953;   -8.908;33399.500
724.453;28563.518;   -9.878;33468.297
725.026;28681.639;  -11.188;33816.637
725.599;31298.832;  -11.678;32797.996
726.172;30733.623;   -9.618;33187.434
726.745;28338.625;   -8.258;35136.613
727.318;27968.367;  -12.978;35751.730
727.891;27168.775;  -12.148;35890.430
728.463;26167.160;   -8.968;34822.090
729.036;26206.137;  -10.188;32895.086
729.609;26163.535;  -11.788;31823.225
730.182;24113.219;  -11.788;31445.283
730.754;22881.736;  -10.268;32373.223
731.327;23232.441;   -9.998;33676.820
731.900;24393.248;  -12.228;33417.000
732.472;23940.998;  -13.848;31978.498
733.045;22859.703;   -8.698;30368.777
733.617;22843.395;  -10.607;30574.215
734.190;24980.482;  -11.507;31280.975
734.762;25914.092;  -13.647;31674.412
735.334;27431.691;   -9.767;31247.291
735.907;27843.463;   -9.897;29876.211
736.479;27560.230;  -11.637;29808.488
737.051;28292.877;   -9.567;30233.547
737.623;27342.658;   -8.187;31469.086
738.195;25959.754;  -11.187;31784.225
738.768;24843.994;  -12.337;32120.523
739.340;23332.904;  -12.227;32094.342
739.912;22602.936;  -11.057;31312.680
740.484;22673.480;  -10.207;31946.238
741.056;22386.344;  -10.047;32984.059
741.628;23398.211;  -13.627;33897.715
742.199;24217.205;   -7.177;33213.016
742.771;26464.980;  -10.797;31369.113
743.343;27291.271;  -11.997;31865.473
743.915;26981.320;  -12.867;32388.631
744.487;24425.570;   -7.617;31079.568
745.058;21672.693;   -9.557;30570.107
745.630;22719.359;   -9.877;29970.127
746.201;24144.740;  -14.177;29186.766
746.773;24533.805;   -9.237;28805.723
747.344;22576.730;   -9.847;29591.223
747.916;21006.818;  -11.657;31412.201
748.487;22089.039;  -10.587;32194.898
749.059;23873.164;   -8.707;32533.719
749.630;24158.547;  -10.537;32158.518
750.201;23456.336;  -11.687;30855.395
750.773;22220.035;  -11.647;28622.555
751.344;22195.021;   -7.147;28405.732
751.915;24516.570;   -9.757;28461.551
752.486;25674.277;  -12.427;27842.850
753.057;24434.477;  -12.227;27845.008
753.628;24380.896;  -10.417;27728.107
754.199;23981.404;  -11.767;27381.086
754.770;23503.465;  -11.187;25882.203
755.341;22286.168;  -10.507;25886.184
755.912;20734.398;   -9.387;26050.861
756.483;19383.941;  -10.647;26798.779
757.054;19802.727;  -11.837;27048.238
757.625;19749.518;  -12.716;26294.838
758.195;19396.482;   -9.666;26142.076
758.766;19526.887;   -8.656;26392.234
759.337;19094.520;  -12.856;26334.594
759.907;18912.900;  -13.366;27579.652
760.478;18733.277;   -8.576;28352.770
761.048;19879.908;  -10.526;27325.088
761.619;20011.439;  -11.116;26460.428
762.189;18643.711;  -12.136;26029.826
762.760;18261.693;   -9.456;26430.145
763.330;18606.514;   -7.136;26670.902
763.900;18587.207;  -11.786;26603.021
764.471;18142.334;  -11.546;25542.740
765.041;17377.539;   -8.096;24358.459
765.611;16738.021;   -8.876;23991.297
766.181;16806.979;  -12.196;24470.236
766.751;16624.154;  -11.636;24845.975
767.321;17620.549;  -10.156;24533.633
767.891;16938.426;  -11.766;24916.492
768.461;17164.227;  -14.936;24776.771
769.031;18239.943;  -12.356;24757.988
769.601;18805.740;   -7.526;24181.088
770.171;18539.143;  -10.766;23670.387
770.741;17791.895;  -13.176;22960.045
771.311;17338.088;  -10.616;22917.523
771.880;17687.543;   -9.576;23562.941
772.450;17357.045;  -10.336;24216.500
773.020;17037.324;  -13.516;24140.398
773.589;17663.916;  -13.466;24414.857
774.159;17495.510;   -8.686;23858.717
774.729;16059.473;   -9.476;22942.135
775.298;14229.121;  -13.666;22324.033
775.867;13892.325;  -11.716;21140.313
776.437;13930.745;   -9.906;20838.092
777.006;13247.909;  -12.166;20599.510
777.576;12773.435;  -12.356;20508.809
778.145;12698.953;  -11.646;20732.947
778.714;13175.575;   -8.226;21062.465
779.283;14238.244;   -9.556;20949.664
779.853;14845.401;  -14.116;20508.623
780.422;14275.028;  -11.506;20649.082
780.991;13886.633;   -9.556;21527.520
781.560;13625.671;   -9.095;22632.658
782.129;13480.514;  -12.135;23048.277
782.698;13220.094;  -10.865;23438.555
783.267;12874.290;   -9.335;23267.734
783.836;13125.226;  -11.045;22415.133
784.404;13820.918;  -13.865;20443.152
784.973;12997.026;  -13.095;19699.150
785.542;11604.883;  -11.575;19763.828
786.111;10984.313;   -9.705;20341.408
786.679;11781.443;  -12.105;20207.967
787.248;12061.695;  -12.455;19516.465
787.817;11733.858;  -11.535;18900.363
788.385;11795.776;   -9.765;17879.121
788.954;11772.128;  -14.005;17658.301
789.522;11255.692;  -11.955;17788.879
790.090;11512.948;  -10.135;18118.277
790.659;12316.824;  -10.975;18338.736
791.227;12184.894;  -13.375;18508.615
791.795;11699.791;  -12.375;17898.254
792.364;11227.473;  -10.725;17295.133
792.932;11366.725;   -9.715;16822.051
793.500;11487.061;  -12.675;17040.148
794.068;11263.319;  -13.495;17179.787
794.636;10060.882;  -10.885;16664.246
795.204; 9033.608;  -11.045;16524.545
795.772; 9760.425;  -13.175;17274.564
796.340;10856.072;  -12.445;17891.002
796.908;10643.629;   -9.735;17648.561
797.476;11128.104;   -9.815;17064.080
798.044;11996.157;  -13.985;16672.777
798.612;11753.013;  -13.115;17023.996
799.180;10399.495;  -10.185;16561.615
799.747; 9426.765;   -9.055;15962.773
800.315; 8964.427;  -12.385;15296.992
800.883; 9286.630;  -15.035;14801.771
801.450; 9494.691;  -10.365;14534.430
802.018; 9502.688;   -9.855;14173.248
802.585; 9597.494;  -11.905;14029.547
803.153; 9176.877;  -11.585;13836.846
803.720; 8626.791;   -9.095;13567.324
804.287; 8710.067;   -9.135;13360.622
804.855; 9008.052;  -11.604;13681.981
805.422; 9138.564;  -11.794;13536.560
805.989; 9019.481;  -10.734;13355.958
806.556; 8588.911;  -10.444;13747.896
807.124; 8449.600;  -12.764;13987.376
807.691; 8983.431;  -12.964;14038.674
808.258; 9354.313;  -11.134;14120.152
808.825; 9617.419;   -9.854;13860.111
809.392; 9325.233;  -10.504;13268.790
809.959; 8819.615;  -13.054;12680.389
810.526; 8655.114;   -8.294;12427.308
811.093; 8325.022;   -8.394;12030.105
811.659; 7531.677;  -12.304;11653.664
812.226; 7285.109;  -13.944;11637.183
812.793; 7770.512;  -10.484;11611.521
813.360; 7845.583;  -10.144;11885.181
813.926; 7122.918;  -11.684;12770.539
814.493; 6565.892;  -13.644;12677.638
815.060; 6489.227;   -9.724;11974.336
815.626; 6845.552;   -9.854;11594.715
816.193; 6873.626;  -13.254;11579.474
816.759; 6853.340;  -13.204;11666.972
817.325; 6608.226;   -9.434;11325.530
817.892; 6269.311;  -10.134;11105.369
818.458; 6222.279;  -13.474;10843.928
819.024; 6267.524;  -11.854;10714.406
819.591; 6605.342;  -10.244;10469.165
820.157; 6700.920;  -10.704;10235.523
820.723; 6946.141;  -12.324;10847.563
821.289; 7353.015;   -9.444;11040.980
821.855; 7369.767;   -8.374;10357.100
822.421; 6933.294;  -10.234; 9978.918
822.987; 6668.959;  -13.294; 9754.177
823.553; 6504.356;  -10.884;10065.755
824.119; 6085.875;   -8.884;10036.294
824.685; 5909.421;   -6.784;10029.192
825.251; 5841.903;  -12.004;10199.230
825.816; 5929.899;  -11.474; 9820.189
826.382; 5702.781;   -9.174; 9297.248
826.948; 5465.149;   -9.214; 9381.347
827.513; 5254.483;  -10.774; 9450.726
828.079; 5180.210;  -11.924; 9472.444
828.645; 5265.427;  -10.543; 9292.643
829.210; 5477.484;  -10.533; 9065.341
829.776; 5483.248;  -10.753; 9132.620
830.341; 5391.020;  -10.173; 9092.878
830.906; 5506.844;  -10.743; 9078.557
831.472; 5369.674;  -11.113; 8534.535
832.037; 4874.414;  -10.603; 8677.874
832.602; 4826.591;  -13.323; 8628.692
833.167; 5197.637;  -10.823; 8879.031
833.733; 5158.846;  -10.113; 9189.790
834.298; 4862.017;  -13.583; 9052.608
834.863; 4724.881;  -12.703; 8895.087
835.428; 4608.053;  -10.523; 8824.266
835.993; 4552.836;   -6.963; 8845.385
836.558; 4652.198;  -10.763; 8888.563
837.123; 4773.727;   -9.903; 8966.582
837.688; 4636.865;   -9.913; 8617.860
838.253; 4485.436;  -10.283; 8590.699
838.817; 4608.591;  -12.963; 8443.797
839.382; 4794.730;  -14.243; 8799.356
839.947; 4706.160;  -10.733; 8810.595
840.511; 4772.920;   -9.383; 8796.394
841.076; 4760.749;  -12.563; 8347.231
841.641; 4553.361;  -12.953; 8224.330
842.205; 4292.089;   -7.043; 8223.349
842.770; 4252.513;   -8.163; 8622.107
843.334; 4272.225;  -12.503; 8410.386
843.898; 4224.197;  -11.693; 8337.465
844.463; 4133.944;  -10.203; 8506.283
845.027; 4049.982;   -9.533; 8280.962
845.591; 4085.450;  -13.443; 8231.141
846.156; 3977.368;  -13.143; 7969.179
846.720; 3782.210;   -9.433; 7768.278
847.284; 3518.957;  -11.033; 7630.957
847.848; 3373.707;  -10.403; 7472.395
848.412; 3385.384;  -11.553; 7437.394
848.976; 3567.674;   -8.393; 7674.592
849.540; 3611.924;   -8.713; 7836.011
850.104; 3600.574;  -12.463; 7913.669
850.668; 3743.583;  -12.973; 7694.508
851.232; 3775.742;  -10.793; 7756.887
851.796; 3688.781;  -10.662; 7926.545
852.359; 3713.069;  -13.082; 7827.844
852.923; 3460.111;  -12.192; 7641.163
853.487; 3397.483;  -11.912; 7342.501
854.050; 3564.932;  -10.892; 7042.820
854.614; 3544.651;  -13.992; 7151.338
855.177; 3429.370;  -11.732; 7105.077
855.741; 3342.229;   -8.962; 6989.675
856.304; 3222.524;   -9.442; 6596.634
856.868; 2975.944;  -14.192; 6356.272
857.431; 2751.156;  -12.702; 6468.571
857.995; 2781.125;   -9.942; 6373.210
858.558; 2819.373;   -9.112; 6324.448
859.121; 2651.982;  -12.932; 6408.327
859.684; 2624.283;  -13.442; 6347.886
860.247; 3055.858;  -10.632; 6321.264
860.810; 3367.218;  -11.272; 6301.903
861.374; 3379.407;   -9.832; 6607.881
861.937; 3350.484;  -11.762; 6408.200
862.500; 3192.360;   -9.722; 6572.639
863.062; 2886.075;  -10.512; 6387.297
863.625; 2788.417;  -11.232; 6190.836
864.188; 2800.363;  -14.112; 5807.254
864.751; 2812.162;  -11.302; 5682.413
865.314; 2922.962;  -10.112; 5547.492
865.876; 2932.585;  -12.182; 5500.150
866.439; 2827.099;  -10.722; 5415.909
867.002; 2663.561;   -9.252; 5501.567
867.564; 2554.944;   -9.572; 5413.946
868.127; 2423.501;  -13.142; 5160.325
868.689; 2138.084;  -12.902; 5133.183
869.252; 2012.703;   -9.732; 5252.382
869.814; 2033.029;   -9.432; 5297.141
870.377; 2143.830;  -11.552; 5390.919
870.939; 2131.005;   -9.052; 5599.898
871.501; 2064.902;  -10.982; 5248.336
872.063; 2100.913;  -12.292; 4854.235
872.626; 2118.659;  -14.912; 4817.074
873.188; 2126.588;  -13.112; 4987.732
873.750; 2077.607;  -13.442; 4868.651
874.312; 2181.972;   -9.402; 4779.330
874.874; 2430.354;  -11.062; 4866.348
875.436; 2434.669;  -13.931; 4718.887
875.998; 2174.559;   -9.561; 4660.005
876.560; 1950.919;  -11.321; 4462.964
877.122; 1738.544;  -12.221; 4145.042
877.683; 1392.969;  -12.191; 4056.481
878.245; 1143.673;  -12.101; 3950.740
878.807; 1058.308;   -8.971; 4058.958
879.369; 1092.373;  -12.071; 3954.677
879.930; 1163.196;  -14.621; 3941.495
880.492; 1156.709;  -10.311; 4067.014
881.053; 1115.401;  -10.901; 3859.633
881.615; 1155.791;  -14.411; 3776.071
882.176; 1227.999;  -13.761; 3734.750
882.738; 1275.666;   -9.181; 3678.489
883.299; 1276.938;  -11.791; 3405.407
883.860; 1235.510;  -13.121; 3351.106
884.422; 1155.395;  -11.211; 3394.044
884.983; 1094.177;  -10.091; 3166.443
885.544; 1083.775;   -8.461; 3189.802
886.105; 1039.780;  -12.361; 3160.360
886.666;  973.688;  -14.141; 3093.059
887.227;  948.867;  -11.361; 2941.957
887.788;  966.388;  -11.401; 2974.836
888.349;  924.358;  -13.791; 2721.214
888.910;  835.696;  -13.191; 2696.493
889.471;  739.419;   -9.881; 2560.172
890.032;  673.175;   -9.881; 2558.190
890.593;  675.785;  -10.371; 2567.669
891.153;  675.034;  -13.301; 2460.307
891.714;  614.757;  -11.431; 2372.046
892.275;  571.780;  -11.291; 2309.505
892.835;  558.289;  -11.471; 2382.543
893.396;  550.009;  -11.541; 2295.502
893.956;  546.082;  -11.181; 2162.420
894.517;  537.024;  -11.741; 2125.439
895.077;  492.770;  -11.671; 2086.978
895.638;  444.433;  -11.311; 2126.316
896.198;  425.197;   -9.831; 1838.275
896.758;  425.158;   -8.421; 1892.813
897.319;  418.800;  -12.351; 1792.232
897.879;  400.373;  -13.511; 1762.751
898.439;  373.944;  -12.001; 1661.149
898.999;  355.550;  -10.180; 1781.468
899.559;  341.410;  -12.030; 1703.347
900.119;  331.569;  -15.710; 1537.525
900.679;  310.719;   -8.900; 1638.384
901.239;  284.041;   -8.340; 1527.902
901.799;  270.990;  -13.910; 1456.441
902.359;  262.855;  -13.460; 1357.140
902.919;  256.521;  -11.490; 1331.118
903.479;  254.048;  -12.110; 1317.257
904.038;  246.992;  -11.720; 1262.595
904.598;  231.141;  -13.610; 1152.034
905.158;  219.092;  -11.040; 1240.893
905.717;  214.330;  -10.900; 1233.691
906.277;  211.142;  -15.080; 1217.330
906.836;  208.406;  -13.380; 1222.408
907.396;  205.479;  -10.780; 1193.047
907.955;  198.369;   -8.500; 1182.526
908.515;  190.674;  -12.760; 1099.364
909.074;  187.108;  -11.900; 1092.863
909.633;  184.437;   -8.950; 1069.121
910.192;  182.521;   -8.770; 1196.460
910.752;  177.637;  -12.390; 1029.960
911.311;  173.365;  -13.680; 1009.780
911.870;  168.920;  -12.370;  971.460
912.429;  164.758;  -10.900; 1094.080
912.988;  163.328;  -11.690; 1081.060
913.547;  159.456;  -13.240;  940.380
914.106;  158.416;  -11.990;  999.420
914.665;  158.914;   -9.990;  984.020
915.224;  156.631;  -12.880; 1035.760
915.782;  153.821;  -12.350;  922.560
916.341;  151.056;   -9.110; 1049.840
916.900;  147.599;   -9.270;  925.260
917.458;  145.621;  -13.240;  884.220
918.017;  144.187;  -13.550;  942.600
918.576;  144.180;  -12.320;  904.440
919.134;  143.985;  -11.490;  837.980
919.693;  143.204;  -13.670;  893.060
920.251;  141.828;  -15.470;  876.500
920.809;  142.135;  -11.290;  839.580
921.368;  142.186;  -10.210;  885.360
921.926;  143.069;  -12.140;  842.940
922.484;  141.870;  -13.080;  903.360
923.042;  140.303;  -11.720;  880.340
923.601;  143.402;   -7.480;  998.680
924.159;  140.996;  -11.570;  935.560
924.717;  141.192;  -13.840;  841.080
925.275;  141.652;  -10.640;  903.240
925.833;  140.749;  -11.540;  779.320
926.391;  141.631;  -12.960;  938.380
926.949;  141.703;  -14.130;  857.680
927.506;  142.116;  -11.750;  903.500
928.064;  140.840;  -10.250;  877.580
928.622;  139.465;  -13.030;  880.100
929.180;  141.663;  -13.400;  814.180
929.737;  142.491;  -10.700;  808.540
930.295;  143.534;  -10.070;  928.480
930.853;  143.946;  -11.960;  849.100
931.410;  142.701;  -13.120;  821.120
931.968;  144.394;  -10.770;  940.660
932.525;  145.933;  -10.680;  909.380
933.082;  147.861;  -13.130;  811.440
933.640;  153.747;  -13.210;  925.900
934.197;  153.158;  -11.060;  886.360
934.754;  153.832;   -9.580;  897.780
935.312;  154.952;  -14.000;  863.340
935.869;  156.926;  -10.710; 1012.980
936.426;  156.617;   -9.860;  872.800
936.983;  154.812;   -9.710;  889.020
937.540;  152.881;  -13.990;  838.280
938.097;  153.094;  -14.040;  940.120
938.654;  156.320;  -10.310;  898.860
939.211;  156.220;  -10.560;  952.480
939.768;  155.812;  -13.900;  915.420
940.324;  156.434;  -14.760;  904.200
940.881;  160.673;  -10.370;  878.500
941.438;  166.990;   -8.260; 1021.200
941.995;  170.028;  -12.540;  992.560
942.551;  167.108;  -14.670;  875.620
943.108;  167.136;  -10.450;  937.920
943.664;  167.637;  -10.750;  869.340
944.221;  173.003;  -11.550; 1088.140
944.777;  174.918;  -14.770;  869.680
945.334;  173.229;  -12.820;  884.840
945.890;  171.942;  -10.130;  946.480
946.446;  169.730;  -13.470;  947.020
947.003;  169.466;  -12.120;  964.940
947.559;  167.752;   -9.980; 1063.040
948.115;  164.359;   -9.080; 1026.540
948.671;  162.506;  -10.830;  967.300
949.227;  160.281;  -12.440;  859.560
949.783;  159.960;  -12.910;  858.900
950.339;  162.260;  -10.270;  991.000
950.895;  163.397;  -13.630; 1023.840
951.451;  161.716;  -15.100;  925.280
952.007;  162.417;  -11.330;  998.540
952.563;  159.747;  -10.580;  937.780
953.118;  155.672;  -13.440;  904.940
953.674;  153.233;  -12.710;  935.780
954.230;  154.621;  -10.350;  949.640
954.785;  158.402;   -9.190;  936.640
955.341;  160.347;  -11.200;  998.160
955.897;  157.002;  -16.560;  834.660
956.452;  154.426;  -12.570;  953.840
957.008;  152.643;   -7.970; 1083.640
957.563;  151.889;  -11.940; 1009.540
958.118;  149.946;  -13.450;  877.700
958.674;  149.259;  -12.030;  946.780
959.229;  149.380;   -9.410; 1013.980
959.784;  147.407;  -12.000;  832.400
960.339;  145.016;  -14.780; 1001.280
960.894;  139.475;   -9.860;  963.760
961.449;  134.006;   -9.970;  859.960
962.004;  132.190;  -10.900; 1212.840
962.559;  126.557;  -13.150;  860.140
963.114;  123.861;  -13.740;  742.480
963.669;  125.541;   -9.820;  915.500
964.224;  124.786;  -13.890;  874.340
964.779;  124.457;  -12.600;  828.420
965.334;  125.773;  -10.950; 1017.860
965.888;  123.757;  -11.170;  875.360
966.443;  125.253;  -12.540;  972.380
966.998;  125.073;  -15.780;  819.460
967.552;  124.759;   -9.760;  908.380
968.107;  118.774;   -9.060;  868.300
968.661;  117.557;  -11.950;  922.440
969.216;  117.041;  -12.800;  856.280
969.770;  116.884;  -11.210;  917.200
970.324;  114.435;  -11.610;  923.140
970.879;  112.193;  -11.370;  947.180
971.433;  111.948;  -12.540;  952.720
971.987;  110.290;  -11.320;  895.340
972.541;  109.406;  -10.720;  917.100
973.095;  109.996;   -9.680; 1009.460
973.649;  109.204;  -11.440;  809.480
974.203;  108.705;  -11.210;  829.040
974.757;  109.093;  -10.240;  855.220
975.311;  109.256;  -13.720;  872.600
975.865;  109.438;  -13.770;  881.820
976.419;  108.304;  -11.690;  857.400
976.973;  107.761;   -9.510;  849.620
977.526;  108.167;  -12.620;  949.920
978.080;  104.194;  -12.010;  796.780
978.634;  103.255;  -10.170;  921.320
979.187;   99.839;   -9.020;  905.400
979.741;  100.023;   -9.820; 1018.380
980.294;   94.862;  -14.870;  789.160
980.848;   90.979;  -12.380;  717.220
981.401;   90.809;  -10.350;  816.540
981.955;   90.171;  -13.720;  844.300
982.508;   87.789;  -11.490;  746.340
983.061;   87.231;  -10.000;  915.260
983.615;   85.489;  -11.480;  798.800
984.168;   86.056;  -13.220;  770.080
984.721;   86.304;  -13.960;  880.760
985.274;   82.999;  -10.870;  867.500
985.827;   82.841;   -9.790;  834.220
986.380;   81.658;  -13.120;  721.340
986.933;   82.382;  -12.450;  864.800
987.486;   81.163;  -10.210;  861.920
988.039;   80.102;   -8.430;  863.100
988.591;   77.538;  -10.520;  893.260
989.144;   73.712;  -14.860;  737.260
989.697;   72.436;  -13.080;  758.740
990.250;   71.475;  -10.150;  858.100
990.802;   69.161;  -13.430;  755.860
991.355;   68.533;  -12.750;  974.880
991.907;   66.030;  -12.040;  864.320
992.460;   63.526;  -11.330;  753.760
993.012;   63.273;  -13.610;  749.540
993.565;   62.409;  -13.460;  711.360
994.117;   63.120;   -9.360;  950.780
994.669;   61.031;  -11.300;  701.320
995.221;   60.225;  -13.540;  791.920
995.774;   60.195;  -13.430;  787.580
996.326;   58.712;  -12.520;  740.220
996.878;   58.720;  -10.950;  838.420
997.430;   57.043;  -14.300;  699.860
997.982;   55.336;  -13.760;  750.140
998.534;   54.675;  -11.530;  739.060
999.086;   53.394;  -10.310;  738.220
999.638;   52.761;  -12.530;  661.380
1000.190;   51.917;  -11.840;  699.320
1000.741;   51.009;  -10.260;  742.700
1001.293;   51.070;   -8.860;  686.020
1001.845;   50.319;  -13.700;  676.640
1002.396;   51.176;  -12.100;  743.400
1002.948;   49.338;  -12.760;  737.400
1003.500;   47.720;  -10.380;  723.780
1004.051;   49.504;  -11.900;  907.580
1004.603;   47.918;  -12.250;  791.820
1005.154;   43.501;  -13.210;  608.980
1005.705;   43.404;  -10.950;  723.960
1006.257;   43.717;  -13.880;  707.220
1006.808;   43.079;  -12.840;  685.460
1007.359;   42.099;  -10.570;  763.240
1007.910;   40.418;   -9.620;  646.640
1008.461;   41.166;  -13.630;  732.940
1009.013;   40.180;  -17.200;  588.340
1009.564;   40.975;  -10.200;  793.520
1010.115;   38.377;  -12.570;  597.040
1010.665;   38.734;  -15.150;  602.160
1011.216;   38.894;  -14.480;  667.920
1011.767;   37.600;  -11.340;  697.920
1012.318;   37.793;   -9.780;  736.980
1012.869;   36.936;  -12.380;  679.000
1013.419;   36.934;  -15.560;  603.120
1013.970;   36.823;  -11.010;  666.640
1014.521;   36.270;  -11.610;  620.620
1015.071;   36.739;  -13.450;  670.380
1015.622;   35.776;  -13.870;  635.460
1016.172;   35.389;  -11.610;  596.820
1016.723;   34.811;  -12.120;  614.380
1017.273;   35.374;  -13.620;  604.160
1017.823;   34.905;  -14.140;  650.340
1018.374;   34.722;  -12.800;  611.760
1018.924;   34.227;  -12.340;  716.880
1019.474;   35.544;  -11.410;  718.880
1020.024;   33.696;  -14.770;  657.580
1020.574;   34.150;   -9.780;  726.160
1021.124;   33.714;   -8.560;  673.580
1021.674;   32.258;  -15.190;  559.120
1022.224;   33.998;  -13.530;  708.940
1022.774;   32.691;  -13.280;  668.820
1023.324;   33.212;  -10.690;  753.520
1023.874;   34.760;  -10.240;  875.760
1024.423;   31.900;  -12.540;  613.700
1024.973;   31.749;  -10.010;  610.760
1025.523;   30.459;  -10.550;  620.960
1026.072;   31.207;  -13.560;  606.420
1026.622;   30.709;  -15.120;  675.740
1027.172;   31.274;  -11.260;  715.660
1027.721;   30.610;  -11.410;  601.220
1028.270;   30.108;  -13.530;  663.400
1028.820;   31.447;  -13.680;  638.080
1029.369;   30.109;  -13.520;  612.700
1029.918;   29.953;  -10.980;  649.840
1030.468;   29.660;  -13.530;  564.780
1031.017;   30.214;  -13.170;  634.800
1031.566;   29.370;  -12.200;  608.900
1032.115;   29.713;   -9.960;  694.500
1032.664;   28.454;  -13.210;  596.480
1033.213;   29.561;  -12.500;  735.420
1033.762;   28.277;  -11.910;  635.620
1034.311;   27.995;   -9.640;  677.220
1034.860;   29.098;  -13.310;  691.000
1035.408;   28.953;  -11.830;  722.720
1035.957;   29.031;  -12.000;  719.540
1036.506;   26.726;  -11.690;  530.800
1037.055;   29.596;  -10.990;  844.320
1037.603;   27.914;  -15.120;  664.000
1038.152;   25.374;  -12.450;  534.760
1038.700;   26.647;  -10.560;  585.740
1039.249;   26.516;  -11.080;  681.220
1039.797;   27.428;  -12.540;  633.360
1040.345;   25.826;  -11.920;  705.420
1040.894;   25.640;  -11.410;  625.300
1041.442;   25.748;  -14.320;  632.200
1041.990;   25.552;  -16.240;  559.160
1042.538;   23.882;  -11.680;  536.180
1043.087;   25.040;  -10.760;  570.860
1043.635;   25.656;  -11.850;  670.500
1044.183;   24.970;  -15.480;  586.400
1044.731;   24.357;  -11.770;  576.000
1045.279;   23.570;  -13.090;  674.920
1045.827;   26.813;  -12.440;  892.400
1046.374;   24.342;  -13.840;  515.420
1046.922;   22.986;  -13.220;  590.580
1047.470;   24.867;  -10.230;  691.300
1048.018;   24.033;  -14.590;  647.960
1048.565;   24.893;  -12.050;  708.600
1049.113;   22.696;  -11.650;  557.000
1049.660;   23.624;  -10.510;  629.660
1050.208;   23.803;  -13.310;  675.640
1050.755;   22.786;  -15.900;  606.580
1051.303;   23.807;  -11.430;  686.820
1051.850;   22.511;   -8.480;  635.120
1052.397;   20.908;  -15.010;  473.960
1052.945;   22.003;  -13.960;  617.760
1053.492;   22.645;  -13.150;  741.840
1054.039;   23.089;   -9.630;  720.180
1054.586;   21.853;  -13.680;  557.240
1055.133;   22.943;  -14.570;  693.140
1055.680;   22.547;  -13.820;  646.620
1056.227;   21.315;  -11.730;  542.780
1056.774;   22.810;  -12.480;  794.980
1057.321;   20.881;  -13.930;  523.260
1057.868;   21.208;  -11.690;  651.320
1058.415;   20.608;   -9.520;  651.980
1058.961;   20.709;  -13.160;  678.940
1059.508;   21.425;  -12.920;  643.820
1060.055;   20.470;  -11.920;  581.780
1060.601;   21.644;  -11.500;  624.300
1061.148;   19.898;  -14.330;  616.820
1061.694;   20.780;  -16.870;  592.580
1062.241;   20.205;  -10.330;  596.320
1062.787;   20.087;  -10.620;  663.140
1063.334;   21.912;  -10.110;  808.560
1063.880;   20.777;  -13.400;  668.360
1064.426;   20.443;  -10.680;  706.820
1064.972;   18.695;   -9.920;  601.340
1065.518;   18.151;  -10.980;  566.640
1066.065;   19.650;  -14.890;  624.460
1066.611;   17.889;  -12.870;  598.800
1067.157;   18.563;  -12.950;  641.860
1067.703;   18.991;  -13.540;  668.480
1068.249;   19.611;  -13.540;  605.220
1068.794;   18.560;  -12.600;  626.880
1069.340;   17.563;  -10.620;  578.960
1069.886;   18.518;  -12.830;  590.700
1070.432;   17.407;  -14.870;  541.720
1070.977;   16.505;  -11.980;  601.080
1071.523;   18.038;   -8.200;  573.060
1072.068;   17.869;  -12.330;  582.000
1072.614;   17.418;  -16.370;  527.760
1073.160;   17.686;  -11.100;  687.040
1073.705;   16.427;  -10.480;  572.520
1074.250;   17.138;  -14.520;  559.900
1074.796;   17.850;  -11.460;  655.160
1075.341;   17.861;  -11.950;  664.100
1075.886;   17.011;  -11.460;  594.240
1076.431;   17.135;  -13.770;  649.880
1076.976;   16.704;  -12.680;  639.220
1077.521;   15.707;  -13.170;  583.080
1078.067;   15.272;  -10.860;  579.400
1078.612;   16.527;  -13.920;  661.620
1079.156;   16.047;  -13.880;  601.540
1079.701;   16.068;  -13.120;  693.260
1080.246;   16.505;   -9.940;  696.300
1080.791;   16.420;  -14.740;  625.020
1081.336;   16.725;  -13.750;  659.320
1081.880;   15.944;  -13.400;  649.680
1082.425;   14.498;  -12.220;  573.480
1082.970;   16.819;  -11.610;  717.040
1083.514;   15.445;  -13.580;  597.000
1084.059;   14.603;  -12.810;  586.720
1084.603;   14.072;  -12.320;  565.840
1085.147;   14.521;  -13.190;  645.220
1085.692;   16.177;  -12.480;  716.800
1086.236;   13.137;  -13.020;  503.140
1086.780;   15.591;   -9.190;  751.440
1087.325;   14.475;  -12.480;  654.620
1087.869;   15.088;  -12.450;  610.700
1088.413;   15.060;  -12.240;  705.040
1088.957;   12.266;   -9.020;  543.400
1089.501;   15.189;  -10.320;  766.640
1090.045;   14.570;  -12.720;  726.480
1090.589;   12.288;  -13.690;  569.920
1091.133;   13.777;  -10.020;  673.340
1091.676;   13.515;  -12.330;  591.940
1092.220;   13.735;  -14.970;  600.920
1092.764;   14.496;  -12.430;  706.960
1093.307;   13.404;   -9.800;  673.780
1093.851;   11.634;  -14.970;  556.540
1094.395;   13.585;  -15.310;  683.140
1094.938;   12.759;  -10.370;  632.520
1095.482;   12.682;  -11.050;  559.800
1096.025;   14.076;  -11.840;  710.880
1096.568;   14.166;  -12.840;  779.280
1097.112;   10.329;  -14.700;  508.180
1097.655;   12.465;   -8.720;  603.000
1098.198;   11.140;  -13.610;  600.180
1098.741;   11.521;  -13.350;  612.860
1099.285;   11.985;  -11.230;  657.300
1099.828;   10.116;  -11.840;  439.400
1100.371;   11.572;  -10.840;  608.160
1100.914;   11.176;  -14.190;  682.660
1101.457;   11.576;  -11.240;  679.900
1101.999;   10.779;  -11.270;  584.680
1102.542;   10.619;  -11.480;  641.440
1103.085;   11.279;  -11.750;  658.500
1103.628;   11.208;  -11.400;  762.060
1104.170;    9.870;  -10.490;  588.280
1104.713;   10.762;  -10.600;  646.700
1105.256;   10.744;  -14.360;  557.440
1105.798;    9.454;  -13.210;  499.980
1106.341;   11.162;  -10.270;  728.900
1106.883;    9.934;  -12.200;  521.340
1107.425;   10.961;  -13.110;  668.180
1107.968;    9.602;  -12.840;  612.380
1108.510;   10.662;   -6.480;  684.960
1109.052;    8.800;  -13.940;  612.620
1109.594;    9.762;  -13.690;  554.440
1110.136;    9.513;  -11.880;  643.220
1110.679;    8.537;   -9.500;  633.080
1111.221;    9.637;  -14.160;  604.460
1111.763;    9.013;  -13.980;  559.220
1112.304;    8.484;  -13.880;  547.140
1112.846;    9.322;  -12.210;  666.240
1113.388;   11.815;  -11.390;  942.180
1113.930;    9.552;  -14.540;  694.200
1114.472;    7.780;  -12.640;  606.540
1115.013;    6.744;  -11.620;  551.280
1115.555;    7.634;  -13.640;  587.100
1116.097;    7.398;  -15.380;  579.480
1116.638;    8.608;  -12.640;  684.600
1117.180;    8.953;   -9.850;  667.740
1117.721;    8.021;  -13.690;  568.580
1118.262;    8.861;  -12.680;  677.960
1118.804;    8.035;  -12.530;  637.340
1119.345;    7.236;  -11.690;  578.400
1119.886;    8.671;  -13.380;  704.040
1120.427;    6.927;  -14.070;  589.020
1120.969;    6.622;  -13.500;  597.920
1121.510;    6.933;  -11.480;  563.060
1122.051;    8.182;  -12.830;  723.580
1122.592;    7.100;  -14.290;  655.420
1123.133;    5.428;  -12.400;  547.940
1123.673;    7.525;  -10.130;  706.480
1124.214;    6.408;  -12.930;  612.460
1124.755;    7.934;  -14.380;  639.460
1125.296;    6.389;  -14.000;  627.320
1125.836;    7.021;  -10.070;  691.500
1126.377;    6.291;  -12.640;  599.660
1126.918;    7.120;  -12.960;  614.980
1127.458;    6.085;  -13.350;  622.220
1127.999;    6.509;  -10.750;  656.980
1128.539;    7.077;  -12.350;  694.240
1129.079;    5.684;  -14.860;  632.720
1129.620;    5.402;  -13.840;  558.100
1130.160;    4.862;  -12.330;  539.480
1130.700;    6.055;  -14.530;  640.840
1131.240;    6.490;  -12.530;  643.700
1131.781;    5.525;  -14.450;  619.680
1132.321;    4.801;   -9.790;  599.120
1132.861;    4.537;  -14.860;  564.200
1133.401;    4.879;  -14.290;  593.940
1133.941;    5.358;  -11.750;  626.280
1134.481;    4.015;   -9.920;  597.580
1135.020;    3.962;  -12.290;  609.160
1135.560;    4.914;  -11.650;  674.940
1136.100;    3.901;  -16.270;  501.160
1136.640;    3.421;  -10.890;  510.480
1137.179;    4.497;  -14.180;  537.960
1137.719;    4.628;  -16.250;  605.400
1138.258;    3.812;  -14.230;  587.360
1138.798;    5.070;   -9.090;  663.780
1139.337;    3.169;  -15.130;  482.840
1139.877;    4.533;  -13.680;  642.360
1140.416;    5.816;  -11.320;  878.060
1140.955;    3.536;  -10.860;  535.380
1141.494;    3.914;  -12.920;  669.280
1142.034;    3.258;  -13.930;  583.520
1142.573;    3.770;  -11.440;  646.280
1143.112;    2.551;  -12.000;  553.480
1143.651;    3.404;  -13.670;  536.480
1144.190;    5.457;  -12.730;  691.640
1144.729;    3.430;  -14.560;  607.420
1145.267;    3.391;  -11.830;  584.900
1145.806;    4.614;  -12.230;  637.040
1146.345;    2.735;  -14.130;  635.020
1146.884;    3.222;  -11.590;  622.500
1147.422;    1.953;  -12.550;  533.060
1147.961;    3.983;  -11.180;  708.460
1148.500;    4.090;  -11.510;  669.720
1149.038;    3.548;  -11.640;  632.500
1149.577;    2.720;  -10.130;  698.640
1150.115;    1.880;  -13.970;  452.280
1150.653;    2.840;  -14.520;  607.340
1151.192;    2.330;  -12.810;  552.920
1151.730;    1.936;   -9.100;  652.560
1152.268;    2.459;  -12.220;  589.520
1152.806;    1.990;  -14.140;  571.180
1153.344;    0.814;  -12.350;  577.640
1153.882;    2.363;   -8.980;  600.060
1154.421;    0.761;  -15.190;  470.620
1154.958;    1.616;  -15.210;  595.240
1155.496;    2.447;  -12.850;  645.280
1156.034;    2.086;   -9.940;  721.880
1156.572;    2.648;  -13.570;  667.060
1157.110;    1.456;  -14.590;  473.940
1157.647;    2.202;  -13.030;  676.960
1158.185;    1.148;  -12.140;  564.320
1158.723;    0.002;  -14.390;  509.200
1159.260;    1.702;  -14.090;  701.700
1159.798;    1.979;  -11.920;  658.160
1160.335;    0.527;  -11.110;  631.820

