
Integration time [ms]:   3.276
Averaging Nr. [scans]: 1000
Smoothing Nr. [pixels]: 0
Data measured with spectrometer [name]: 7414430SP
Wave   ;Sample   ;Dark     ;Reference
[nm]   ;[counts] ;[counts] ;[counts] 

288.544;  158.128;    7.793;  793.890
289.143;  161.010;    7.462;  681.602
289.742;  161.998;    8.602;  828.814
290.341;  149.560;    1.321;  789.841
290.940;  139.164;   -0.709;  730.702
291.538;  140.765;    0.881;  881.108
292.137;  140.889;    0.122;  792.581
292.736;  143.173;   -1.929;  975.101
293.335;  138.985;   -8.229;  735.086
293.934;  140.763;   -5.279;  781.677
294.532;  140.886;   -1.369; 1031.958
295.131;  127.123;   -7.641;  834.394
295.730;  126.294;   -8.420;  809.588
296.328;  124.165;   -5.611;  783.442
296.927;  123.459;   -5.781;  779.652
297.525;  124.344;   -6.361;  781.236
298.124;  116.605;  -11.382;  654.009
298.722;  120.610;   -7.641;  761.933
299.321;  117.109;   -6.811;  708.597
299.919;  114.365;   -6.991;  751.918
300.518;  110.403;  -10.362;  689.338
301.116;  113.423;   -9.581;  691.381
301.715;  114.215;   -4.891;  730.222
302.313;  112.062;   -8.801;  704.943
302.911;  107.334;   -8.522;  733.830
303.509;  112.299;   -6.171;  925.627
304.108;  110.025;   -7.311;  760.383
304.706;  110.340;   -8.321;  801.664
305.304;  104.217;  -10.222;  796.707
305.902;  108.663;   -6.021;  784.484
306.500;  104.130;   -4.971;  728.200
307.098;  103.870;   -7.061;  746.560
307.696;  102.155;   -8.801;  780.432
308.294;  101.834;   -6.411;  731.359
308.892;  103.953;   -2.901;  759.769
309.490;   99.962;   -5.041;  712.161
310.088;   97.466;   -5.002;  788.444
310.686;  102.044;   -2.041;  821.749
311.284;   98.403;   -2.351;  766.040
311.882;   95.321;   -4.422;  731.225
312.480;   92.564;   -4.192;  697.167
313.078;   93.329;   -1.172;  808.331
313.675;   94.413;   -2.601;  691.600
314.273;   88.590;   -1.312;  797.837
314.871;   87.633;   -3.942;  589.829
315.468;   86.545;   -2.802;  652.090
316.066;   89.999;   -0.701;  694.427
316.664;   82.331;   -4.362;  656.351
317.261;   86.671;   -2.872;  910.128
317.859;   82.138;   -2.022;  768.735
318.456;   82.484;   -0.531;  830.096
319.054;   78.848;   -3.912;  787.828
319.651;   76.894;   -4.752;  759.928
320.249;   76.170;   -2.602;  810.188
320.846;   73.227;   -0.821;  714.286
321.443;   71.094;   -4.642;  832.135
322.041;   68.806;   -5.002;  812.315
322.638;   65.314;   -3.982;  701.456
323.235;   67.126;   -3.411;  665.683
323.833;   64.087;   -7.361;  740.354
324.430;   58.996;   -8.611;  615.900
325.027;   60.384;   -4.061;  876.855
325.624;   60.908;   -4.031;  644.532
326.221;   56.706;   -7.481;  689.717
326.818;   56.200;   -5.281;  818.332
327.415;   59.173;   -7.460;  748.828
328.012;   58.934;   -5.510;  690.585
328.609;   56.848;   -7.880;  731.389
329.206;   55.326;   -8.331;  778.621
329.803;   56.294;   -5.121;  737.841
330.400;   58.001;   -4.510;  704.260
330.997;   59.387;   -6.441;  817.147
331.594;   57.018;   -8.831;  788.185
332.191;   62.507;   -7.621;  728.722
332.787;   67.277;   -4.591;  844.463
333.384;   65.992;   -7.412;  763.093
333.981;   65.673;   -8.293;  815.687
334.578;   68.248;   -7.052;  708.378
335.174;   70.428;   -3.102;  731.469
335.771;   69.113;   -5.943;  836.456
336.367;   65.854;   -7.393;  710.631
336.964;   71.334;   -4.063;  793.266
337.561;   69.128;   -3.813;  731.112
338.157;   64.961;   -4.654;  911.916
338.754;   63.290;   -7.934;  796.589
339.350;   60.934;   -4.414;  722.493
339.946;   63.486;   -4.664;  773.135
340.543;   55.758;   -6.375;  846.136
341.139;   49.243;   -9.815;  720.836
341.735;   45.982;   -4.526;  772.593
342.332;   45.916;   -4.895;  691.472
342.928;   45.495;   -4.295;  795.394
343.524;   39.190;   -5.476;  761.684
344.120;   36.111;   -5.856;  738.562
344.716;   38.782;   -2.155;  723.717
345.313;   36.380;   -6.275;  795.342
345.909;   30.487;   -8.815;  627.336
346.505;   31.786;   -5.305;  740.247
347.101;   32.306;   -2.674;  827.864
347.697;   32.593;   -4.344;  785.398
348.293;   28.053;   -9.975;  627.244
348.889;   29.016;   -5.774;  745.914
349.485;   28.662;   -5.004;  688.205
350.081;   29.327;   -4.704;  772.592
350.676;   23.622;   -6.635;  691.606
351.272;   28.337;   -4.504;  809.530
351.868;   27.734;   -3.914;  780.497
352.464;   24.820;   -9.044;  723.932
353.059;   21.134;   -8.314;  646.017
353.655;   24.502;   -7.024;  777.063
354.251;   25.748;   -5.343;  759.845
354.846;   20.424;   -8.604;  740.646
355.442;   18.262;   -6.945;  753.071
356.038;   19.802;   -7.564;  751.708
356.633;   19.964;   -5.814;  728.594
357.229;   18.062;   -7.364;  724.757
357.824;   15.792;   -8.024;  703.600
358.420;   14.842;   -9.384;  679.726
359.015;   15.741;   -5.104;  695.357
359.610;   15.943;   -6.854;  763.920
360.206;   10.167;  -10.185;  603.240
360.801;   13.023;   -7.054;  646.503
361.396;   15.900;   -5.034;  725.975
361.992;   10.802;   -8.284;  668.220
362.587;    7.490;   -8.625;  670.160
363.182;   10.067;   -7.674;  689.631
363.777;   10.910;   -5.164;  738.242
364.372;   10.122;   -8.604;  737.314
364.967;    6.977;   -9.055;  680.744
365.563;   10.074;   -6.114;  815.567
366.158;    8.450;   -5.814;  685.161
366.753;    8.213;   -7.854;  649.263
367.348;    6.724;   -7.804;  746.056
367.942;    5.977;   -7.954;  697.298
368.537;    6.040;   -4.984;  754.245
369.132;    5.818;   -8.564;  703.428
369.727;    1.486;   -8.855;  638.079
370.322;    3.186;   -6.245;  580.186
370.917;    3.214;   -6.425;  710.646
371.511;    5.385;   -6.294;  861.834
372.106;    1.743;   -7.685;  776.964
372.701;   -1.421;   -7.335;  585.988
373.296;    4.250;   -4.564;  863.135
373.890;    0.103;  -10.235;  647.840
374.485;   -2.246;   -7.885;  691.199
375.079;    1.281;   -7.324;  738.685
375.674;    2.943;   -3.494;  812.970
376.268;   -1.103;   -8.525;  691.759
376.863;   -7.301;  -10.086;  580.327
377.457;   -0.656;   -7.025;  662.490
378.052;   -2.441;   -3.585;  764.884
378.646;   -4.048;   -7.595;  741.167
379.240;   -4.738;   -8.335;  721.176
379.835;   -2.783;   -5.785;  636.978
380.429;   -5.313;   -4.335;  562.557
381.023;   -4.987;   -6.805;  779.205
381.617;   -7.195;   -9.195;  680.106
382.212;   -4.137;   -6.905;  685.303
382.806;   -3.107;   -3.745;  760.690
383.400;   -7.608;   -7.745;  672.281
383.994;   -8.604;   -9.765;  664.870
384.588;   -4.900;   -6.564;  697.701
385.182;   -3.183;   -5.344;  726.624
385.776;   -5.359;   -8.514;  706.875
386.370;   -9.087;   -9.555;  681.968
386.964;   -7.296;   -8.715;  684.155
387.558;   -5.458;   -6.174;  598.360
388.152;  -10.047;   -8.725;  681.959
388.745;   -7.267;   -7.965;  814.707
389.339;   -5.881;   -5.924;  747.642
389.933;   -4.974;   -5.524;  695.370
390.527;   -5.994;   -7.114;  859.029
391.120;  -12.437;  -10.725;  595.318
391.714;   -8.854;   -8.035;  711.633
392.308;   -6.316;   -3.574;  780.253
392.901;   -9.876;   -7.245;  642.460
393.495;  -11.120;   -9.285;  595.414
394.089;   -8.904;   -5.895;  760.452
394.682;   -9.329;   -4.295;  697.188
395.275;  -10.608;   -9.875;  719.927
395.869;  -11.562;   -8.485;  667.314
396.462;  -10.550;   -7.455;  616.609
397.056;   -5.767;   -5.424;  776.621
397.649;  -10.958;   -6.605;  731.575
398.242;   -7.751;   -8.224;  712.645
398.836;   -7.677;   -7.474;  766.408
399.429;   -8.533;   -7.094;  631.041
400.022;  -12.475;   -9.475;  665.902
400.615;   -9.799;   -7.145;  805.609
401.208;   -7.555;   -7.174;  691.451
401.802;   -9.927;   -5.515;  699.329
402.395;  -11.066;   -9.875;  683.502
402.988;  -12.210;   -8.845;  696.627
403.581;   -8.271;   -8.874;  646.878
404.174;   -6.545;   -5.324;  686.568
404.767;   -9.799;   -9.575;  638.583
405.360;  -12.109;  -10.965;  621.445
405.953;   -6.242;   -8.764;  759.034
406.545;   -5.717;   -7.514;  725.342
407.138;   -9.788;  -10.025;  618.350
407.731;   -9.122;  -10.034;  613.303
408.324;   -5.149;   -9.374;  660.554
408.917;   -4.879;   -6.534;  681.864
409.509;   -7.688;   -8.004;  740.396
410.102;   -9.998;   -9.875;  643.948
410.695;   -3.560;   -8.604;  665.758
411.287;   -4.303;   -6.794;  599.821
411.880;   -6.559;   -9.334;  585.421
412.472;   -8.412;  -10.254;  613.092
413.065;   -6.030;   -6.714;  629.408
413.657;   -3.607;   -7.234;  576.678
414.250;   -3.831;  -10.544;  646.681
414.842;   -6.077;   -9.744;  676.353
415.434;   -3.434;   -6.994;  570.463
416.027;    0.522;   -5.893;  652.196
416.619;   -1.407;   -7.264;  713.400
417.211;   -1.971;  -10.374;  599.352
417.804;    2.057;   -7.993;  628.499
418.396;   -1.785;   -7.234;  607.643
418.988;    0.173;   -9.443;  659.238
419.580;   -3.464;  -10.724;  568.276
420.172;   -0.489;  -10.323;  536.196
420.764;    3.299;   -8.793;  672.482
421.356;    2.351;  -11.143;  636.898
421.948;    0.695;   -8.293;  677.661
422.540;    6.286;   -7.893;  680.027
423.132;    5.895;   -7.082;  600.641
423.724;    2.134;   -8.653;  561.267
424.316;    4.509;  -10.213;  621.345
424.908;    7.652;   -9.762;  591.517
425.500;    8.665;   -5.572;  647.978
426.092;    9.062;   -8.422;  648.268
426.683;    7.581;   -9.283;  684.836
427.275;   10.767;   -7.852;  641.471
427.867;   11.884;   -5.272;  668.948
428.458;   13.316;   -7.682;  732.344
429.050;   11.389;  -10.612;  680.749
429.642;   13.373;   -9.882;  743.124
430.233;   14.586;   -6.962;  569.356
430.825;   15.040;   -6.842;  724.809
431.416;   13.105;   -9.672;  698.241
432.008;   16.926;   -6.552;  651.723
432.599;   17.754;   -6.891;  656.073
433.190;   13.894;  -10.912;  637.670
433.782;   13.452;  -11.172;  590.395
434.373;   21.485;   -6.061;  884.765
434.964;   20.027;   -8.251;  602.920
435.556;   17.138;   -9.722;  634.537
436.147;   19.915;   -9.082;  758.490
436.738;   19.924;   -8.041;  701.099
437.329;   25.655;   -7.341;  721.723
437.920;   19.474;   -8.162;  666.688
438.511;   18.797;  -11.802;  564.526
439.103;   25.608;  -10.191;  623.998
439.694;   26.993;   -7.601;  681.583
440.285;   27.844;   -8.541;  764.432
440.876;   26.442;   -9.751;  845.738
441.466;   25.133;   -9.401;  575.162
442.057;   31.417;   -7.760;  665.814
442.648;   29.819;   -9.971;  746.255
443.239;   28.088;  -11.001;  620.477
443.830;   33.435;   -7.990;  704.958
444.421;   35.132;   -7.910;  655.474
445.011;   31.196;   -8.131;  693.619
445.602;   30.768;   -7.111;  743.126
446.193;   33.436;  -10.920;  488.117
446.783;   37.366;   -6.500;  640.397
447.374;   32.049;   -8.671;  692.759
447.964;   33.436;  -10.781;  713.770
448.555;   42.093;   -9.650;  822.742
449.145;   38.385;   -8.660;  662.853
449.736;   39.627;   -8.990;  803.179
450.326;   39.322;   -9.500;  713.626
450.917;   44.379;   -8.680;  675.324
451.507;   44.656;   -7.520;  600.661
452.097;   44.429;   -8.590;  746.267
452.688;   45.472;  -11.340;  742.160
453.278;   45.675;  -10.100;  566.840
453.868;   49.324;   -6.019;  793.550
454.458;   47.918;   -9.440;  651.141
455.048;   48.830;  -10.560;  711.783
455.639;   49.591;  -11.799;  567.096
456.229;   54.235;   -6.899;  710.694
456.819;   55.008;   -7.389;  751.158
457.409;   55.308;  -11.119;  773.993
457.999;   59.294;   -9.289;  737.505
458.589;   58.893;   -6.139;  686.606
459.179;   57.962;   -8.729;  717.658
459.769;   56.844;   -9.789;  627.099
460.358;   62.036;  -10.259;  797.262
460.948;   61.421;   -7.299;  689.503
461.538;   63.450;  -10.289;  660.677
462.128;   60.577;  -11.269;  664.934
462.717;   68.263;   -9.368;  710.326
463.307;   71.176;   -7.908;  705.846
463.897;   66.948;   -9.599;  656.942
464.486;   66.149;   -9.769;  837.128
465.076;   70.884;   -8.048;  733.776
465.666;   74.182;   -9.358;  652.900
466.255;   72.324;   -7.919;  785.651
466.845;   70.966;  -11.689;  666.749
467.434;   73.914;   -7.818;  725.873
468.023;   76.103;   -7.678;  658.357
468.613;   73.614;  -10.939;  713.946
469.202;   76.602;  -10.118;  646.507
469.791;   81.776;   -9.108;  737.811
470.381;   84.084;   -6.058;  742.813
470.970;   83.153;  -10.428;  711.099
471.559;   83.414;  -10.268;  733.291
472.148;   86.599;   -8.448;  675.737
472.738;   89.382;   -6.917;  765.466
473.327;   89.817;  -11.978;  637.529
473.916;   88.466;  -11.888;  737.446
474.505;   92.463;   -9.437;  751.703
475.094;   96.019;   -6.747;  806.570
475.683;   95.286;   -9.367;  797.699
476.272;   96.560;  -12.637;  730.632
476.861;   99.360;  -10.027;  706.754
477.449;  106.101;   -8.716;  728.487
478.038;   99.943;   -9.577;  692.513
478.627;  101.918;   -9.718;  714.852
479.216;  108.185;   -8.947;  769.441
479.805;  111.981;   -6.256;  783.375
480.393;  111.454;   -7.937; 1008.945
480.982;  110.313;   -7.717;  874.501
481.571;  117.675;   -9.266;  858.333
482.159;  118.076;   -7.636;  705.386
482.748;  117.996;   -9.667;  821.385
483.336;  122.257;  -10.376;  858.209
483.925;  123.402;   -7.147;  774.373
484.513;  130.509;   -7.996;  758.962
485.102;  127.539;  -10.027;  810.965
485.690;  136.559;  -10.446; 1011.050
486.278;  138.701;   -8.446;  979.329
486.867;  140.255;   -6.356;  809.662
487.455;  142.284;   -9.136;  898.229
488.043;  142.742;  -10.646;  748.361
488.631;  153.249;   -7.456; 1005.079
489.220;  157.033;   -6.636;  908.626
489.808;  157.883;  -11.036;  741.415
490.396;  167.523;  -10.246;  914.645
490.984;  175.073;   -8.556;  830.161
491.572;  187.385;   -5.886;  940.315
492.160;  196.663;   -9.486;  919.081
492.748;  211.353;  -10.976;  884.341
493.336;  236.097;   -8.776; 1019.693
493.924;  269.020;   -5.465;  958.077
494.512;  308.094;   -9.986; 1066.638
495.100;  363.431;  -10.636; 1103.280
495.687;  432.098;  -10.885; 1206.373
496.275;  493.793;   -8.126; 1150.796
496.863;  570.135;  -10.586; 1281.171
497.451;  699.723;  -11.926; 1386.805
498.038;  823.216;  -10.885; 1556.729
498.626;  928.278;   -6.315; 1741.407
499.214; 1094.423;   -7.326; 2016.609
499.801; 1342.821;  -11.906; 2220.633
500.389; 1628.310;  -10.466; 2312.494
500.976; 1901.613;   -5.236; 2744.849
501.564; 2366.230;   -8.936; 3148.565
502.151; 2866.176;  -13.176; 3515.999
502.738; 3460.284;  -10.646; 3971.274
503.326; 3886.443;   -9.525; 4403.796
503.913; 4223.875;  -10.856; 5161.749
504.500; 4788.725;  -11.586; 5986.420
505.088; 5095.010;  -10.336; 6381.201
505.675; 5594.812;   -6.355; 6925.547
506.262; 6098.284;   -9.046; 7619.060
506.849; 6678.999;  -10.416; 8733.969
507.436; 7278.820;  -10.305; 9790.121
508.023; 7795.834;   -5.496; 9985.472
508.610; 8668.814;   -7.856;10434.618
509.197;10056.616;  -10.097;11198.435
509.784;11665.162;  -10.886;12391.194
510.371;13132.767;   -9.315;13603.713
510.958;14078.483;   -9.936;14426.586
511.545;14841.383;   -9.326;15243.775
512.132;15418.692;  -10.075;15945.876
512.719;15596.716;   -7.796;16340.369
513.305;16592.131;  -10.606;18011.766
513.892;18004.852;  -11.486;19754.971
514.479;19842.240;   -9.126;20967.805
515.066;21533.809;   -6.026;22299.793
515.652;21743.559;   -8.466;22908.660
516.239;22879.811;  -10.886;23798.875
516.825;25423.779;  -11.496;25567.275
517.412;27801.273;   -5.796;28154.959
517.998;29890.162;  -10.506;28344.111
518.585;29369.873;  -10.076;27134.219
519.171;27920.734;   -8.315;27268.576
519.758;29052.531;   -8.596;28964.129
520.344;30400.500;   -8.466;30664.494
520.930;33039.035;  -11.006;32550.605
521.516;33451.016;  -10.495;35422.895
522.103;31816.307;   -5.526;38280.004
522.689;32439.146;   -8.746;37835.117
523.275;34099.270;  -11.376;37288.613
523.861;36305.965;  -11.156;37281.395
524.447;39984.258;   -8.135;37846.949
525.033;40939.680;   -7.896;38321.949
525.619;40532.996;  -12.476;38579.285
526.205;40698.617;   -9.516;40622.875
526.791;40424.828;   -6.926;42258.836
527.377;41443.676;   -8.346;42966.902
527.963;42834.543;   -8.717;42018.949
528.549;41720.305;  -11.016;42476.828
529.135;42169.871;   -8.536;41854.852
529.721;41992.383;   -9.666;41237.711
530.306;40289.277;  -10.066;41259.445
530.892;40190.133;  -11.356;41506.047
531.478;39600.344;   -6.596;43559.613
532.063;40143.617;   -8.836;47695.563
532.649;43763.621;  -10.047;50808.324
533.235;45003.703;   -9.746;51787.500
533.820;44299.781;   -6.566;52145.035
534.406;43406.555;  -10.817;51133.488
534.991;46351.309;   -9.416;49996.805
535.576;47454.621;   -9.036;48882.852
536.162;47547.820;   -6.156;46942.285
536.747;49101.996;  -11.607;45711.746
537.333;49623.324;  -11.787;48510.180
537.918;49921.461;  -12.437;50439.891
538.503;51109.633;   -7.196;50863.711
539.088;48484.840;  -10.556;50906.922
539.673;46871.992;   -8.767;52621.965
540.259;48033.777;  -10.026;52368.094
540.844;50016.840;   -7.416;50879.109
541.429;49043.355;   -9.467;52077.777
542.014;48780.582;   -9.527;52716.695
542.599;51084.027;   -9.946;52363.281
543.184;53499.465;   -7.927;53187.137
543.769;51647.969;   -9.297;54697.605
544.354;48317.582;  -10.127;53913.914
544.938;46733.551;   -9.267;49680.164
545.523;48981.883;   -6.506;47386.277
546.108;52428.730;   -9.787;49151.949
546.693;51880.078;  -11.587;51384.637
547.278;51881.992;  -10.986;51853.254
547.862;48803.148;   -8.206;51173.750
548.447;45954.723;  -10.067;51691.395
549.031;46720.539;   -9.637;52456.703
549.616;47729.461;   -9.926;52714.516
550.201;46604.695;   -6.347;52414.598
550.785;46164.016;   -7.917;52355.059
551.370;47630.742;  -10.867;54589.453
551.954;48513.281;   -9.047;58267.348
552.538;49326.625;   -7.827;59062.176
553.123;49059.785;  -10.287;58115.285
553.707;44965.855;  -12.178;56556.285
554.291;45703.914;   -8.717;56201.668
554.876;48859.625;   -7.457;55335.762
555.460;49835.852;  -10.387;54155.703
556.044;50921.051;   -9.618;53721.484
556.628;49882.648;  -11.567;53731.016
557.212;47715.973;   -8.097;54312.531
557.796;49222.035;  -11.077;53797.773
558.380;47272.023;  -11.108;56145.984
558.964;45899.371;   -9.057;57277.930
559.548;45596.863;   -6.977;56459.641
560.132;44422.992;  -11.457;54434.543
560.716;43604.008;  -11.378;54800.617
561.300;44444.227;   -9.577;57606.945
561.884;46365.703;   -7.127;58972.445
562.467;47215.297;   -7.118;57327.570
563.051;46556.305;  -13.358;54962.434
563.635;44105.113;  -10.178;52594.473
564.219;43401.875;   -7.837;50610.410
564.802;43091.949;  -11.398;49551.180
565.386;44422.609;  -12.788;48370.953
565.969;45316.453;   -9.077;48178.871
566.553;45478.164;   -6.207;49957.305
567.136;42608.602;   -8.568;50369.594
567.720;41720.766;  -11.868;49492.004
568.303;41536.922;   -8.268;50616.352
568.887;40482.797;   -8.698;50727.148
569.470;40778.980;   -6.808;51698.379
570.053;39346.012;  -13.188;52122.078
570.637;37888.082;  -12.037;52536.438
571.220;37147.395;   -8.577;51186.098
571.803;37663.480;   -8.498;51032.762
572.386;40420.594;  -10.498;49609.887
572.969;41920.203;   -9.388;48285.926
573.552;38185.148;   -8.338;47624.285
574.135;36092.355;   -8.518;45498.641
574.718;32666.471;  -13.628;41970.434
575.301;32252.371;  -10.893;41447.137
575.884;31838.270;   -8.158;40923.836
576.467;37027.383;  -10.328;45267.723
577.050;35574.320;  -13.058;48175.543
577.633;34810.590;   -9.458;47729.328
578.216;36563.559;   -8.928;47579.793
578.799;37232.383;   -9.358;47820.996
579.381;36407.789;  -11.388;48115.551
579.964;33501.043;  -11.718;47333.766
580.547;33329.641;   -8.588;46668.969
581.129;34904.348;   -8.859;44466.141
581.712;35160.543;  -10.729;44164.922
582.294;36549.766;  -11.118;46477.855
582.877;34292.969;   -5.218;48244.254
583.459;34208.605;   -8.679;47437.895
584.042;36155.488;  -10.709;46943.219
584.624;38196.969;  -11.669;46792.227
585.206;37027.391;   -8.218;46557.250
585.789;35822.070;  -10.569;45793.773
586.371;36296.730;  -11.859;43836.391
586.953;34946.883;  -10.719;42972.492
587.536;36983.555;   -7.198;42487.211
588.118;38379.438;   -8.720;42086.414
588.700;37513.801;  -10.439;43389.930
589.282;37577.617;   -9.198;43646.039
589.864;36319.941;   -9.199;43438.109
590.446;34105.129;  -11.319;43151.926
591.028;33731.184;  -11.159;42781.867
591.610;33487.598;  -11.779;42839.098
592.192;30385.691;   -7.668;42820.402
592.774;31059.408;  -11.949;40724.277
593.356;32013.143;  -12.129;39874.789
593.937;29746.145;  -10.669;39980.648
594.519;31209.811;   -6.509;42069.633
595.101;33225.043;  -10.849;42976.031
595.683;31970.672;  -11.679;44084.441
596.264;31955.027;   -9.049;43478.797
596.846;33955.039;   -8.849;43803.672
597.427;33956.527;   -9.570;42986.934
598.009;35361.871;  -12.620;42832.219
598.591;34537.676;  -10.039;42580.086
599.172;33395.203;  -10.369;43061.805
599.753;31518.570;   -9.140;41691.469
600.335;31453.191;  -11.430;40692.520
600.916;31845.660;   -9.939;39982.422
601.498;30401.977;   -8.479;40318.617
602.079;29205.582;  -10.920;40670.609
602.660;31005.453;  -11.480;41450.898
603.241;32425.283;  -11.699;41137.738
603.823;32855.402;   -9.579;38868.797
604.404;32746.928;  -10.620;38182.785
604.985;31615.807;  -10.450;38078.047
605.566;31401.117;   -9.129;38056.633
606.147;31380.467;   -7.510;37020.418
606.728;32490.182;  -10.660;37883.359
607.309;33315.145;  -11.740;38748.273
607.890;32868.406;   -9.759;38850.230
608.471;31195.580;   -8.250;37457.918
609.051;31314.582;   -9.240;36066.457
609.632;29474.170;  -12.120;35991.074
610.213;28479.559;   -9.110;37402.641
610.794;30754.068;   -8.030;38383.363
611.374;33086.574;   -8.110;40562.387
611.955;32571.670;  -13.560;38533.727
612.536;29736.840;  -11.400;36951.789
613.116;28555.557;   -8.070;37197.891
613.697;30749.002;  -10.830;38411.125
614.277;32231.064;  -11.641;38673.938
614.858;31456.098;  -13.310;37075.863
615.438;29787.465;   -7.460;35092.906
616.019;28090.020;   -7.601;33666.301
616.599;29015.629;  -12.020;34189.023
617.179;30696.518;  -11.780;36952.047
617.760;33622.742;   -8.570;39582.574
618.340;33683.441;  -11.471;38943.977
618.920;32321.699;  -11.170;37594.156
619.500;34175.789;  -11.071;37866.938
620.080;34341.301;   -7.750;37869.043
620.660;32339.000;  -12.711;36868.617
621.241;30724.564;  -10.211;36352.309
621.821;29798.967;  -10.961;35459.520
622.401;29103.998;   -7.720;35207.414
622.980;30321.969;   -8.981;35980.422
623.560;30718.299;   -9.331;37351.328
624.140;29378.113;   -9.850;34388.582
624.720;26680.133;   -7.451;32368.764
625.300;24851.967;   -9.070;32638.629
625.880;28276.777;  -12.601;34599.035
626.459;30159.350;  -11.751;36831.738
627.039;30918.652;   -9.281;38299.098
627.619;32802.688;   -8.801;38289.574
628.198;32124.807;  -12.071;37220.695
628.778;31178.082;   -9.461;37632.563
629.357;32227.885;   -8.491;38003.012
629.937;32450.432;   -9.721;38402.039
630.516;32698.262;   -9.951;37868.801
631.096;32989.855;  -11.731;35760.410
631.675;34085.980;   -8.572;35225.219
632.254;33592.512;  -11.282;35130.289
632.834;32984.105;  -13.322;35794.570
633.413;32916.332;  -10.301;35788.922
633.992;32076.188;   -8.582;34532.863
634.571;33752.328;   -8.352;33590.113
635.151;33827.230;  -11.912;34943.863
635.730;32930.793;  -10.511;35352.523
636.309;35310.328;   -7.731;35366.605
636.888;33116.383;   -9.952;36165.637
637.467;30983.102;  -11.672;37515.902
638.046;31101.656;   -8.901;39288.695
638.625;32132.023;   -7.912;38279.699
639.204;32391.715;  -10.022;37741.598
639.782;30371.830;  -12.252;38364.551
640.361;28791.004;  -10.041;36740.621
640.940;27933.184;  -11.161;34950.082
641.519;28777.471;   -9.701;34137.398
642.097;30337.240;  -11.271;35654.258
642.676;32169.924;   -8.651;35637.957
643.255;33446.691;   -8.711;36567.074
643.833;30829.029;   -9.581;37809.434
644.412;28599.031;  -13.711;37337.293
644.990;30618.291;  -11.811;37018.531
645.569;33260.695;   -9.411;36518.469
646.147;32698.213;  -10.291;36186.430
646.726;31532.758;  -12.401;36267.688
647.304;31435.547;  -10.411;36647.625
647.882;30568.119;   -9.651;39286.742
648.461;32026.773;   -9.631;39157.703
649.039;35464.020;  -11.881;35412.883
649.617;35536.414;   -9.661;34744.918
650.195;33251.914;   -9.301;35403.098
650.773;32053.025;  -10.511;35053.797
651.352;31293.564;  -11.521;33756.816
651.930;29136.572;  -12.211;31868.773
652.508;26049.414;   -9.171;33121.551
653.086;26906.352;   -9.371;33564.793
653.663;32810.832;  -13.161;34054.668
654.241;36879.488;  -13.031;35693.309
654.819;37664.117;   -9.371;36422.906
655.397;37481.652;  -10.511;38213.484
655.975;33728.895;  -10.371;39507.625
656.553;30255.861;  -10.051;39498.223
657.130;28620.756;  -10.061;40395.480
657.708;26765.422;   -9.561;39242.020
658.286;24414.666;  -11.511;38920.020
658.863;26715.506;  -10.261;40202.898
659.441;30350.357;   -7.531;39677.938
660.018;32303.967;   -9.501;40413.355
660.596;31591.125;  -13.301;39931.414
661.173;31516.334;  -11.211;39604.531
661.750;33171.906;   -9.951;39700.070
662.328;32054.010;   -9.390;39292.809
662.905;30874.047;  -11.330;38235.648
663.482;28452.359;   -9.050;36212.305
664.060;25539.891;   -8.240;35944.945
664.637;26196.740;  -10.050;35170.785
665.214;29483.027;  -11.760;34197.523
665.791;29834.240;  -10.530;34549.520
666.368;28894.240;   -9.690;35118.578
666.945;30366.654;   -9.320;36019.418
667.522;30955.520;  -11.860;36048.438
668.099;32363.717;  -10.770;36243.914
668.676;32294.365;   -6.260;35958.875
669.253;34618.719;   -7.000;37384.730
669.830;35745.676;  -10.190;36779.629
670.407;32780.387;   -9.550;35231.289
670.984;33236.035;   -9.260;35544.270
671.560;30614.051;   -9.280;35466.867
672.137;26753.260;  -11.810;34280.863
672.714;28579.699;  -11.490;34632.863
673.290;32001.980;   -7.740;35135.422
673.867;31584.008;  -10.660;36114.480
674.443;31731.092;  -12.230;36152.859
675.020;31336.029;  -10.450;35327.238
675.596;29556.221;   -9.260;35795.176
676.173;28311.279;  -10.780;35430.355
676.749;28014.512;  -13.690;33549.516
677.326;28124.232;  -11.980;32210.012
677.902;27413.260;   -8.630;32068.871
678.478;29144.363;  -10.730;32583.891
679.054;29913.338;  -10.520;32088.928
679.631;29169.371;  -11.920;30978.848
680.207;29284.242;   -7.490;33160.887
680.783;31107.543;   -9.860;35570.363
681.359;32769.383;  -13.380;36125.184
681.935;33626.387;  -12.480;35240.922
682.511;32845.836;   -7.900;34429.961
683.087;31635.252;   -7.710;34463.680
683.663;31218.496;  -11.480;34648.898
684.239;30049.758;  -14.090;34546.457
684.815;28807.754;   -7.560;35586.375
685.390;29042.654;   -9.910;35821.895
685.966;30312.232;  -11.159;35085.871
686.542;31908.570;  -11.169;34198.230
687.118;33253.531;   -5.959;32847.707
687.693;32328.002;  -10.329;32794.027
688.269;33462.953;  -12.059;33072.367
688.844;33267.988;  -10.909;33141.664
689.420;30317.557;   -8.019;33965.742
689.995;29151.797;   -8.399;34655.523
690.571;30499.270;  -10.949;33576.742
691.146;29889.514;   -9.619;32657.219
691.722;28519.906;   -8.999;32526.979
692.297;27998.617;  -11.589;33014.617
692.872;28073.445;  -11.739;34012.254
693.448;30894.594;  -11.059;34237.434
694.023;31489.637;  -10.139;34142.672
694.598;29765.244;   -9.029;34132.031
695.173;30792.242;  -13.319;34205.250
695.748;31017.318;  -10.169;32882.488
696.323;28634.064;   -8.339;32864.906
696.898;27039.844;   -8.169;33170.004
697.473;27708.920;  -12.309;32432.984
698.048;27838.041;  -10.989;31649.303
698.623;26493.555;   -9.329;30778.141
699.198;27356.293;   -9.849;31140.119
699.773;28454.469;  -12.329;31764.299
700.348;29805.830;  -10.389;31780.816
700.922;30110.051;   -9.269;32046.375
701.497;30994.633;   -9.329;32603.574
702.072;31971.457;  -10.789;34799.871
702.646;30857.227;  -10.839;35793.172
703.221;30161.975;   -9.099;35201.590
703.795;32091.049;  -10.939;34764.527
704.370;29649.436;  -12.859;34307.367
704.944;28162.314;  -11.559;33509.887
705.519;29392.408;   -7.939;31388.584
706.093;31569.977;  -10.499;31340.104
706.668;33538.117;  -11.289;32630.281
707.242;32789.480;  -11.509;32728.779
707.816;31185.965;   -9.639;32947.238
708.390;29961.613;  -11.429;33277.855
708.965;29177.986;  -11.869;33834.336
709.539;30474.521;  -11.689;33709.273
710.113;30664.439;  -10.478;33044.313
710.687;30062.496;  -10.228;31953.992
711.261;29477.834;  -13.698;30505.949
711.835;29885.129;  -13.378;30262.369
712.409;28785.135;   -9.698;31254.447
712.983;28492.107;  -11.898;32754.986
713.557;30783.031;  -15.138;34018.824
714.131;28759.082;  -14.098;34579.625
714.704;28226.791;   -9.958;33890.262
715.278;30369.002;  -10.028;33531.102
715.852;29082.523;  -11.148;33601.660
716.425;27927.637;   -9.068;33515.117
716.999;26672.947;  -10.038;33185.555
717.573;26304.900;   -9.798;33905.996
718.146;25740.105;  -12.378;35199.293
718.720;26200.484;  -11.918;35060.551
719.293;26456.344;   -8.088;34973.230
719.867;28605.309;  -10.888;36394.449
720.440;30372.191;  -11.938;36663.008
721.013;31131.098;  -12.818;35102.426
721.587;28757.941;  -10.298;33985.266
722.160;26811.855;  -10.048;33524.965
722.733;26063.869;  -12.108;32987.043
723.306;26430.674;  -10.818;33066.301
723.880;28375.584;   -8.908;33399.500
724.453;28073.211;   -9.878;33468.297
725.026;28148.514;  -11.188;33816.637
725.599;30751.936;  -11.678;32797.996
726.172;30238.242;   -9.618;33187.434
726.745;27869.701;   -8.258;35136.613
727.318;27521.232;  -12.978;35751.730
727.891;26744.229;  -12.148;35890.430
728.463;25736.543;   -8.968;34822.090
729.036;25765.627;  -10.188;32895.086
729.609;25738.971;  -11.788;31823.225
730.182;23726.824;  -11.788;31445.283
730.754;22478.209;  -10.268;32373.223
731.327;22725.586;   -9.998;33676.820
731.900;23886.232;  -12.228;33417.000
732.472;23541.188;  -13.848;31978.498
733.045;22528.650;   -8.698;30368.777
733.617;22444.857;  -10.607;30574.215
734.190;24500.365;  -11.507;31280.975
734.762;25426.684;  -13.647;31674.412
735.334;26909.244;   -9.767;31247.291
735.907;27337.811;   -9.897;29876.211
736.479;27008.979;  -11.637;29808.488
737.051;27758.535;   -9.567;30233.547
737.623;26893.354;   -8.187;31469.086
738.195;25553.982;  -11.187;31784.225
738.768;24419.963;  -12.337;32120.523
739.340;22892.314;  -12.227;32094.342
739.912;22140.488;  -11.057;31312.680
740.484;22211.607;  -10.207;31946.238
741.056;21954.762;  -10.047;32984.059
741.628;22954.988;  -13.627;33897.715
742.199;23791.246;   -7.177;33213.016
742.771;25979.109;  -10.797;31369.113
743.343;26774.309;  -11.997;31865.473
743.915;26425.344;  -12.867;32388.631
744.487;23893.746;   -7.617;31079.568
745.058;21172.725;   -9.557;30570.107
745.630;22198.941;   -9.877;29970.127
746.201;23643.570;  -14.177;29186.766
746.773;24087.869;   -9.237;28805.723
747.344;22225.084;   -9.847;29591.223
747.916;20654.227;  -11.657;31412.201
748.487;21716.449;  -10.587;32194.898
749.059;23472.256;   -8.707;32533.719
749.630;23729.139;  -10.537;32158.518
750.201;23033.996;  -11.687;30855.395
750.773;21824.645;  -11.647;28622.555
751.344;21774.670;   -7.147;28405.732
751.915;23999.785;   -9.757;28461.551
752.486;25127.916;  -12.427;27842.850
753.057;23953.156;  -12.227;27845.008
753.628;23881.818;  -10.417;27728.107
754.199;23448.979;  -11.767;27381.086
754.770;22937.061;  -11.187;25882.203
755.341;21796.279;  -10.507;25886.184
755.912;20309.848;   -9.387;26050.861
756.483;18978.945;  -10.647;26798.779
757.054;19397.967;  -11.837;27048.238
757.625;19416.676;  -12.716;26294.838
758.195;19130.385;   -9.666;26142.076
758.766;19263.178;   -8.656;26392.234
759.337;18789.602;  -12.856;26334.594
759.907;18597.572;  -13.366;27579.652
760.478;18379.223;   -8.576;28352.770
761.048;19464.232;  -10.526;27325.088
761.619;19566.281;  -11.116;26460.428
762.189;18220.857;  -12.136;26029.826
762.760;17876.229;   -9.456;26430.145
763.330;18237.900;   -7.136;26670.902
763.900;18237.836;  -11.786;26603.021
764.471;17789.670;  -11.546;25542.740
765.041;17025.439;   -8.096;24358.459
765.611;16371.124;   -8.876;23991.297
766.181;16404.529;  -12.196;24470.236
766.751;16228.939;  -11.636;24845.975
767.321;17218.447;  -10.156;24533.633
767.891;16571.113;  -11.766;24916.492
768.461;16757.377;  -14.936;24776.771
769.031;17771.025;  -12.356;24757.988
769.601;18341.373;   -7.526;24181.088
770.171;18122.502;  -10.766;23670.387
770.741;17395.584;  -13.176;22960.045
771.311;16914.979;  -10.616;22917.523
771.880;17213.197;   -9.576;23562.941
772.450;16914.826;  -10.336;24216.500
773.020;16590.250;  -13.516;24140.398
773.589;17193.043;  -13.466;24414.857
774.159;17024.277;   -8.686;23858.717
774.729;15629.673;   -9.476;22942.135
775.298;13866.965;  -13.666;22324.033
775.867;13557.747;  -11.716;21140.313
776.437;13599.941;   -9.906;20838.092
777.006;12944.521;  -12.166;20599.510
777.576;12477.051;  -12.356;20508.809
778.145;12406.696;  -11.646;20732.947
778.714;12856.611;   -8.226;21062.465
779.283;13881.479;   -9.556;20949.664
779.853;14483.882;  -14.116;20508.623
780.422;13929.664;  -11.506;20649.082
780.991;13527.280;   -9.556;21527.520
781.560;13277.214;   -9.095;22632.658
782.129;13141.536;  -12.135;23048.277
782.698;12910.635;  -10.865;23438.555
783.267;12561.506;   -9.335;23267.734
783.836;12782.933;  -11.045;22415.133
784.404;13475.288;  -13.865;20443.152
784.973;12703.890;  -13.095;19699.150
785.542;11336.169;  -11.575;19763.828
786.111;10708.317;   -9.705;20341.408
786.679;11458.019;  -12.105;20207.967
787.248;11736.677;  -12.455;19516.465
787.817;11442.421;  -11.535;18900.363
788.385;11501.569;   -9.765;17879.121
788.954;11486.936;  -14.005;17658.301
789.522;10986.171;  -11.955;17788.879
790.090;11210.690;  -10.135;18118.277
790.659;11988.239;  -10.975;18338.736
791.227;11863.335;  -13.375;18508.615
791.795;11373.388;  -12.375;17898.254
792.364;10905.971;  -10.725;17295.133
792.932;11052.042;   -9.715;16822.051
793.500;11178.108;  -12.675;17040.148
794.068;10950.257;  -13.495;17179.787
794.636; 9778.512;  -10.885;16664.246
795.204; 8793.213;  -11.045;16524.545
795.772; 9496.238;  -13.175;17274.564
796.340;10575.313;  -12.445;17891.002
796.908;10385.080;   -9.735;17648.561
797.476;10829.464;   -9.815;17064.080
798.044;11667.457;  -13.985;16672.777
798.612;11443.774;  -13.115;17023.996
799.180;10126.119;  -10.185;16561.615
799.747; 9159.483;   -9.055;15962.773
800.315; 8680.719;  -12.385;15296.992
800.883; 8984.088;  -15.035;14801.771
801.450; 9209.714;  -10.365;14534.430
802.018; 9241.057;   -9.855;14173.248
802.585; 9345.111;  -11.905;14029.547
803.153; 8925.168;  -11.585;13836.846
803.720; 8370.783;   -9.095;13567.324
804.287; 8443.642;   -9.135;13360.622
804.855; 8728.513;  -11.604;13681.981
805.422; 8841.267;  -11.794;13536.560
805.989; 8726.600;  -10.734;13355.958
806.556; 8317.115;  -10.444;13747.896
807.124; 8189.354;  -12.764;13987.376
807.691; 8695.063;  -12.964;14038.674
808.258; 9048.311;  -11.134;14120.152
808.825; 9295.330;   -9.854;13860.111
809.392; 9018.536;  -10.504;13268.790
809.959; 8559.154;  -13.054;12680.389
810.526; 8403.726;   -8.294;12427.308
811.093; 8060.105;   -8.394;12030.105
811.659; 7279.545;  -12.304;11653.664
812.226; 7048.354;  -13.944;11637.183
812.793; 7541.572;  -10.484;11611.521
813.360; 7637.553;  -10.144;11885.181
813.926; 6927.500;  -11.684;12770.539
814.493; 6371.433;  -13.644;12677.638
815.060; 6285.759;   -9.724;11974.336
815.626; 6626.081;   -9.854;11594.715
816.193; 6659.004;  -13.254;11579.474
816.759; 6640.646;  -13.204;11666.972
817.325; 6407.566;   -9.434;11325.530
817.892; 6084.709;  -10.134;11105.369
818.458; 6021.606;  -13.474;10843.928
819.024; 6058.391;  -11.854;10714.406
819.591; 6379.119;  -10.244;10469.165
820.157; 6467.410;  -10.704;10235.523
820.723; 6698.488;  -12.324;10847.563
821.289; 7092.948;   -9.444;11040.980
821.855; 7121.048;   -8.374;10357.100
822.421; 6715.525;  -10.234; 9978.918
822.987; 6464.783;  -13.294; 9754.177
823.553; 6313.294;  -10.884;10065.755
824.119; 5897.202;   -8.884;10036.294
824.685; 5713.792;   -6.784;10029.192
825.251; 5644.202;  -12.004;10199.230
825.816; 5720.858;  -11.474; 9820.189
826.382; 5492.699;   -9.174; 9297.248
826.948; 5258.496;   -9.214; 9381.347
827.513; 5058.928;  -10.774; 9450.726
828.079; 4991.631;  -11.924; 9472.444
828.645; 5079.040;  -10.543; 9292.643
829.210; 5289.677;  -10.533; 9065.341
829.776; 5293.272;  -10.753; 9132.620
830.341; 5197.774;  -10.173; 9092.878
830.906; 5306.210;  -10.743; 9078.557
831.472; 5169.878;  -11.113; 8534.535
832.037; 4682.762;  -10.603; 8677.874
832.602; 4634.932;  -13.323; 8628.692
833.167; 4990.884;  -10.823; 8879.031
833.733; 4953.361;  -10.113; 9189.790
834.298; 4672.559;  -13.583; 9052.608
834.863; 4542.128;  -12.703; 8895.087
835.428; 4427.553;  -10.523; 8824.266
835.993; 4379.613;   -6.963; 8845.385
836.558; 4473.000;  -10.763; 8888.563
837.123; 4594.347;   -9.903; 8966.582
837.688; 4455.373;   -9.913; 8617.860
838.253; 4309.982;  -10.283; 8590.699
838.817; 4436.074;  -12.963; 8443.797
839.382; 4613.477;  -14.243; 8799.356
839.947; 4520.356;  -10.733; 8810.595
840.511; 4586.039;   -9.383; 8796.394
841.076; 4580.569;  -12.563; 8347.231
841.641; 4384.251;  -12.953; 8224.330
842.205; 4125.782;   -7.043; 8223.349
842.770; 4090.046;   -8.163; 8622.107
843.334; 4111.514;  -12.503; 8410.386
843.898; 4065.807;  -11.693; 8337.465
844.463; 3968.640;  -10.203; 8506.283
845.027; 3880.036;   -9.533; 8280.962
845.591; 3914.052;  -13.443; 8231.141
846.156; 3818.391;  -13.143; 7969.179
846.720; 3632.006;   -9.433; 7768.278
847.284; 3375.688;  -11.033; 7630.957
847.848; 3240.018;  -10.403; 7472.395
848.412; 3248.261;  -11.553; 7437.394
848.976; 3423.267;   -8.393; 7674.592
849.540; 3461.251;   -8.713; 7836.011
850.104; 3449.685;  -12.463; 7913.669
850.668; 3576.082;  -12.973; 7694.508
851.232; 3607.130;  -10.793; 7756.887
851.796; 3525.202;  -10.662; 7926.545
852.359; 3554.864;  -13.082; 7827.844
852.923; 3315.556;  -12.192; 7641.163
853.487; 3248.593;  -11.912; 7342.501
854.050; 3410.887;  -10.892; 7042.820
854.614; 3389.616;  -13.992; 7151.338
855.177; 3275.634;  -11.732; 7105.077
855.741; 3191.489;   -8.962; 6989.675
856.304; 3073.582;   -9.442; 6596.634
856.868; 2835.454;  -14.192; 6356.272
857.431; 2621.401;  -12.702; 6468.571
857.995; 2657.083;   -9.942; 6373.210
858.558; 2691.745;   -9.112; 6324.448
859.121; 2526.657;  -12.932; 6408.327
859.684; 2498.833;  -13.442; 6347.886
860.247; 2907.237;  -10.632; 6321.264
860.810; 3207.022;  -11.272; 6301.903
861.374; 3221.857;   -9.832; 6607.881
861.937; 3192.337;  -11.762; 6408.200
862.500; 3041.925;   -9.722; 6572.639
863.062; 2747.705;  -10.512; 6387.297
863.625; 2651.957;  -11.232; 6190.836
864.188; 2660.358;  -14.112; 5807.254
864.751; 2669.144;  -11.302; 5682.413
865.314; 2775.449;  -10.112; 5547.492
865.876; 2783.188;  -12.182; 5500.150
866.439; 2680.199;  -10.722; 5415.909
867.002; 2523.387;   -9.252; 5501.567
867.564; 2412.875;   -9.572; 5413.946
868.127; 2289.186;  -13.142; 5160.325
868.689; 2019.597;  -12.902; 5133.183
869.252; 1893.566;   -9.732; 5252.382
869.814; 1904.341;   -9.432; 5297.141
870.377; 1995.618;  -11.552; 5390.919
870.939; 1977.935;   -9.052; 5599.898
871.501; 1914.745;  -10.982; 5248.336
872.063; 1948.546;  -12.292; 4854.235
872.626; 1969.162;  -14.912; 4817.074
873.188; 1978.860;  -13.112; 4987.732
873.750; 1926.537;  -13.442; 4868.651
874.312; 1987.443;   -9.402; 4779.330
874.874; 2123.316;  -11.062; 4866.348
875.436; 2004.066;  -13.931; 4718.887
875.998; 1723.682;   -9.561; 4660.005
876.560; 1570.804;  -11.321; 4462.964
877.122; 1561.291;  -12.221; 4145.042
877.683; 1552.417;  -12.191; 4056.481
878.245; 1638.119;  -12.101; 3950.740
878.807; 1776.587;   -8.971; 4058.958
879.369; 1810.811;  -12.071; 3954.677
879.930; 1740.159;  -14.621; 3941.495
880.492; 1569.576;  -10.311; 4067.014
881.053; 1423.843;  -10.901; 3859.633
881.615; 1408.535;  -14.411; 3776.071
882.176; 1438.918;  -13.761; 3734.750
882.738; 1449.798;   -9.181; 3678.489
883.299; 1413.341;  -11.791; 3405.407
883.860; 1342.849;  -13.121; 3351.106
884.422; 1239.483;  -11.211; 3394.044
884.983; 1159.723;  -10.091; 3166.443
885.544; 1136.414;   -8.461; 3189.802
886.105; 1081.485;  -12.361; 3160.360
886.666; 1003.316;  -14.141; 3093.059
887.227;  973.129;  -11.361; 2941.957
887.788;  987.663;  -11.401; 2974.836
888.349;  941.808;  -13.791; 2721.214
888.910;  848.493;  -13.191; 2696.493
889.471;  748.409;   -9.881; 2560.172
890.032;  679.152;   -9.881; 2558.190
890.593;  679.188;  -10.371; 2567.669
891.153;  678.018;  -13.301; 2460.307
891.714;  618.077;  -11.431; 2372.046
892.275;  571.150;  -11.291; 2309.505
892.835;  556.649;  -11.471; 2382.543
893.396;  546.447;  -11.541; 2295.502
893.956;  543.014;  -11.181; 2162.420
894.517;  531.768;  -11.741; 2125.439
895.077;  486.564;  -11.671; 2086.978
895.638;  438.708;  -11.311; 2126.316
896.198;  418.812;   -9.831; 1838.275
896.758;  420.194;   -8.421; 1892.813
897.319;  413.314;  -12.351; 1792.232
897.879;  393.674;  -13.511; 1762.751
898.439;  367.346;  -12.001; 1661.149
898.999;  347.935;  -10.180; 1781.468
899.559;  335.210;  -12.030; 1703.347
900.119;  326.124;  -15.710; 1537.525
900.679;  305.004;   -8.900; 1638.384
901.239;  278.823;   -8.340; 1527.902
901.799;  265.544;  -13.910; 1456.441
902.359;  256.321;  -13.460; 1357.140
902.919;  251.546;  -11.490; 1331.118
903.479;  248.463;  -12.110; 1317.257
904.038;  240.856;  -11.720; 1262.595
904.598;  226.394;  -13.610; 1152.034
905.158;  214.733;  -11.040; 1240.893
905.717;  209.717;  -10.900; 1233.691
906.277;  204.994;  -15.080; 1217.330
906.836;  202.599;  -13.380; 1222.408
907.396;  199.584;  -10.780; 1193.047
907.955;  193.486;   -8.500; 1182.526
908.515;  186.331;  -12.760; 1099.364
909.074;  182.557;  -11.900; 1092.863
909.633;  180.118;   -8.950; 1069.121
910.192;  177.049;   -8.770; 1196.460
910.752;  173.421;  -12.390; 1029.960
911.311;  168.856;  -13.680; 1009.780
911.870;  164.553;  -12.370;  971.460
912.429;  160.857;  -10.900; 1094.080
912.988;  158.867;  -11.690; 1081.060
913.547;  155.230;  -13.240;  940.380
914.106;  153.941;  -11.990;  999.420
914.665;  154.494;   -9.990;  984.020
915.224;  152.795;  -12.880; 1035.760
915.782;  150.964;  -12.350;  922.560
916.341;  152.326;   -9.110; 1049.840
916.900;  149.273;   -9.270;  925.260
917.458;  146.395;  -13.240;  884.220
918.017;  144.668;  -13.550;  942.600
918.576;  145.465;  -12.320;  904.440
919.134;  144.078;  -11.490;  837.980
919.693;  142.458;  -13.670;  893.060
920.251;  140.915;  -15.470;  876.500
920.809;  140.789;  -11.290;  839.580
921.368;  140.429;  -10.210;  885.360
921.926;  139.811;  -12.140;  842.940
922.484;  139.061;  -13.080;  903.360
923.042;  138.792;  -11.720;  880.340
923.601;  140.756;   -7.480;  998.680
924.159;  139.061;  -11.570;  935.560
924.717;  138.243;  -13.840;  841.080
925.275;  140.088;  -10.640;  903.240
925.833;  138.090;  -11.540;  779.320
926.391;  138.817;  -12.960;  938.380
926.949;  138.712;  -14.130;  857.680
927.506;  138.706;  -11.750;  903.500
928.064;  138.184;  -10.250;  877.580
928.622;  136.821;  -13.030;  880.100
929.180;  138.105;  -13.400;  814.180
929.737;  139.908;  -10.700;  808.540
930.295;  140.951;  -10.070;  928.480
930.853;  140.069;  -11.960;  849.100
931.410;  139.972;  -13.120;  821.120
931.968;  141.575;  -10.770;  940.660
932.525;  142.563;  -10.680;  909.380
933.082;  144.984;  -13.130;  811.440
933.640;  149.742;  -13.210;  925.900
934.197;  150.875;  -11.060;  886.360
934.754;  150.553;   -9.580;  897.780
935.312;  151.368;  -14.000;  863.340
935.869;  154.572;  -10.710; 1012.980
936.426;  153.065;   -9.860;  872.800
936.983;  151.774;   -9.710;  889.020
937.540;  149.683;  -13.990;  838.280
938.097;  149.832;  -14.040;  940.120
938.654;  152.453;  -10.310;  898.860
939.211;  153.711;  -10.560;  952.480
939.768;  151.865;  -13.900;  915.420
940.324;  153.114;  -14.760;  904.200
940.881;  157.452;  -10.370;  878.500
941.438;  164.734;   -8.260; 1021.200
941.995;  164.825;  -12.540;  992.560
942.551;  162.955;  -14.670;  875.620
943.108;  163.287;  -10.450;  937.920
943.664;  164.163;  -10.750;  869.340
944.221;  169.125;  -11.550; 1088.140
944.777;  170.623;  -14.770;  869.680
945.334;  169.841;  -12.820;  884.840
945.890;  168.296;  -10.130;  946.480
946.446;  165.119;  -13.470;  947.020
947.003;  165.768;  -12.120;  964.940
947.559;  165.607;   -9.980; 1063.040
948.115;  161.250;   -9.080; 1026.540
948.671;  157.997;  -10.830;  967.300
949.227;  156.671;  -12.440;  859.560
949.783;  157.294;  -12.910;  858.900
950.339;  159.718;  -10.270;  991.000
950.895;  159.996;  -13.630; 1023.840
951.451;  158.821;  -15.100;  925.280
952.007;  158.108;  -11.330;  998.540
952.563;  155.756;  -10.580;  937.780
953.118;  151.858;  -13.440;  904.940
953.674;  149.960;  -12.710;  935.780
954.230;  151.572;  -10.350;  949.640
954.785;  155.310;   -9.190;  936.640
955.341;  157.196;  -11.200;  998.160
955.897;  154.343;  -16.560;  834.660
956.452;  151.125;  -12.570;  953.840
957.008;  149.377;   -7.970; 1083.640
957.563;  147.889;  -11.940; 1009.540
958.118;  146.020;  -13.450;  877.700
958.674;  146.167;  -12.030;  946.780
959.229;  145.762;   -9.410; 1013.980
959.784;  143.152;  -12.000;  832.400
960.339;  142.234;  -14.780; 1001.280
960.894;  136.524;   -9.860;  963.760
961.449;  130.417;   -9.970;  859.960
962.004;  128.823;  -10.900; 1212.840
962.559;  122.948;  -13.150;  860.140
963.114;  121.884;  -13.740;  742.480
963.669;  122.038;   -9.820;  915.500
964.224;  121.873;  -13.890;  874.340
964.779;  121.791;  -12.600;  828.420
965.334;  123.014;  -10.950; 1017.860
965.888;  121.073;  -11.170;  875.360
966.443;  121.303;  -12.540;  972.380
966.998;  122.131;  -15.780;  819.460
967.552;  121.857;   -9.760;  908.380
968.107;  116.294;   -9.060;  868.300
968.661;  114.492;  -11.950;  922.440
969.216;  114.312;  -12.800;  856.280
969.770;  114.693;  -11.210;  917.200
970.324;  111.594;  -11.610;  923.140
970.879;  109.291;  -11.370;  947.180
971.433;  108.616;  -12.540;  952.720
971.987;  107.359;  -11.320;  895.340
972.541;  105.776;  -10.720;  917.100
973.095;  107.243;   -9.680; 1009.460
973.649;  105.974;  -11.440;  809.480
974.203;  104.980;  -11.210;  829.040
974.757;  106.169;  -10.240;  855.220
975.311;  106.304;  -13.720;  872.600
975.865;  105.890;  -13.770;  881.820
976.419;  106.490;  -11.690;  857.400
976.973;  105.102;   -9.510;  849.620
977.526;  105.433;  -12.620;  949.920
978.080;  101.927;  -12.010;  796.780
978.634;  101.535;  -10.170;  921.320
979.187;   97.040;   -9.020;  905.400
979.741;   96.353;   -9.820; 1018.380
980.294;   92.252;  -14.870;  789.160
980.848;   88.476;  -12.380;  717.220
981.401;   88.844;  -10.350;  816.540
981.955;   87.768;  -13.720;  844.300
982.508;   85.369;  -11.490;  746.340
983.061;   84.550;  -10.000;  915.260
983.615;   84.662;  -11.480;  798.800
984.168;   83.678;  -13.220;  770.080
984.721;   84.184;  -13.960;  880.760
985.274;   81.620;  -10.870;  867.500
985.827;   80.602;   -9.790;  834.220
986.380;   79.231;  -13.120;  721.340
986.933;   78.975;  -12.450;  864.800
987.486;   78.935;  -10.210;  861.920
988.039;   78.119;   -8.430;  863.100
988.591;   75.736;  -10.520;  893.260
989.144;   72.725;  -14.860;  737.260
989.697;   70.088;  -13.080;  758.740
990.250;   69.304;  -10.150;  858.100
990.802;   67.084;  -13.430;  755.860
991.355;   67.058;  -12.750;  974.880
991.907;   64.615;  -12.040;  864.320
992.460;   62.172;  -11.330;  753.760
993.012;   61.185;  -13.610;  749.540
993.565;   60.254;  -13.460;  711.360
994.117;   62.101;   -9.360;  950.780
994.669;   58.786;  -11.300;  701.320
995.221;   58.645;  -13.540;  791.920
995.774;   57.435;  -13.430;  787.580
996.326;   57.480;  -12.520;  740.220
996.878;   57.679;  -10.950;  838.420
997.430;   54.831;  -14.300;  699.860
997.982;   53.453;  -13.760;  750.140
998.534;   53.122;  -11.530;  739.060
999.086;   52.212;  -10.310;  738.220
999.638;   50.522;  -12.530;  661.380
1000.190;   49.831;  -11.840;  699.320
1000.741;   49.520;  -10.260;  742.700
1001.293;   49.995;   -8.860;  686.020
1001.845;   48.456;  -13.700;  676.640
1002.396;   49.009;  -12.100;  743.400
1002.948;   48.210;  -12.760;  737.400
1003.500;   46.829;  -10.380;  723.780
1004.051;   47.738;  -11.900;  907.580
1004.603;   46.393;  -12.250;  791.820
1005.154;   42.342;  -13.210;  608.980
1005.705;   42.222;  -10.950;  723.960
1006.257;   41.760;  -13.880;  707.220
1006.808;   41.184;  -12.840;  685.460
1007.359;   40.214;  -10.570;  763.240
1007.910;   39.015;   -9.620;  646.640
1008.461;   39.649;  -13.630;  732.940
1009.013;   38.473;  -17.200;  588.340
1009.564;   39.685;  -10.200;  793.520
1010.115;   37.588;  -12.570;  597.040
1010.665;   37.144;  -15.150;  602.160
1011.216;   37.082;  -14.480;  667.920
1011.767;   36.438;  -11.340;  697.920
1012.318;   36.886;   -9.780;  736.980
1012.869;   35.727;  -12.380;  679.000
1013.419;   36.102;  -15.560;  603.120
1013.970;   35.782;  -11.010;  666.640
1014.521;   35.148;  -11.610;  620.620
1015.071;   35.460;  -13.450;  670.380
1015.622;   34.918;  -13.870;  635.460
1016.172;   34.090;  -11.610;  596.820
1016.723;   33.714;  -12.120;  614.380
1017.273;   33.822;  -13.620;  604.160
1017.823;   33.865;  -14.140;  650.340
1018.374;   33.540;  -12.800;  611.760
1018.924;   32.771;  -12.340;  716.880
1019.474;   33.563;  -11.410;  718.880
1020.024;   31.438;  -14.770;  657.580
1020.574;   32.906;   -9.780;  726.160
1021.124;   33.178;   -8.560;  673.580
1021.674;   30.893;  -15.190;  559.120
1022.224;   32.594;  -13.530;  708.940
1022.774;   32.404;  -13.280;  668.820
1023.324;   32.696;  -10.690;  753.520
1023.874;   33.417;  -10.240;  875.760
1024.423;   30.551;  -12.540;  613.700
1024.973;   31.316;  -10.010;  610.760
1025.523;   30.041;  -10.550;  620.960
1026.072;   29.397;  -13.560;  606.420
1026.622;   29.340;  -15.120;  675.740
1027.172;   30.389;  -11.260;  715.660
1027.721;   29.731;  -11.410;  601.220
1028.270;   29.591;  -13.530;  663.400
1028.820;   28.731;  -13.680;  638.080
1029.369;   29.309;  -13.520;  612.700
1029.918;   29.476;  -10.980;  649.840
1030.468;   28.109;  -13.530;  564.780
1031.017;   29.266;  -13.170;  634.800
1031.566;   28.203;  -12.200;  608.900
1032.115;   29.173;   -9.960;  694.500
1032.664;   27.198;  -13.210;  596.480
1033.213;   28.746;  -12.500;  735.420
1033.762;   27.716;  -11.910;  635.620
1034.311;   27.239;   -9.640;  677.220
1034.860;   27.477;  -13.310;  691.000
1035.408;   27.860;  -11.830;  722.720
1035.957;   28.272;  -12.000;  719.540
1036.506;   25.576;  -11.690;  530.800
1037.055;   28.723;  -10.990;  844.320
1037.603;   26.221;  -15.120;  664.000
1038.152;   24.997;  -12.450;  534.760
1038.700;   25.603;  -10.560;  585.740
1039.249;   25.565;  -11.080;  681.220
1039.797;   24.929;  -12.540;  633.360
1040.345;   25.768;  -11.920;  705.420
1040.894;   24.737;  -11.410;  625.300
1041.442;   24.339;  -14.320;  632.200
1041.990;   23.694;  -16.240;  559.160
1042.538;   23.813;  -11.680;  536.180
1043.087;   23.908;  -10.760;  570.860
1043.635;   25.338;  -11.850;  670.500
1044.183;   23.347;  -15.480;  586.400
1044.731;   23.627;  -11.770;  576.000
1045.279;   22.964;  -13.090;  674.920
1045.827;   25.214;  -12.440;  892.400
1046.374;   23.094;  -13.840;  515.420
1046.922;   22.596;  -13.220;  590.580
1047.470;   23.737;  -10.230;  691.300
1048.018;   23.378;  -14.590;  647.960
1048.565;   23.964;  -12.050;  708.600
1049.113;   22.276;  -11.650;  557.000
1049.660;   22.502;  -10.510;  629.660
1050.208;   22.494;  -13.310;  675.640
1050.755;   21.877;  -15.900;  606.580
1051.303;   22.803;  -11.430;  686.820
1051.850;   21.553;   -8.480;  635.120
1052.397;   20.452;  -15.010;  473.960
1052.945;   21.117;  -13.960;  617.760
1053.492;   22.601;  -13.150;  741.840
1054.039;   21.909;   -9.630;  720.180
1054.586;   20.783;  -13.680;  557.240
1055.133;   21.958;  -14.570;  693.140
1055.680;   21.239;  -13.820;  646.620
1056.227;   19.903;  -11.730;  542.780
1056.774;   22.190;  -12.480;  794.980
1057.321;   19.249;  -13.930;  523.260
1057.868;   20.778;  -11.690;  651.320
1058.415;   20.404;   -9.520;  651.980
1058.961;   20.441;  -13.160;  678.940
1059.508;   20.046;  -12.920;  643.820
1060.055;   19.593;  -11.920;  581.780
1060.601;   20.069;  -11.500;  624.300
1061.148;   18.654;  -14.330;  616.820
1061.694;   19.175;  -16.870;  592.580
1062.241;   19.559;  -10.330;  596.320
1062.787;   19.864;  -10.620;  663.140
1063.334;   21.018;  -10.110;  808.560
1063.880;   18.394;  -13.400;  668.360
1064.426;   18.990;  -10.680;  706.820
1064.972;   18.395;   -9.920;  601.340
1065.518;   17.457;  -10.980;  566.640
1066.065;   18.974;  -14.890;  624.460
1066.611;   17.955;  -12.870;  598.800
1067.157;   19.012;  -12.950;  641.860
1067.703;   18.143;  -13.540;  668.480
1068.249;   18.149;  -13.540;  605.220
1068.794;   18.347;  -12.600;  626.880
1069.340;   17.005;  -10.620;  578.960
1069.886;   16.684;  -12.830;  590.700
1070.432;   15.977;  -14.870;  541.720
1070.977;   16.511;  -11.980;  601.080
1071.523;   16.855;   -8.200;  573.060
1072.068;   16.776;  -12.330;  582.000
1072.614;   15.741;  -16.370;  527.760
1073.160;   16.831;  -11.100;  687.040
1073.705;   15.963;  -10.480;  572.520
1074.250;   15.995;  -14.520;  559.900
1074.796;   17.745;  -11.460;  655.160
1075.341;   17.574;  -11.950;  664.100
1075.886;   16.808;  -11.460;  594.240
1076.431;   15.115;  -13.770;  649.880
1076.976;   15.334;  -12.680;  639.220
1077.521;   15.494;  -13.170;  583.080
1078.067;   14.909;  -10.860;  579.400
1078.612;   15.429;  -13.920;  661.620
1079.156;   15.138;  -13.880;  601.540
1079.701;   15.842;  -13.120;  693.260
1080.246;   15.819;   -9.940;  696.300
1080.791;   15.598;  -14.740;  625.020
1081.336;   15.297;  -13.750;  659.320
1081.880;   15.646;  -13.400;  649.680
1082.425;   14.241;  -12.220;  573.480
1082.970;   16.285;  -11.610;  717.040
1083.514;   13.726;  -13.580;  597.000
1084.059;   12.910;  -12.810;  586.720
1084.603;   13.525;  -12.320;  565.840
1085.147;   14.179;  -13.190;  645.220
1085.692;   14.700;  -12.480;  716.800
1086.236;   12.617;  -13.020;  503.140
1086.780;   15.297;   -9.190;  751.440
1087.325;   14.322;  -12.480;  654.620
1087.869;   13.832;  -12.450;  610.700
1088.413;   14.205;  -12.240;  705.040
1088.957;   12.403;   -9.020;  543.400
1089.501;   13.593;  -10.320;  766.640
1090.045;   13.849;  -12.720;  726.480
1090.589;   10.978;  -13.690;  569.920
1091.133;   12.699;  -10.020;  673.340
1091.676;   12.318;  -12.330;  591.940
1092.220;   11.755;  -14.970;  600.920
1092.764;   12.597;  -12.430;  706.960
1093.307;   13.246;   -9.800;  673.780
1093.851;   11.396;  -14.970;  556.540
1094.395;   12.462;  -15.310;  683.140
1094.938;   12.281;  -10.370;  632.520
1095.482;   12.211;  -11.050;  559.800
1096.025;   12.448;  -11.840;  710.880
1096.568;   12.615;  -12.840;  779.280
1097.112;    9.502;  -14.700;  508.180
1097.655;   11.343;   -8.720;  603.000
1098.198;   10.115;  -13.610;  600.180
1098.741;   10.369;  -13.350;  612.860
1099.285;   11.729;  -11.230;  657.300
1099.828;    9.592;  -11.840;  439.400
1100.371;   10.765;  -10.840;  608.160
1100.914;   10.386;  -14.190;  682.660
1101.457;   11.248;  -11.240;  679.900
1101.999;    9.847;  -11.270;  584.680
1102.542;    9.934;  -11.480;  641.440
1103.085;   10.001;  -11.750;  658.500
1103.628;   10.564;  -11.400;  762.060
1104.170;    9.750;  -10.490;  588.280
1104.713;    9.923;  -10.600;  646.700
1105.256;    9.519;  -14.360;  557.440
1105.798;    9.128;  -13.210;  499.980
1106.341;   10.558;  -10.270;  728.900
1106.883;    9.050;  -12.200;  521.340
1107.425;    9.922;  -13.110;  668.180
1107.968;    9.327;  -12.840;  612.380
1108.510;    9.865;   -6.480;  684.960
1109.052;    7.426;  -13.940;  612.620
1109.594;    8.838;  -13.690;  554.440
1110.136;   10.021;  -11.880;  643.220
1110.679;    8.658;   -9.500;  633.080
1111.221;    8.659;  -14.160;  604.460
1111.763;    7.536;  -13.980;  559.220
1112.304;    7.607;  -13.880;  547.140
1112.846;    8.668;  -12.210;  666.240
1113.388;   11.419;  -11.390;  942.180
1113.930;    8.347;  -14.540;  694.200
1114.472;    7.775;  -12.640;  606.540
1115.013;    6.512;  -11.620;  551.280
1115.555;    6.848;  -13.640;  587.100
1116.097;    6.921;  -15.380;  579.480
1116.638;    7.601;  -12.640;  684.600
1117.180;    8.030;   -9.850;  667.740
1117.721;    6.919;  -13.690;  568.580
1118.262;    8.282;  -12.680;  677.960
1118.804;    8.380;  -12.530;  637.340
1119.345;    6.593;  -11.690;  578.400
1119.886;    8.562;  -13.380;  704.040
1120.427;    6.820;  -14.070;  589.020
1120.969;    6.307;  -13.500;  597.920
1121.510;    5.852;  -11.480;  563.060
1122.051;    6.543;  -12.830;  723.580
1122.592;    5.545;  -14.290;  655.420
1123.133;    4.760;  -12.400;  547.940
1123.673;    6.952;  -10.130;  706.480
1124.214;    5.824;  -12.930;  612.460
1124.755;    6.958;  -14.380;  639.460
1125.296;    5.986;  -14.000;  627.320
1125.836;    7.023;  -10.070;  691.500
1126.377;    6.180;  -12.640;  599.660
1126.918;    6.096;  -12.960;  614.980
1127.458;    5.738;  -13.350;  622.220
1127.999;    6.709;  -10.750;  656.980
1128.539;    5.888;  -12.350;  694.240
1129.079;    5.449;  -14.860;  632.720
1129.620;    5.081;  -13.840;  558.100
1130.160;    3.904;  -12.330;  539.480
1130.700;    5.337;  -14.530;  640.840
1131.240;    6.069;  -12.530;  643.700
1131.781;    4.367;  -14.450;  619.680
1132.321;    4.861;   -9.790;  599.120
1132.861;    3.957;  -14.860;  564.200
1133.401;    3.917;  -14.290;  593.940
1133.941;    4.820;  -11.750;  626.280
1134.481;    4.121;   -9.920;  597.580
1135.020;    3.849;  -12.290;  609.160
1135.560;    4.158;  -11.650;  674.940
1136.100;    3.606;  -16.270;  501.160
1136.640;    3.937;  -10.890;  510.480
1137.179;    3.593;  -14.180;  537.960
1137.719;    3.764;  -16.250;  605.400
1138.258;    4.501;  -14.230;  587.360
1138.798;    4.003;   -9.090;  663.780
1139.337;    2.618;  -15.130;  482.840
1139.877;    4.162;  -13.680;  642.360
1140.416;    5.661;  -11.320;  878.060
1140.955;    2.144;  -10.860;  535.380
1141.494;    3.885;  -12.920;  669.280
1142.034;    2.519;  -13.930;  583.520
1142.573;    4.467;  -11.440;  646.280
1143.112;    2.881;  -12.000;  553.480
1143.651;    2.884;  -13.670;  536.480
1144.190;    3.919;  -12.730;  691.640
1144.729;    3.275;  -14.560;  607.420
1145.267;    3.193;  -11.830;  584.900
1145.806;    3.748;  -12.230;  637.040
1146.345;    2.839;  -14.130;  635.020
1146.884;    3.105;  -11.590;  622.500
1147.422;    2.099;  -12.550;  533.060
1147.961;    3.972;  -11.180;  708.460
1148.500;    2.985;  -11.510;  669.720
1149.038;    3.742;  -11.640;  632.500
1149.577;    2.775;  -10.130;  698.640
1150.115;    1.079;  -13.970;  452.280
1150.653;    2.523;  -14.520;  607.340
1151.192;    1.481;  -12.810;  552.920
1151.730;    2.498;   -9.100;  652.560
1152.268;    1.743;  -12.220;  589.520
1152.806;    0.891;  -14.140;  571.180
1153.344;    0.998;  -12.350;  577.640
1153.882;    2.035;   -8.980;  600.060
1154.421;    0.844;  -15.190;  470.620
1154.958;    1.115;  -15.210;  595.240
1155.496;    2.698;  -12.850;  645.280
1156.034;    1.433;   -9.940;  721.880
1156.572;    2.453;  -13.570;  667.060
1157.110;   -0.006;  -14.590;  473.940
1157.647;    2.448;  -13.030;  676.960
1158.185;    0.971;  -12.140;  564.320
1158.723;   -0.441;  -14.390;  509.200
1159.260;    0.678;  -14.090;  701.700
1159.798;    2.256;  -11.920;  658.160
1160.335;    0.845;  -11.110;  631.820

