
Integration time [ms]:   3.276
Averaging Nr. [scans]: 1000
Smoothing Nr. [pixels]: 0
Data measured with spectrometer [name]: 7414430SP
Wave   ;Sample   ;Dark     ;Reference
[nm]   ;[counts] ;[counts] ;[counts] 

288.544;  150.816;    7.793;  793.890
289.143;  153.927;    7.462;  681.602
289.742;  154.970;    8.602;  828.814
290.341;  140.378;    1.321;  789.841
290.940;  129.005;   -0.709;  730.702
291.538;  130.156;    0.881;  881.108
292.137;  130.511;    0.122;  792.581
292.736;  135.554;   -1.929;  975.101
293.335;  130.935;   -8.229;  735.086
293.934;  131.142;   -5.279;  781.677
294.532;  129.518;   -1.369; 1031.958
295.131;  116.630;   -7.641;  834.394
295.730;  116.949;   -8.420;  809.588
296.328;  115.152;   -5.611;  783.442
296.927;  116.092;   -5.781;  779.652
297.525;  118.367;   -6.361;  781.236
298.124;  107.535;  -11.382;  654.009
298.722;  110.648;   -7.641;  761.933
299.321;  108.803;   -6.811;  708.597
299.919;  107.688;   -6.991;  751.918
300.518;  104.670;  -10.362;  689.338
301.116;  105.479;   -9.581;  691.381
301.715;  104.885;   -4.891;  730.222
302.313;  105.063;   -8.801;  704.943
302.911;  100.466;   -8.522;  733.830
303.509;  104.658;   -6.171;  925.627
304.108;  102.336;   -7.311;  760.383
304.706;  102.868;   -8.321;  801.664
305.304;   97.348;  -10.222;  796.707
305.902;  100.968;   -6.021;  784.484
306.500;   97.447;   -4.971;  728.200
307.098;   97.586;   -7.061;  746.560
307.696;   93.361;   -8.801;  780.432
308.294;   94.534;   -6.411;  731.359
308.892;   96.765;   -2.901;  759.769
309.490;   93.844;   -5.041;  712.161
310.088;   91.399;   -5.002;  788.444
310.686;   93.853;   -2.041;  821.749
311.284;   90.117;   -2.351;  766.040
311.882;   89.237;   -4.422;  731.225
312.480;   85.768;   -4.192;  697.167
313.078;   86.392;   -1.172;  808.331
313.675;   87.940;   -2.601;  691.600
314.273;   84.021;   -1.312;  797.837
314.871;   82.484;   -3.942;  589.829
315.468;   79.555;   -2.802;  652.090
316.066;   83.006;   -0.701;  694.427
316.664;   76.879;   -4.362;  656.351
317.261;   80.460;   -2.872;  910.128
317.859;   75.449;   -2.022;  768.735
318.456;   75.528;   -0.531;  830.096
319.054;   72.575;   -3.912;  787.828
319.651;   71.537;   -4.752;  759.928
320.249;   69.468;   -2.602;  810.188
320.846;   66.876;   -0.821;  714.286
321.443;   65.635;   -4.642;  832.135
322.041;   62.071;   -5.002;  812.315
322.638;   58.680;   -3.982;  701.456
323.235;   60.863;   -3.411;  665.683
323.833;   59.138;   -7.361;  740.354
324.430;   54.126;   -8.611;  615.900
325.027;   53.979;   -4.061;  876.855
325.624;   53.761;   -4.031;  644.532
326.221;   51.807;   -7.481;  689.717
326.818;   50.907;   -5.281;  818.332
327.415;   54.179;   -7.460;  748.828
328.012;   52.913;   -5.510;  690.585
328.609;   52.803;   -7.880;  731.389
329.206;   50.716;   -8.331;  778.621
329.803;   49.876;   -5.121;  737.841
330.400;   53.452;   -4.510;  704.260
330.997;   55.003;   -6.441;  817.147
331.594;   53.183;   -8.831;  788.185
332.191;   57.608;   -7.621;  728.722
332.787;   61.018;   -4.591;  844.463
333.384;   60.070;   -7.412;  763.093
333.981;   58.177;   -8.293;  815.687
334.578;   60.600;   -7.052;  708.378
335.174;   63.850;   -3.102;  731.469
335.771;   64.012;   -5.943;  836.456
336.367;   59.601;   -7.393;  710.631
336.964;   63.080;   -4.063;  793.266
337.561;   62.130;   -3.813;  731.112
338.157;   58.264;   -4.654;  911.916
338.754;   55.847;   -7.934;  796.589
339.350;   52.378;   -4.414;  722.493
339.946;   55.605;   -4.664;  773.135
340.543;   48.002;   -6.375;  846.136
341.139;   42.338;   -9.815;  720.836
341.735;   38.920;   -4.526;  772.593
342.332;   37.965;   -4.895;  691.472
342.928;   39.961;   -4.295;  795.394
343.524;   33.165;   -5.476;  761.684
344.120;   28.432;   -5.856;  738.562
344.716;   31.954;   -2.155;  723.717
345.313;   30.826;   -6.275;  795.342
345.909;   25.244;   -8.815;  627.336
346.505;   26.616;   -5.305;  740.247
347.101;   27.359;   -2.674;  827.864
347.697;   27.708;   -4.344;  785.398
348.293;   22.378;   -9.975;  627.244
348.889;   22.238;   -5.774;  745.914
349.485;   22.055;   -5.004;  688.205
350.081;   23.830;   -4.704;  772.592
350.676;   18.516;   -6.635;  691.606
351.272;   21.829;   -4.504;  809.530
351.868;   21.558;   -3.914;  780.497
352.464;   19.805;   -9.044;  723.932
353.059;   15.849;   -8.314;  646.017
353.655;   18.458;   -7.024;  777.063
354.251;   19.232;   -5.343;  759.845
354.846;   14.892;   -8.604;  740.646
355.442;   13.058;   -6.945;  753.071
356.038;   13.938;   -7.564;  751.708
356.633;   14.195;   -5.814;  728.594
357.229;   13.024;   -7.364;  724.757
357.824;   11.255;   -8.024;  703.600
358.420;    8.730;   -9.384;  679.726
359.015;   10.141;   -5.104;  695.357
359.610;   11.837;   -6.854;  763.920
360.206;    5.999;  -10.185;  603.240
360.801;    7.731;   -7.054;  646.503
361.396;   10.741;   -5.034;  725.975
361.992;    6.079;   -8.284;  668.220
362.587;    3.508;   -8.625;  670.160
363.182;    4.945;   -7.674;  689.631
363.777;    5.329;   -5.164;  738.242
364.372;    6.269;   -8.604;  737.314
364.967;    2.061;   -9.055;  680.744
365.563;    5.421;   -6.114;  815.567
366.158;    2.800;   -5.814;  685.161
366.753;    3.438;   -7.854;  649.263
367.348;    2.230;   -7.804;  746.056
367.942;    1.533;   -7.954;  697.298
368.537;    1.015;   -4.984;  754.245
369.132;    1.375;   -8.564;  703.428
369.727;   -2.884;   -8.855;  638.079
370.322;   -2.094;   -6.245;  580.186
370.917;   -1.857;   -6.425;  710.646
371.511;    1.263;   -6.294;  861.834
372.106;   -2.414;   -7.685;  776.964
372.701;   -6.815;   -7.335;  585.988
373.296;   -0.291;   -4.564;  863.135
373.890;   -4.605;  -10.235;  647.840
374.485;   -6.435;   -7.885;  691.199
375.079;   -3.521;   -7.324;  738.685
375.674;   -1.574;   -3.494;  812.970
376.268;   -5.125;   -8.525;  691.759
376.863;  -12.235;  -10.086;  580.327
377.457;   -6.211;   -7.025;  662.490
378.052;   -7.730;   -3.585;  764.884
378.646;   -7.647;   -7.595;  741.167
379.240;   -8.582;   -8.335;  721.176
379.835;   -7.919;   -5.785;  636.978
380.429;   -9.543;   -4.335;  562.557
381.023;   -9.448;   -6.805;  779.205
381.617;  -12.787;   -9.195;  680.106
382.212;   -8.577;   -6.905;  685.303
382.806;   -7.687;   -3.745;  760.690
383.400;  -11.449;   -7.745;  672.281
383.994;  -13.125;   -9.765;  664.870
384.588;   -9.710;   -6.564;  697.701
385.182;   -8.496;   -5.344;  726.624
385.776;   -8.602;   -8.514;  706.875
386.370;  -12.993;   -9.555;  681.968
386.964;  -12.070;   -8.715;  684.155
387.558;   -9.956;   -6.174;  598.360
388.152;  -12.376;   -8.725;  681.959
388.745;  -11.546;   -7.965;  814.707
389.339;  -10.090;   -5.924;  747.642
389.933;   -8.603;   -5.524;  695.370
390.527;   -9.144;   -7.114;  859.029
391.120;  -16.006;  -10.725;  595.318
391.714;  -13.663;   -8.035;  711.633
392.308;  -10.255;   -3.574;  780.253
392.901;  -13.565;   -7.245;  642.460
393.495;  -15.671;   -9.285;  595.414
394.089;  -14.555;   -5.895;  760.452
394.682;  -14.488;   -4.295;  697.188
395.275;  -14.497;   -9.875;  719.927
395.869;  -15.762;   -8.485;  667.314
396.462;  -14.980;   -7.455;  616.609
397.056;  -10.996;   -5.424;  776.621
397.649;  -14.688;   -6.605;  731.575
398.242;  -13.086;   -8.224;  712.645
398.836;  -12.136;   -7.474;  766.408
399.429;  -13.145;   -7.094;  631.041
400.022;  -15.925;   -9.475;  665.902
400.615;  -13.253;   -7.145;  805.609
401.208;  -12.357;   -7.174;  691.451
401.802;  -15.087;   -5.515;  699.329
402.395;  -14.553;   -9.875;  683.502
402.988;  -15.979;   -8.845;  696.627
403.581;  -13.669;   -8.874;  646.878
404.174;  -11.413;   -5.324;  686.568
404.767;  -13.449;   -9.575;  638.583
405.360;  -16.037;  -10.965;  621.445
405.953;  -11.246;   -8.764;  759.034
406.545;  -10.358;   -7.514;  725.342
407.138;  -14.482;  -10.025;  618.350
407.731;  -13.078;  -10.034;  613.303
408.324;   -9.581;   -9.374;  660.554
408.917;  -10.810;   -6.534;  681.864
409.509;  -11.929;   -8.004;  740.396
410.102;  -13.934;   -9.875;  643.948
410.695;   -9.453;   -8.604;  665.758
411.287;   -9.955;   -6.794;  599.821
411.880;   -9.865;   -9.334;  585.421
412.472;  -13.554;  -10.254;  613.092
413.065;  -11.465;   -6.714;  629.408
413.657;   -9.254;   -7.234;  576.678
414.250;   -7.859;  -10.544;  646.681
414.842;  -10.471;   -9.744;  676.353
415.434;   -8.264;   -6.994;  570.463
416.027;   -4.189;   -5.893;  652.196
416.619;   -5.509;   -7.264;  713.400
417.211;   -6.649;  -10.374;  599.352
417.804;   -4.379;   -7.993;  628.499
418.396;   -7.683;   -7.234;  607.643
418.988;   -4.223;   -9.443;  659.238
419.580;   -7.950;  -10.724;  568.276
420.172;   -6.696;  -10.323;  536.196
420.764;   -1.368;   -8.793;  672.482
421.356;   -2.694;  -11.143;  636.898
421.948;   -3.025;   -8.293;  677.661
422.540;    0.213;   -7.893;  680.027
423.132;    0.816;   -7.082;  600.641
423.724;   -1.888;   -8.653;  561.267
424.316;   -0.959;  -10.213;  621.345
424.908;    1.933;   -9.762;  591.517
425.500;    3.093;   -5.572;  647.978
426.092;    4.560;   -8.422;  648.268
426.683;    2.751;   -9.283;  684.836
427.275;    5.090;   -7.852;  641.471
427.867;    6.876;   -5.272;  668.948
428.458;    7.965;   -7.682;  732.344
429.050;    6.495;  -10.612;  680.749
429.642;    7.653;   -9.882;  743.124
430.233;    8.313;   -6.962;  569.356
430.825;   10.563;   -6.842;  724.809
431.416;    7.349;   -9.672;  698.241
432.008;   10.751;   -6.552;  651.723
432.599;   11.685;   -6.891;  656.073
433.190;    9.228;  -10.912;  637.670
433.782;    8.083;  -11.172;  590.395
434.373;   14.399;   -6.061;  884.765
434.964;   14.103;   -8.251;  602.920
435.556;   12.392;   -9.722;  634.537
436.147;   15.618;   -9.082;  758.490
436.738;   14.285;   -8.041;  701.099
437.329;   20.264;   -7.341;  721.723
437.920;   13.043;   -8.162;  666.688
438.511;   12.936;  -11.802;  564.526
439.103;   18.574;  -10.191;  623.998
439.694;   21.090;   -7.601;  681.583
440.285;   22.222;   -8.541;  764.432
440.876;   19.854;   -9.751;  845.738
441.466;   19.302;   -9.401;  575.162
442.057;   24.097;   -7.760;  665.814
442.648;   23.725;   -9.971;  746.255
443.239;   22.344;  -11.001;  620.477
443.830;   25.926;   -7.990;  704.958
444.421;   27.413;   -7.910;  655.474
445.011;   25.563;   -8.131;  693.619
445.602;   24.705;   -7.111;  743.126
446.193;   26.082;  -10.920;  488.117
446.783;   30.641;   -6.500;  640.397
447.374;   26.714;   -8.671;  692.759
447.964;   27.018;  -10.781;  713.770
448.555;   34.651;   -9.650;  822.742
449.145;   31.450;   -8.660;  662.853
449.736;   32.911;   -8.990;  803.179
450.326;   32.865;   -9.500;  713.626
450.917;   36.377;   -8.680;  675.324
451.507;   37.150;   -7.520;  600.661
452.097;   37.882;   -8.590;  746.267
452.688;   38.058;  -11.340;  742.160
453.278;   38.005;  -10.100;  566.840
453.868;   42.411;   -6.019;  793.550
454.458;   40.855;   -9.440;  651.141
455.048;   41.171;  -10.560;  711.783
455.639;   41.811;  -11.799;  567.096
456.229;   45.590;   -6.899;  710.694
456.819;   48.111;   -7.389;  751.158
457.409;   48.158;  -11.119;  773.993
457.999;   49.706;   -9.289;  737.505
458.589;   51.292;   -6.139;  686.606
459.179;   51.325;   -8.729;  717.658
459.769;   49.032;   -9.789;  627.099
460.358;   52.123;  -10.259;  797.262
460.948;   52.904;   -7.299;  689.503
461.538;   55.391;  -10.289;  660.677
462.128;   53.249;  -11.269;  664.934
462.717;   59.419;   -9.368;  710.326
463.307;   60.923;   -7.908;  705.846
463.897;   58.166;   -9.599;  656.942
464.486;   57.145;   -9.769;  837.128
465.076;   61.738;   -8.048;  733.776
465.666;   64.752;   -9.358;  652.900
466.255;   62.997;   -7.919;  785.651
466.845;   62.314;  -11.689;  666.749
467.434;   65.116;   -7.818;  725.873
468.023;   66.550;   -7.678;  658.357
468.613;   64.533;  -10.939;  713.946
469.202;   68.918;  -10.118;  646.507
469.791;   71.513;   -9.108;  737.811
470.381;   74.223;   -6.058;  742.813
470.970;   73.884;  -10.428;  711.099
471.559;   74.783;  -10.268;  733.291
472.148;   75.882;   -8.448;  675.737
472.738;   78.958;   -6.917;  765.466
473.327;   79.331;  -11.978;  637.529
473.916;   78.257;  -11.888;  737.446
474.505;   82.358;   -9.437;  751.703
475.094;   86.046;   -6.747;  806.570
475.683;   85.212;   -9.367;  797.699
476.272;   86.663;  -12.637;  730.632
476.861;   88.315;  -10.027;  706.754
477.449;   94.819;   -8.716;  728.487
478.038;   90.369;   -9.577;  692.513
478.627;   91.483;   -9.718;  714.852
479.216;   97.525;   -8.947;  769.441
479.805;  100.717;   -6.256;  783.375
480.393;  100.658;   -7.937; 1008.945
480.982;   99.577;   -7.717;  874.501
481.571;  105.391;   -9.266;  858.333
482.159;  105.667;   -7.636;  705.386
482.748;  106.619;   -9.667;  821.385
483.336;  110.922;  -10.376;  858.209
483.925;  110.515;   -7.147;  774.373
484.513;  118.177;   -7.996;  758.962
485.102;  115.022;  -10.027;  810.965
485.690;  123.520;  -10.446; 1011.050
486.278;  124.638;   -8.446;  979.329
486.867;  125.656;   -6.356;  809.662
487.455;  127.907;   -9.136;  898.229
488.043;  129.131;  -10.646;  748.361
488.631;  136.708;   -7.456; 1005.079
489.220;  140.594;   -6.636;  908.626
489.808;  141.565;  -11.036;  741.415
490.396;  149.017;  -10.246;  914.645
490.984;  154.574;   -8.556;  830.161
491.572;  162.683;   -5.886;  940.315
492.160;  169.689;   -9.486;  919.081
492.748;  181.788;  -10.976;  884.341
493.336;  202.978;   -8.776; 1019.693
493.924;  228.684;   -5.465;  958.077
494.512;  256.429;   -9.986; 1066.638
495.100;  291.540;  -10.636; 1103.280
495.687;  344.728;  -10.885; 1206.373
496.275;  405.650;   -8.126; 1150.796
496.863;  477.408;  -10.586; 1281.171
497.451;  578.693;  -11.926; 1386.805
498.038;  704.482;  -10.885; 1556.729
498.626;  811.466;   -6.315; 1741.407
499.214;  964.963;   -7.326; 2016.609
499.801; 1157.235;  -11.906; 2220.633
500.389; 1406.321;  -10.466; 2312.494
500.976; 1706.142;   -5.236; 2744.849
501.564; 2136.767;   -8.936; 3148.565
502.151; 2502.878;  -13.176; 3515.999
502.738; 2953.194;  -10.646; 3971.274
503.326; 3353.393;   -9.525; 4403.796
503.913; 3746.296;  -10.856; 5161.749
504.500; 4110.419;  -11.586; 5986.420
505.088; 4554.359;  -10.336; 6381.201
505.675; 5074.643;   -6.355; 6925.547
506.262; 5793.210;   -9.046; 7619.060
506.849; 6505.771;  -10.416; 8733.969
507.436; 6973.875;  -10.305; 9790.121
508.023; 7521.937;   -5.496; 9985.472
508.610; 7784.416;   -7.856;10434.618
509.197; 8418.495;  -10.097;11198.435
509.784; 9744.028;  -10.886;12391.194
510.371;10741.668;   -9.315;13603.713
510.958;11494.862;   -9.936;14426.586
511.545;12298.570;   -9.326;15243.775
512.132;13081.994;  -10.075;15945.876
512.719;13627.360;   -7.796;16340.369
513.305;14571.697;  -10.606;18011.766
513.892;15397.971;  -11.486;19754.971
514.479;16730.168;   -9.126;20967.805
515.066;18193.006;   -6.026;22299.793
515.652;19472.100;   -8.466;22908.660
516.239;20522.803;  -10.886;23798.875
516.825;21378.254;  -11.496;25567.275
517.412;22404.613;   -5.796;28154.959
517.998;23067.096;  -10.506;28344.111
518.585;23148.816;  -10.076;27134.219
519.171;23683.293;   -8.315;27268.576
519.758;25183.051;   -8.596;28964.129
520.344;27006.396;   -8.466;30664.494
520.930;26940.436;  -11.006;32550.605
521.516;27947.869;  -10.495;35422.895
522.103;30054.875;   -5.526;38280.004
522.689;30584.926;   -8.746;37835.117
523.275;30212.248;  -11.376;37288.613
523.861;31489.023;  -11.156;37281.395
524.447;32745.992;   -8.135;37846.949
525.033;32455.336;   -7.896;38321.949
525.619;32511.283;  -12.476;38579.285
526.205;33775.758;   -9.516;40622.875
526.791;35637.164;   -6.926;42258.836
527.377;35235.051;   -8.346;42966.902
527.963;35291.332;   -8.717;42018.949
528.549;32002.803;  -11.016;42476.828
529.135;29599.594;   -8.536;41854.852
529.721;30567.426;   -9.666;41237.711
530.306;32554.977;  -10.066;41259.445
530.892;34052.902;  -11.356;41506.047
531.478;36023.102;   -6.596;43559.613
532.063;38970.789;   -8.836;47695.563
532.649;39430.723;  -10.047;50808.324
533.235;39942.375;   -9.746;51787.500
533.820;40281.879;   -6.566;52145.035
534.406;41394.672;  -10.817;51133.488
534.991;40864.977;   -9.416;49996.805
535.576;39097.980;   -9.036;48882.852
536.162;39004.734;   -6.156;46942.285
536.747;38476.285;  -11.607;45711.746
537.333;39006.977;  -11.787;48510.180
537.918;38957.930;  -12.437;50439.891
538.503;37367.809;   -7.196;50863.711
539.088;36477.715;  -10.556;50906.922
539.673;39751.945;   -8.767;52621.965
540.259;43112.363;  -10.026;52368.094
540.844;42461.086;   -7.416;50879.109
541.429;44205.461;   -9.467;52077.777
542.014;47113.828;   -9.527;52716.695
542.599;46438.273;   -9.946;52363.281
543.184;43929.496;   -7.927;53187.137
543.769;45221.113;   -9.297;54697.605
544.354;44876.266;  -10.127;53913.914
544.938;43645.313;   -9.267;49680.164
545.523;45518.035;   -6.506;47386.277
546.108;48445.621;   -9.787;49151.949
546.693;50260.426;  -11.587;51384.637
547.278;49989.820;  -10.986;51853.254
547.862;47087.230;   -8.206;51173.750
548.447;42614.207;  -10.067;51691.395
549.031;42138.152;   -9.637;52456.703
549.616;47020.023;   -9.926;52714.516
550.201;46439.941;   -6.347;52414.598
550.785;47362.652;   -7.917;52355.059
551.370;46399.848;  -10.867;54589.453
551.954;45904.199;   -9.047;58267.348
552.538;46787.086;   -7.827;59062.176
553.123;45258.738;  -10.287;58115.285
553.707;43022.086;  -12.178;56556.285
554.291;44769.520;   -8.717;56201.668
554.876;47503.238;   -7.457;55335.762
555.460;47506.887;  -10.387;54155.703
556.044;48253.445;   -9.618;53721.484
556.628;46907.891;  -11.567;53731.016
557.212;45760.383;   -8.097;54312.531
557.796;44099.570;  -11.077;53797.773
558.380;44212.805;  -11.108;56145.984
558.964;44854.414;   -9.057;57277.930
559.548;46192.031;   -6.977;56459.641
560.132;44314.980;  -11.457;54434.543
560.716;42891.266;  -11.378;54800.617
561.300;43901.090;   -9.577;57606.945
561.884;45188.285;   -7.127;58972.445
562.467;43533.430;   -7.118;57327.570
563.051;42836.176;  -13.358;54962.434
563.635;43761.457;  -10.178;52594.473
564.219;44119.863;   -7.837;50610.410
564.802;45240.902;  -11.398;49551.180
565.386;44990.938;  -12.788;48370.953
565.969;44077.363;   -9.077;48178.871
566.553;43288.098;   -6.207;49957.305
567.136;44130.320;   -8.568;50369.594
567.720;40585.961;  -11.868;49492.004
568.303;38673.746;   -8.268;50616.352
568.887;38640.082;   -8.698;50727.148
569.470;38811.914;   -6.808;51698.379
570.053;37393.742;  -13.188;52122.078
570.637;35976.801;  -12.037;52536.438
571.220;36028.234;   -8.577;51186.098
571.803;36523.516;   -8.498;51032.762
572.386;38460.074;  -10.498;49609.887
572.969;40977.758;   -9.388;48285.926
573.552;39448.758;   -8.338;47624.285
574.135;38046.316;   -8.518;45498.641
574.718;35535.305;  -13.628;41970.434
575.301;34659.777;  -10.893;41447.137
575.884;33784.254;   -8.158;40923.836
576.467;34903.164;  -10.328;45267.723
577.050;36642.141;  -13.058;48175.543
577.633;38015.785;   -9.458;47729.328
578.216;37183.938;   -8.928;47579.793
578.799;36211.094;   -9.358;47820.996
579.381;35019.438;  -11.388;48115.551
579.964;33024.254;  -11.718;47333.766
580.547;34718.285;   -8.588;46668.969
581.129;35959.945;   -8.859;44466.141
581.712;36983.699;  -10.729;44164.922
582.294;37555.441;  -11.118;46477.855
582.877;37239.668;   -5.218;48244.254
583.459;34995.461;   -8.679;47437.895
584.042;32964.270;  -10.709;46943.219
584.624;33313.543;  -11.669;46792.227
585.206;33042.793;   -8.218;46557.250
585.789;33036.363;  -10.569;45793.773
586.371;35825.746;  -11.859;43836.391
586.953;36667.293;  -10.719;42972.492
587.536;38166.547;   -7.198;42487.211
588.118;38372.191;   -8.720;42086.414
588.700;34257.930;  -10.439;43389.930
589.282;33153.906;   -9.198;43646.039
589.864;34105.410;   -9.199;43438.109
590.446;35273.773;  -11.319;43151.926
591.028;35223.617;  -11.159;42781.867
591.610;34165.742;  -11.779;42839.098
592.192;31559.799;   -7.668;42820.402
592.774;30005.553;  -11.949;40724.277
593.356;28712.375;  -12.129;39874.789
593.937;27655.963;  -10.669;39980.648
594.519;29781.646;   -6.509;42069.633
595.101;31990.566;  -10.849;42976.031
595.683;32222.596;  -11.679;44084.441
596.264;33214.090;   -9.049;43478.797
596.846;32590.199;   -8.849;43803.672
597.427;32482.051;   -9.570;42986.934
598.009;34099.410;  -12.620;42832.219
598.591;34421.293;  -10.039;42580.086
599.172;33644.434;  -10.369;43061.805
599.753;33672.910;   -9.140;41691.469
600.335;35324.434;  -11.430;40692.520
600.916;33614.484;   -9.939;39982.422
601.498;31051.146;   -8.479;40318.617
602.079;29613.189;  -10.920;40670.609
602.660;29520.395;  -11.480;41450.898
603.241;31041.521;  -11.699;41137.738
603.823;29892.621;   -9.579;38868.797
604.404;29296.129;  -10.620;38182.785
604.985;30945.877;  -10.450;38078.047
605.566;30716.301;   -9.129;38056.633
606.147;30918.281;   -7.510;37020.418
606.728;32484.443;  -10.660;37883.359
607.309;31038.291;  -11.740;38748.273
607.890;30558.467;   -9.759;38850.230
608.471;29999.818;   -8.250;37457.918
609.051;29157.381;   -9.240;36066.457
609.632;28222.504;  -12.120;35991.074
610.213;28987.451;   -9.110;37402.641
610.794;29672.039;   -8.030;38383.363
611.374;29328.885;   -8.110;40562.387
611.955;29984.545;  -13.560;38533.727
612.536;31370.529;  -11.400;36951.789
613.116;31044.670;   -8.070;37197.891
613.697;31281.307;  -10.830;38411.125
614.277;29712.539;  -11.641;38673.938
614.858;30529.484;  -13.310;37075.863
615.438;29624.648;   -7.460;35092.906
616.019;27030.563;   -7.601;33666.301
616.599;27615.580;  -12.020;34189.023
617.179;29602.029;  -11.780;36952.047
617.760;30753.424;   -8.570;39582.574
618.340;31838.516;  -11.471;38943.977
618.920;33045.996;  -11.170;37594.156
619.500;32748.662;  -11.071;37866.938
620.080;31623.629;   -7.750;37869.043
620.660;32727.342;  -12.711;36868.617
621.241;34091.816;  -10.211;36352.309
621.821;34409.625;  -10.961;35459.520
622.401;33453.680;   -7.720;35207.414
622.980;32689.307;   -8.981;35980.422
623.560;31216.115;   -9.331;37351.328
624.140;29976.475;   -9.850;34388.582
624.720;24937.361;   -7.451;32368.764
625.300;21507.275;   -9.070;32638.629
625.880;24832.258;  -12.601;34599.035
626.459;28777.588;  -11.751;36831.738
627.039;31859.795;   -9.281;38299.098
627.619;31623.324;   -8.801;38289.574
628.198;30109.422;  -12.071;37220.695
628.778;29400.738;   -9.461;37632.563
629.357;30085.078;   -8.491;38003.012
629.937;29910.234;   -9.721;38402.039
630.516;29463.555;   -9.951;37868.801
631.096;29376.191;  -11.731;35760.410
631.675;31871.404;   -8.572;35225.219
632.254;36938.445;  -11.282;35130.289
632.834;36256.109;  -13.322;35794.570
633.413;34269.707;  -10.301;35788.922
633.992;31637.609;   -8.582;34532.863
634.571;32595.102;   -8.352;33590.113
635.151;35566.832;  -11.912;34943.863
635.730;33813.449;  -10.511;35352.523
636.309;30173.768;   -7.731;35366.605
636.888;27843.490;   -9.952;36165.637
637.467;28457.551;  -11.672;37515.902
638.046;30183.506;   -8.901;39288.695
638.625;33356.703;   -7.912;38279.699
639.204;33112.125;  -10.022;37741.598
639.782;31582.953;  -12.252;38364.551
640.361;28087.840;  -10.041;36740.621
640.940;25205.963;  -11.161;34950.082
641.519;25897.592;   -9.701;34137.398
642.097;28673.354;  -11.271;35654.258
642.676;31437.152;   -8.651;35637.957
643.255;32354.961;   -8.711;36567.074
643.833;31647.105;   -9.581;37809.434
644.412;31600.938;  -13.711;37337.293
644.990;30391.484;  -11.811;37018.531
645.569;30234.648;   -9.411;36518.469
646.147;29401.453;  -10.291;36186.430
646.726;29349.176;  -12.401;36267.688
647.304;30728.461;  -10.411;36647.625
647.882;32451.564;   -9.651;39286.742
648.461;34025.734;   -9.631;39157.703
649.039;32336.359;  -11.881;35412.883
649.617;31508.871;   -9.661;34744.918
650.195;31250.371;   -9.301;35403.098
650.773;29937.701;  -10.511;35053.797
651.352;27461.070;  -11.521;33756.816
651.930;25072.977;  -12.211;31868.773
652.508;23613.305;   -9.171;33121.551
653.086;27584.283;   -9.371;33564.793
653.663;30532.980;  -13.161;34054.668
654.241;29169.820;  -13.031;35693.309
654.819;30880.678;   -9.371;36422.906
655.397;31099.313;  -10.511;38213.484
655.975;30596.637;  -10.371;39507.625
656.553;30384.041;  -10.051;39498.223
657.130;28715.012;  -10.061;40395.480
657.708;27831.252;   -9.561;39242.020
658.286;27919.020;  -11.511;38920.020
658.863;29308.568;  -10.261;40202.898
659.441;32387.938;   -7.531;39677.938
660.018;31992.283;   -9.501;40413.355
660.596;30796.326;  -13.301;39931.414
661.173;32630.283;  -11.211;39604.531
661.750;32593.549;   -9.951;39700.070
662.328;31292.047;   -9.390;39292.809
662.905;30526.514;  -11.330;38235.648
663.482;26472.506;   -9.050;36212.305
664.060;24724.619;   -8.240;35944.945
664.637;27665.047;  -10.050;35170.785
665.214;29491.854;  -11.760;34197.523
665.791;31114.014;  -10.530;34549.520
666.368;29889.125;   -9.690;35118.578
666.945;30368.891;   -9.320;36019.418
667.522;31957.059;  -11.860;36048.438
668.099;31667.359;  -10.770;36243.914
668.676;30452.068;   -6.260;35958.875
669.253;29149.293;   -7.000;37384.730
669.830;29726.182;  -10.190;36779.629
670.407;29470.504;   -9.550;35231.289
670.984;29218.807;   -9.260;35544.270
671.560;29646.484;   -9.280;35466.867
672.137;28929.217;  -11.810;34280.863
672.714;29692.420;  -11.490;34632.863
673.290;30206.342;   -7.740;35135.422
673.867;30610.191;  -10.660;36114.480
674.443;30648.154;  -12.230;36152.859
675.020;28724.521;  -10.450;35327.238
675.596;29738.234;   -9.260;35795.176
676.173;30137.654;  -10.780;35430.355
676.749;29939.002;  -13.690;33549.516
677.326;30041.740;  -11.980;32210.012
677.902;30106.750;   -8.630;32068.871
678.478;29502.016;  -10.730;32583.891
679.054;28941.436;  -10.520;32088.928
679.631;29186.084;  -11.920;30978.848
680.207;30558.885;   -7.490;33160.887
680.783;32192.342;   -9.860;35570.363
681.359;31317.152;  -13.380;36125.184
681.935;30739.080;  -12.480;35240.922
682.511;30125.484;   -7.900;34429.961
683.087;30372.346;   -7.710;34463.680
683.663;30013.176;  -11.480;34648.898
684.239;28708.289;  -14.090;34546.457
684.815;28142.674;   -7.560;35586.375
685.390;28504.752;   -9.910;35821.895
685.966;28928.693;  -11.159;35085.871
686.542;31128.172;  -11.169;34198.230
687.118;33397.637;   -5.959;32847.707
687.693;33909.773;  -10.329;32794.027
688.269;33534.637;  -12.059;33072.367
688.844;31479.035;  -10.909;33141.664
689.420;29135.490;   -8.019;33965.742
689.995;27041.875;   -8.399;34655.523
690.571;25848.416;  -10.949;33576.742
691.146;26322.443;   -9.619;32657.219
691.722;25855.334;   -8.999;32526.979
692.297;25691.029;  -11.589;33014.617
692.872;27483.953;  -11.739;34012.254
693.448;27119.930;  -11.059;34237.434
694.023;26332.643;  -10.139;34142.672
694.598;28263.746;   -9.029;34132.031
695.173;28597.586;  -13.319;34205.250
695.748;27731.494;  -10.169;32882.488
696.323;27766.334;   -8.339;32864.906
696.898;28040.480;   -8.169;33170.004
697.473;28172.848;  -12.309;32432.984
698.048;27673.322;  -10.989;31649.303
698.623;27393.848;   -9.329;30778.141
699.198;29288.330;   -9.849;31140.119
699.773;30376.553;  -12.329;31764.299
700.348;28733.525;  -10.389;31780.816
700.922;28789.672;   -9.269;32046.375
701.497;29684.744;   -9.329;32603.574
702.072;29952.002;  -10.789;34799.871
702.646;28606.211;  -10.839;35793.172
703.221;26352.227;   -9.099;35201.590
703.795;28430.051;  -10.939;34764.527
704.370;29014.746;  -12.859;34307.367
704.944;29482.607;  -11.559;33509.887
705.519;30293.279;   -7.939;31388.584
706.093;31530.533;  -10.499;31340.104
706.668;31824.938;  -11.289;32630.281
707.242;30735.641;  -11.509;32728.779
707.816;29245.660;   -9.639;32947.238
708.390;27696.447;  -11.429;33277.855
708.965;28155.303;  -11.869;33834.336
709.539;28140.240;  -11.689;33709.273
710.113;28497.695;  -10.478;33044.313
710.687;27955.598;  -10.228;31953.992
711.261;26301.264;  -13.698;30505.949
711.835;26186.152;  -13.378;30262.369
712.409;26977.385;   -9.698;31254.447
712.983;29133.496;  -11.898;32754.986
713.557;30109.732;  -15.138;34018.824
714.131;29581.703;  -14.098;34579.625
714.704;28691.998;   -9.958;33890.262
715.278;26572.160;  -10.028;33531.102
715.852;25446.242;  -11.148;33601.660
716.425;26067.424;   -9.068;33515.117
716.999;26802.920;  -10.038;33185.555
717.573;27856.625;   -9.798;33905.996
718.146;28927.455;  -12.378;35199.293
718.720;29076.604;  -11.918;35060.551
719.293;28491.549;   -8.088;34973.230
719.867;31314.252;  -10.888;36394.449
720.440;31166.271;  -11.938;36663.008
721.013;29486.303;  -12.818;35102.426
721.587;27971.938;  -10.298;33985.266
722.160;26862.160;  -10.048;33524.965
722.733;25809.469;  -12.108;32987.043
723.306;26101.826;  -10.818;33066.301
723.880;28593.176;   -8.908;33399.500
724.453;30828.102;   -9.878;33468.297
725.026;29958.113;  -11.188;33816.637
725.599;26954.371;  -11.678;32797.996
726.172;26871.449;   -9.618;33187.434
726.745;27786.691;   -8.258;35136.613
727.318;29060.918;  -12.978;35751.730
727.891;29799.475;  -12.148;35890.430
728.463;29646.586;   -8.968;34822.090
729.036;28671.699;  -10.188;32895.086
729.609;29234.330;  -11.788;31823.225
730.182;26134.125;  -11.788;31445.283
730.754;23674.900;  -10.268;32373.223
731.327;23849.762;   -9.998;33676.820
731.900;24176.086;  -12.228;33417.000
732.472;25426.467;  -13.848;31978.498
733.045;27410.232;   -8.698;30368.777
733.617;27443.584;  -10.607;30574.215
734.190;27104.184;  -11.507;31280.975
734.762;24132.473;  -13.647;31674.412
735.334;22252.016;   -9.767;31247.291
735.907;22976.506;   -9.897;29876.211
736.479;23294.449;  -11.637;29808.488
737.051;23056.025;   -9.567;30233.547
737.623;24032.744;   -8.187;31469.086
738.195;24625.057;  -11.187;31784.225
738.768;26295.449;  -12.337;32120.523
739.340;26730.473;  -12.227;32094.342
739.912;25672.254;  -11.057;31312.680
740.484;24234.027;  -10.207;31946.238
741.056;23041.959;  -10.047;32984.059
741.628;24751.990;  -13.627;33897.715
742.199;26990.896;   -7.177;33213.016
742.771;25275.412;  -10.797;31369.113
743.343;22864.918;  -11.997;31865.473
743.915;21878.979;  -12.867;32388.631
744.487;21986.998;   -7.617;31079.568
745.058;22217.541;   -9.557;30570.107
745.630;22559.250;   -9.877;29970.127
746.201;23412.586;  -14.177;29186.766
746.773;24044.279;   -9.237;28805.723
747.344;23919.455;   -9.847;29591.223
747.916;22493.916;  -11.657;31412.201
748.487;22629.689;  -10.587;32194.898
749.059;23740.861;   -8.707;32533.719
749.630;24348.855;  -10.537;32158.518
750.201;23385.121;  -11.687;30855.395
750.773;21608.357;  -11.647;28622.555
751.344;21533.281;   -7.147;28405.732
751.915;22881.779;   -9.757;28461.551
752.486;22942.518;  -12.427;27842.850
753.057;20651.414;  -12.227;27845.008
753.628;19328.568;  -10.417;27728.107
754.199;20380.836;  -11.767;27381.086
754.770;21411.686;  -11.187;25882.203
755.341;21423.314;  -10.507;25886.184
755.912;21597.512;   -9.387;26050.861
756.483;21241.211;  -10.647;26798.779
757.054;19539.051;  -11.837;27048.238
757.625;18221.732;  -12.716;26294.838
758.195;17847.684;   -9.666;26142.076
758.766;17509.838;   -8.656;26392.234
759.337;18313.953;  -12.856;26334.594
759.907;19980.939;  -13.366;27579.652
760.478;20894.582;   -8.576;28352.770
761.048;20290.635;  -10.526;27325.088
761.619;19397.561;  -11.116;26460.428
762.189;19492.828;  -12.136;26029.826
762.760;20543.766;   -9.456;26430.145
763.330;21667.256;   -7.136;26670.902
763.900;21169.939;  -11.786;26603.021
764.471;18588.600;  -11.546;25542.740
765.041;17282.389;   -8.096;24358.459
765.611;17378.867;   -8.876;23991.297
766.181;17782.500;  -12.196;24470.236
766.751;18669.783;  -11.636;24845.975
767.321;18392.908;  -10.156;24533.633
767.891;16536.055;  -11.766;24916.492
768.461;16003.292;  -14.936;24776.771
769.031;16457.076;  -12.356;24757.988
769.601;18030.406;   -7.526;24181.088
770.171;18017.707;  -10.766;23670.387
770.741;17315.020;  -13.176;22960.045
771.311;17439.490;  -10.616;22917.523
771.880;17829.064;   -9.576;23562.941
772.450;17436.969;  -10.336;24216.500
773.020;17294.814;  -13.516;24140.398
773.589;16526.141;  -13.466;24414.857
774.159;15847.563;   -8.686;23858.717
774.729;15528.235;   -9.476;22942.135
775.298;15141.811;  -13.666;22324.033
775.867;14728.840;  -11.716;21140.313
776.437;14771.227;   -9.906;20838.092
777.006;14614.079;  -12.166;20599.510
777.576;14532.813;  -12.356;20508.809
778.145;14639.984;  -11.646;20732.947
778.714;14520.490;   -8.226;21062.465
779.283;13797.303;   -9.556;20949.664
779.853;13295.364;  -14.116;20508.623
780.422;13799.571;  -11.506;20649.082
780.991;13350.681;   -9.556;21527.520
781.560;12162.609;   -9.095;22632.658
782.129;11999.253;  -12.135;23048.277
782.698;12029.430;  -10.865;23438.555
783.267;11628.992;   -9.335;23267.734
783.836;11533.771;  -11.045;22415.133
784.404;12486.621;  -13.865;20443.152
784.973;13079.325;  -13.095;19699.150
785.542;13025.166;  -11.575;19763.828
786.111;12850.938;   -9.705;20341.408
786.679;12403.438;  -12.105;20207.967
787.248;12171.096;  -12.455;19516.465
787.817;11957.814;  -11.535;18900.363
788.385;11528.185;   -9.765;17879.121
788.954;10974.953;  -14.005;17658.301
789.522;10470.237;  -11.955;17788.879
790.090;11024.415;  -10.135;18118.277
790.659;11466.198;  -10.975;18338.736
791.227;10960.449;  -13.375;18508.615
791.795;11402.211;  -12.375;17898.254
792.364;11812.326;  -10.725;17295.133
792.932;12133.685;   -9.715;16822.051
793.500;12241.757;  -12.675;17040.148
794.068;12386.794;  -13.495;17179.787
794.636;12516.406;  -10.885;16664.246
795.204;11895.938;  -11.045;16524.545
795.772;11964.061;  -13.175;17274.564
796.340;11517.532;  -12.445;17891.002
796.908;11312.591;   -9.735;17648.561
797.476;11245.918;   -9.815;17064.080
798.044;10828.845;  -13.985;16672.777
798.612;10020.321;  -13.115;17023.996
799.180; 9633.121;  -10.185;16561.615
799.747; 9588.749;   -9.055;15962.773
800.315; 9312.400;  -12.385;15296.992
800.883; 8972.669;  -15.035;14801.771
801.450; 8998.744;  -10.365;14534.430
802.018; 9055.234;   -9.855;14173.248
802.585; 9139.073;  -11.905;14029.547
803.153; 9172.505;  -11.585;13836.846
803.720; 9044.942;   -9.095;13567.324
804.287; 8614.131;   -9.135;13360.622
804.855; 8166.666;  -11.604;13681.981
805.422; 8051.414;  -11.794;13536.560
805.989; 8080.013;  -10.734;13355.958
806.556; 8242.039;  -10.444;13747.896
807.124; 8475.435;  -12.764;13987.376
807.691; 8437.466;  -12.964;14038.674
808.258; 8242.785;  -11.134;14120.152
808.825; 7942.520;   -9.854;13860.111
809.392; 8037.254;  -10.504;13268.790
809.959; 7576.642;  -13.054;12680.389
810.526; 7123.259;   -8.294;12427.308
811.093; 7154.199;   -8.394;12030.105
811.659; 7798.082;  -12.304;11653.664
812.226; 8337.735;  -13.944;11637.183
812.793; 8062.614;  -10.484;11611.521
813.360; 7427.249;  -10.144;11885.181
813.926; 7079.999;  -11.684;12770.539
814.493; 6852.595;  -13.644;12677.638
815.060; 6452.097;   -9.724;11974.336
815.626; 6441.713;   -9.854;11594.715
816.193; 6860.233;  -13.254;11579.474
816.759; 6890.907;  -13.204;11666.972
817.325; 6951.443;   -9.434;11325.530
817.892; 7339.064;  -10.134;11105.369
818.458; 7785.823;  -13.474;10843.928
819.024; 7407.119;  -11.854;10714.406
819.591; 7101.132;  -10.244;10469.165
820.157; 6875.256;  -10.704;10235.523
820.723; 6335.400;  -12.324;10847.563
821.289; 6030.654;   -9.444;11040.980
821.855; 5961.395;   -8.374;10357.100
822.421; 5970.232;  -10.234; 9978.918
822.987; 6006.566;  -13.294; 9754.177
823.553; 5685.412;  -10.884;10065.755
824.119; 5471.124;   -8.884;10036.294
824.685; 5561.573;   -6.784;10029.192
825.251; 5666.040;  -12.004;10199.230
825.816; 5643.599;  -11.474; 9820.189
826.382; 5432.413;   -9.174; 9297.248
826.948; 5640.090;   -9.214; 9381.347
827.513; 6038.838;  -10.774; 9450.726
828.079; 5843.742;  -11.924; 9472.444
828.645; 5236.921;  -10.543; 9292.643
829.210; 5143.061;  -10.533; 9065.341
829.776; 5147.001;  -10.753; 9132.620
830.341; 5040.628;  -10.173; 9092.878
830.906; 5238.072;  -10.743; 9078.557
831.472; 5616.286;  -11.113; 8534.535
832.037; 5390.467;  -10.603; 8677.874
832.602; 4811.229;  -13.323; 8628.692
833.167; 4515.397;  -10.823; 8879.031
833.733; 4439.969;  -10.113; 9189.790
834.298; 4593.826;  -13.583; 9052.608
834.863; 4678.700;  -12.703; 8895.087
835.428; 4648.669;  -10.523; 8824.266
835.993; 4477.985;   -6.963; 8845.385
836.558; 4297.838;  -10.763; 8888.563
837.123; 4416.641;   -9.903; 8966.582
837.688; 4654.645;   -9.913; 8617.860
838.253; 4918.493;  -10.283; 8590.699
838.817; 5142.137;  -12.963; 8443.797
839.382; 5061.885;  -14.243; 8799.356
839.947; 4747.449;  -10.733; 8810.595
840.511; 4455.247;   -9.383; 8796.394
841.076; 4064.940;  -12.563; 8347.231
841.641; 4088.984;  -12.953; 8224.330
842.205; 4171.697;   -7.043; 8223.349
842.770; 4259.920;   -8.163; 8622.107
843.334; 4425.950;  -12.503; 8410.386
843.898; 4349.034;  -11.693; 8337.465
844.463; 4340.298;  -10.203; 8506.283
845.027; 4105.843;   -9.533; 8280.962
845.591; 3917.997;  -13.443; 8231.141
846.156; 3925.801;  -13.143; 7969.179
846.720; 3836.928;   -9.433; 7768.278
847.284; 3730.437;  -11.033; 7630.957
847.848; 3604.635;  -10.403; 7472.395
848.412; 3515.840;  -11.553; 7437.394
848.976; 3559.586;   -8.393; 7674.592
849.540; 3473.575;   -8.713; 7836.011
850.104; 3560.733;  -12.463; 7913.669
850.668; 3917.407;  -12.973; 7694.508
851.232; 4030.079;  -10.793; 7756.887
851.796; 3871.800;  -10.662; 7926.545
852.359; 3570.010;  -13.082; 7827.844
852.923; 3383.714;  -12.192; 7641.163
853.487; 3202.555;  -11.912; 7342.501
854.050; 3160.089;  -10.892; 7042.820
854.614; 3297.350;  -13.992; 7151.338
855.177; 3418.781;  -11.732; 7105.077
855.741; 3447.278;   -8.962; 6989.675
856.304; 3329.599;   -9.442; 6596.634
856.868; 3286.211;  -14.192; 6356.272
857.431; 3364.477;  -12.702; 6468.571
857.995; 3451.178;   -9.942; 6373.210
858.558; 3455.356;   -9.112; 6324.448
859.121; 3195.295;  -12.932; 6408.327
859.684; 3080.339;  -13.442; 6347.886
860.247; 3200.257;  -10.632; 6321.264
860.810; 3199.374;  -11.272; 6301.903
861.374; 2948.636;   -9.832; 6607.881
861.937; 2689.531;  -11.762; 6408.200
862.500; 2679.725;   -9.722; 6572.639
863.062; 2854.670;  -10.512; 6387.297
863.625; 3023.405;  -11.232; 6190.836
864.188; 3185.033;  -14.112; 5807.254
864.751; 3246.267;  -11.302; 5682.413
865.314; 3136.400;  -10.112; 5547.492
865.876; 2917.819;  -12.182; 5500.150
866.439; 2897.641;  -10.722; 5415.909
867.002; 2849.381;   -9.252; 5501.567
867.564; 2654.797;   -9.572; 5413.946
868.127; 2445.667;  -13.142; 5160.325
868.689; 2344.630;  -12.902; 5133.183
869.252; 2245.124;   -9.732; 5252.382
869.814; 2150.819;   -9.432; 5297.141
870.377; 2157.144;  -11.552; 5390.919
870.939; 2215.615;   -9.052; 5599.898
871.501; 2288.132;  -10.982; 5248.336
872.063; 2301.430;  -12.292; 4854.235
872.626; 2266.780;  -14.912; 4817.074
873.188; 2299.377;  -13.112; 4987.732
873.750; 2271.232;  -13.442; 4868.651
874.312; 2162.945;   -9.402; 4779.330
874.874; 2070.613;  -11.062; 4866.348
875.436; 1976.205;  -13.931; 4718.887
875.998; 1964.791;   -9.561; 4660.005
876.560; 1995.814;  -11.321; 4462.964
877.122; 1948.521;  -12.221; 4145.042
877.683; 1861.944;  -12.191; 4056.481
878.245; 1796.516;  -12.101; 3950.740
878.807; 1837.783;   -8.971; 4058.958
879.369; 1859.304;  -12.071; 3954.677
879.930; 1752.442;  -14.621; 3941.495
880.492; 1680.871;  -10.311; 4067.014
881.053; 1671.590;  -10.901; 3859.633
881.615; 1629.949;  -14.411; 3776.071
882.176; 1613.109;  -13.761; 3734.750
882.738; 1598.855;   -9.181; 3678.489
883.299; 1481.341;  -11.791; 3405.407
883.860; 1263.547;  -13.121; 3351.106
884.422; 1002.021;  -11.211; 3394.044
884.983;  790.258;  -10.091; 3166.443
885.544;  702.765;   -8.461; 3189.802
886.105;  695.535;  -12.361; 3160.360
886.666;  708.393;  -14.141; 3093.059
887.227;  723.794;  -11.361; 2941.957
887.788;  723.192;  -11.401; 2974.836
888.349;  710.896;  -13.791; 2721.214
888.910;  732.887;  -13.191; 2696.493
889.471;  757.881;   -9.881; 2560.172
890.032;  755.923;   -9.881; 2558.190
890.593;  747.320;  -10.371; 2567.669
891.153;  728.559;  -13.301; 2460.307
891.714;  691.524;  -11.431; 2372.046
892.275;  661.202;  -11.291; 2309.505
892.835;  630.733;  -11.471; 2382.543
893.396;  585.366;  -11.541; 2295.502
893.956;  535.119;  -11.181; 2162.420
894.517;  501.729;  -11.741; 2125.439
895.077;  498.599;  -11.671; 2086.978
895.638;  498.754;  -11.311; 2126.316
896.198;  472.848;   -9.831; 1838.275
896.758;  432.317;   -8.421; 1892.813
897.319;  404.627;  -12.351; 1792.232
897.879;  390.207;  -13.511; 1762.751
898.439;  366.203;  -12.001; 1661.149
898.999;  343.903;  -10.180; 1781.468
899.559;  338.728;  -12.030; 1703.347
900.119;  333.486;  -15.710; 1537.525
900.679;  328.135;   -8.900; 1638.384
901.239;  314.978;   -8.340; 1527.902
901.799;  305.144;  -13.910; 1456.441
902.359;  298.233;  -13.460; 1357.140
902.919;  291.930;  -11.490; 1331.118
903.479;  280.971;  -12.110; 1317.257
904.038;  262.379;  -11.720; 1262.595
904.598;  245.715;  -13.610; 1152.034
905.158;  241.621;  -11.040; 1240.893
905.717;  236.174;  -10.900; 1233.691
906.277;  226.219;  -15.080; 1217.330
906.836;  215.599;  -13.380; 1222.408
907.396;  206.569;  -10.780; 1193.047
907.955;  200.075;   -8.500; 1182.526
908.515;  194.682;  -12.760; 1099.364
909.074;  185.711;  -11.900; 1092.863
909.633;  177.487;   -8.950; 1069.121
910.192;  172.678;   -8.770; 1196.460
910.752;  166.967;  -12.390; 1029.960
911.311;  164.313;  -13.680; 1009.780
911.870;  161.956;  -12.370;  971.460
912.429;  163.712;  -10.900; 1094.080
912.988;  162.805;  -11.690; 1081.060
913.547;  158.853;  -13.240;  940.380
914.106;  153.771;  -11.990;  999.420
914.665;  151.189;   -9.990;  984.020
915.224;  151.455;  -12.880; 1035.760
915.782;  151.870;  -12.350;  922.560
916.341;  151.131;   -9.110; 1049.840
916.900;  146.834;   -9.270;  925.260
917.458;  145.995;  -13.240;  884.220
918.017;  144.760;  -13.550;  942.600
918.576;  144.150;  -12.320;  904.440
919.134;  143.085;  -11.490;  837.980
919.693;  141.698;  -13.670;  893.060
920.251;  139.025;  -15.470;  876.500
920.809;  136.968;  -11.290;  839.580
921.368;  137.761;  -10.210;  885.360
921.926;  138.121;  -12.140;  842.940
922.484;  135.319;  -13.080;  903.360
923.042;  134.628;  -11.720;  880.340
923.601;  137.122;   -7.480;  998.680
924.159;  136.321;  -11.570;  935.560
924.717;  132.976;  -13.840;  841.080
925.275;  133.201;  -10.640;  903.240
925.833;  132.924;  -11.540;  779.320
926.391;  134.468;  -12.960;  938.380
926.949;  132.429;  -14.130;  857.680
927.506;  131.793;  -11.750;  903.500
928.064;  131.890;  -10.250;  877.580
928.622;  132.531;  -13.030;  880.100
929.180;  131.850;  -13.400;  814.180
929.737;  132.418;  -10.700;  808.540
930.295;  137.066;  -10.070;  928.480
930.853;  138.497;  -11.960;  849.100
931.410;  137.711;  -13.120;  821.120
931.968;  137.153;  -10.770;  940.660
932.525;  136.982;  -10.680;  909.380
933.082;  138.008;  -13.130;  811.440
933.640;  138.134;  -13.210;  925.900
934.197;  135.739;  -11.060;  886.360
934.754;  137.908;   -9.580;  897.780
935.312;  141.226;  -14.000;  863.340
935.869;  145.280;  -10.710; 1012.980
936.426;  144.685;   -9.860;  872.800
936.983;  146.927;   -9.710;  889.020
937.540;  145.968;  -13.990;  838.280
938.097;  144.642;  -14.040;  940.120
938.654;  144.283;  -10.310;  898.860
939.211;  147.553;  -10.560;  952.480
939.768;  151.606;  -13.900;  915.420
940.324;  154.075;  -14.760;  904.200
940.881;  154.649;  -10.370;  878.500
941.438;  155.112;   -8.260; 1021.200
941.995;  152.943;  -12.540;  992.560
942.551;  149.114;  -14.670;  875.620
943.108;  149.638;  -10.450;  937.920
943.664;  152.264;  -10.750;  869.340
944.221;  156.884;  -11.550; 1088.140
944.777;  153.032;  -14.770;  869.680
945.334;  153.340;  -12.820;  884.840
945.890;  155.418;  -10.130;  946.480
946.446;  155.624;  -13.470;  947.020
947.003;  157.309;  -12.120;  964.940
947.559;  158.717;   -9.980; 1063.040
948.115;  158.344;   -9.080; 1026.540
948.671;  157.322;  -10.830;  967.300
949.227;  153.790;  -12.440;  859.560
949.783;  151.143;  -12.910;  858.900
950.339;  152.752;  -10.270;  991.000
950.895;  153.581;  -13.630; 1023.840
951.451;  152.614;  -15.100;  925.280
952.007;  152.279;  -11.330;  998.540
952.563;  153.933;  -10.580;  937.780
953.118;  153.653;  -13.440;  904.940
953.674;  152.517;  -12.710;  935.780
954.230;  151.413;  -10.350;  949.640
954.785;  149.380;   -9.190;  936.640
955.341;  147.437;  -11.200;  998.160
955.897;  145.184;  -16.560;  834.660
956.452;  145.955;  -12.570;  953.840
957.008;  145.307;   -7.970; 1083.640
957.563;  144.087;  -11.940; 1009.540
958.118;  138.365;  -13.450;  877.700
958.674;  137.191;  -12.030;  946.780
959.229;  138.838;   -9.410; 1013.980
959.784;  137.042;  -12.000;  832.400
960.339;  136.709;  -14.780; 1001.280
960.894;  132.556;   -9.860;  963.760
961.449;  128.882;   -9.970;  859.960
962.004;  130.464;  -10.900; 1212.840
962.559;  124.979;  -13.150;  860.140
963.114;  121.334;  -13.740;  742.480
963.669;  121.512;   -9.820;  915.500
964.224;  121.036;  -13.890;  874.340
964.779;  119.621;  -12.600;  828.420
965.334;  119.506;  -10.950; 1017.860
965.888;  119.475;  -11.170;  875.360
966.443;  121.933;  -12.540;  972.380
966.998;  122.402;  -15.780;  819.460
967.552;  119.541;   -9.760;  908.380
968.107;  116.380;   -9.060;  868.300
968.661;  119.130;  -11.950;  922.440
969.216;  118.559;  -12.800;  856.280
969.770;  117.572;  -11.210;  917.200
970.324;  117.795;  -11.610;  923.140
970.879;  114.691;  -11.370;  947.180
971.433;  110.996;  -12.540;  952.720
971.987;  106.082;  -11.320;  895.340
972.541;  103.347;  -10.720;  917.100
973.095;  104.995;   -9.680; 1009.460
973.649;  102.199;  -11.440;  809.480
974.203;  100.040;  -11.210;  829.040
974.757;  100.478;  -10.240;  855.220
975.311;  101.581;  -13.720;  872.600
975.865;  100.085;  -13.770;  881.820
976.419;   97.608;  -11.690;  857.400
976.973;   98.522;   -9.510;  849.620
977.526;  100.635;  -12.620;  949.920
978.080;   99.436;  -12.010;  796.780
978.634;  100.167;  -10.170;  921.320
979.187;   97.963;   -9.020;  905.400
979.741;   95.951;   -9.820; 1018.380
980.294;   90.936;  -14.870;  789.160
980.848;   88.791;  -12.380;  717.220
981.401;   91.497;  -10.350;  816.540
981.955;   93.497;  -13.720;  844.300
982.508;   91.808;  -11.490;  746.340
983.061;   92.425;  -10.000;  915.260
983.615;   88.227;  -11.480;  798.800
984.168;   85.084;  -13.220;  770.080
984.721;   83.565;  -13.960;  880.760
985.274;   82.892;  -10.870;  867.500
985.827;   82.686;   -9.790;  834.220
986.380;   80.288;  -13.120;  721.340
986.933;   79.544;  -12.450;  864.800
987.486;   77.101;  -10.210;  861.920
988.039;   76.694;   -8.430;  863.100
988.591;   75.663;  -10.520;  893.260
989.144;   72.834;  -14.860;  737.260
989.697;   70.937;  -13.080;  758.740
990.250;   71.465;  -10.150;  858.100
990.802;   72.188;  -13.430;  755.860
991.355;   72.043;  -12.750;  974.880
991.907;   69.172;  -12.040;  864.320
992.460;   66.300;  -11.330;  753.760
993.012;   67.969;  -13.610;  749.540
993.565;   65.505;  -13.460;  711.360
994.117;   66.900;   -9.360;  950.780
994.669;   63.586;  -11.300;  701.320
995.221;   62.253;  -13.540;  791.920
995.774;   60.333;  -13.430;  787.580
996.326;   58.323;  -12.520;  740.220
996.878;   58.533;  -10.950;  838.420
997.430;   57.042;  -14.300;  699.860
997.982;   55.809;  -13.760;  750.140
998.534;   54.594;  -11.530;  739.060
999.086;   53.929;  -10.310;  738.220
999.638;   52.770;  -12.530;  661.380
1000.190;   52.169;  -11.840;  699.320
1000.741;   51.398;  -10.260;  742.700
1001.293;   50.812;   -8.860;  686.020
1001.845;   50.384;  -13.700;  676.640
1002.396;   50.013;  -12.100;  743.400
1002.948;   49.093;  -12.760;  737.400
1003.500;   47.727;  -10.380;  723.780
1004.051;   48.836;  -11.900;  907.580
1004.603;   47.593;  -12.250;  791.820
1005.154;   42.553;  -13.210;  608.980
1005.705;   41.826;  -10.950;  723.960
1006.257;   43.173;  -13.880;  707.220
1006.808;   41.422;  -12.840;  685.460
1007.359;   39.831;  -10.570;  763.240
1007.910;   39.294;   -9.620;  646.640
1008.461;   39.800;  -13.630;  732.940
1009.013;   38.805;  -17.200;  588.340
1009.564;   38.620;  -10.200;  793.520
1010.115;   36.743;  -12.570;  597.040
1010.665;   37.978;  -15.150;  602.160
1011.216;   36.998;  -14.480;  667.920
1011.767;   36.414;  -11.340;  697.920
1012.318;   36.666;   -9.780;  736.980
1012.869;   35.882;  -12.380;  679.000
1013.419;   35.337;  -15.560;  603.120
1013.970;   35.172;  -11.010;  666.640
1014.521;   34.706;  -11.610;  620.620
1015.071;   35.952;  -13.450;  670.380
1015.622;   34.818;  -13.870;  635.460
1016.172;   33.724;  -11.610;  596.820
1016.723;   34.065;  -12.120;  614.380
1017.273;   34.327;  -13.620;  604.160
1017.823;   33.725;  -14.140;  650.340
1018.374;   32.567;  -12.800;  611.760
1018.924;   32.958;  -12.340;  716.880
1019.474;   33.786;  -11.410;  718.880
1020.024;   32.040;  -14.770;  657.580
1020.574;   32.303;   -9.780;  726.160
1021.124;   32.969;   -8.560;  673.580
1021.674;   31.553;  -15.190;  559.120
1022.224;   32.796;  -13.530;  708.940
1022.774;   31.466;  -13.280;  668.820
1023.324;   32.375;  -10.690;  753.520
1023.874;   33.880;  -10.240;  875.760
1024.423;   30.203;  -12.540;  613.700
1024.973;   29.801;  -10.010;  610.760
1025.523;   29.608;  -10.550;  620.960
1026.072;   29.785;  -13.560;  606.420
1026.622;   29.361;  -15.120;  675.740
1027.172;   29.976;  -11.260;  715.660
1027.721;   29.091;  -11.410;  601.220
1028.270;   30.207;  -13.530;  663.400
1028.820;   29.392;  -13.680;  638.080
1029.369;   28.686;  -13.520;  612.700
1029.918;   28.784;  -10.980;  649.840
1030.468;   29.061;  -13.530;  564.780
1031.017;   29.116;  -13.170;  634.800
1031.566;   27.130;  -12.200;  608.900
1032.115;   27.634;   -9.960;  694.500
1032.664;   27.754;  -13.210;  596.480
1033.213;   28.850;  -12.500;  735.420
1033.762;   27.294;  -11.910;  635.620
1034.311;   26.918;   -9.640;  677.220
1034.860;   28.120;  -13.310;  691.000
1035.408;   27.089;  -11.830;  722.720
1035.957;   27.245;  -12.000;  719.540
1036.506;   25.254;  -11.690;  530.800
1037.055;   28.675;  -10.990;  844.320
1037.603;   26.671;  -15.120;  664.000
1038.152;   24.387;  -12.450;  534.760
1038.700;   25.109;  -10.560;  585.740
1039.249;   25.663;  -11.080;  681.220
1039.797;   25.555;  -12.540;  633.360
1040.345;   24.883;  -11.920;  705.420
1040.894;   25.155;  -11.410;  625.300
1041.442;   25.304;  -14.320;  632.200
1041.990;   24.310;  -16.240;  559.160
1042.538;   22.432;  -11.680;  536.180
1043.087;   23.397;  -10.760;  570.860
1043.635;   25.751;  -11.850;  670.500
1044.183;   23.526;  -15.480;  586.400
1044.731;   22.339;  -11.770;  576.000
1045.279;   22.845;  -13.090;  674.920
1045.827;   25.405;  -12.440;  892.400
1046.374;   22.875;  -13.840;  515.420
1046.922;   21.437;  -13.220;  590.580
1047.470;   23.672;  -10.230;  691.300
1048.018;   23.610;  -14.590;  647.960
1048.565;   23.875;  -12.050;  708.600
1049.113;   21.443;  -11.650;  557.000
1049.660;   21.667;  -10.510;  629.660
1050.208;   23.130;  -13.310;  675.640
1050.755;   21.835;  -15.900;  606.580
1051.303;   22.279;  -11.430;  686.820
1051.850;   21.577;   -8.480;  635.120
1052.397;   20.847;  -15.010;  473.960
1052.945;   21.475;  -13.960;  617.760
1053.492;   21.742;  -13.150;  741.840
1054.039;   21.566;   -9.630;  720.180
1054.586;   21.300;  -13.680;  557.240
1055.133;   21.768;  -14.570;  693.140
1055.680;   20.510;  -13.820;  646.620
1056.227;   19.915;  -11.730;  542.780
1056.774;   21.537;  -12.480;  794.980
1057.321;   19.837;  -13.930;  523.260
1057.868;   19.760;  -11.690;  651.320
1058.415;   19.721;   -9.520;  651.980
1058.961;   21.107;  -13.160;  678.940
1059.508;   20.064;  -12.920;  643.820
1060.055;   18.980;  -11.920;  581.780
1060.601;   19.897;  -11.500;  624.300
1061.148;   19.938;  -14.330;  616.820
1061.694;   18.860;  -16.870;  592.580
1062.241;   19.086;  -10.330;  596.320
1062.787;   18.917;  -10.620;  663.140
1063.334;   21.017;  -10.110;  808.560
1063.880;   19.634;  -13.400;  668.360
1064.426;   18.075;  -10.680;  706.820
1064.972;   18.263;   -9.920;  601.340
1065.518;   17.374;  -10.980;  566.640
1066.065;   18.648;  -14.890;  624.460
1066.611;   17.220;  -12.870;  598.800
1067.157;   17.995;  -12.950;  641.860
1067.703;   18.379;  -13.540;  668.480
1068.249;   18.016;  -13.540;  605.220
1068.794;   16.866;  -12.600;  626.880
1069.340;   16.224;  -10.620;  578.960
1069.886;   17.958;  -12.830;  590.700
1070.432;   16.365;  -14.870;  541.720
1070.977;   16.033;  -11.980;  601.080
1071.523;   16.109;   -8.200;  573.060
1072.068;   16.978;  -12.330;  582.000
1072.614;   17.249;  -16.370;  527.760
1073.160;   16.395;  -11.100;  687.040
1073.705;   15.261;  -10.480;  572.520
1074.250;   16.276;  -14.520;  559.900
1074.796;   16.884;  -11.460;  655.160
1075.341;   15.818;  -11.950;  664.100
1075.886;   15.429;  -11.460;  594.240
1076.431;   15.643;  -13.770;  649.880
1076.976;   15.739;  -12.680;  639.220
1077.521;   14.307;  -13.170;  583.080
1078.067;   13.488;  -10.860;  579.400
1078.612;   15.698;  -13.920;  661.620
1079.156;   15.036;  -13.880;  601.540
1079.701;   14.398;  -13.120;  693.260
1080.246;   15.799;   -9.940;  696.300
1080.791;   15.214;  -14.740;  625.020
1081.336;   15.006;  -13.750;  659.320
1081.880;   13.855;  -13.400;  649.680
1082.425;   13.352;  -12.220;  573.480
1082.970;   15.232;  -11.610;  717.040
1083.514;   14.300;  -13.580;  597.000
1084.059;   12.666;  -12.810;  586.720
1084.603;   12.949;  -12.320;  565.840
1085.147;   13.851;  -13.190;  645.220
1085.692;   15.164;  -12.480;  716.800
1086.236;   11.892;  -13.020;  503.140
1086.780;   14.406;   -9.190;  751.440
1087.325;   14.092;  -12.480;  654.620
1087.869;   13.756;  -12.450;  610.700
1088.413;   13.452;  -12.240;  705.040
1088.957;   11.500;   -9.020;  543.400
1089.501;   13.939;  -10.320;  766.640
1090.045;   13.754;  -12.720;  726.480
1090.589;   10.596;  -13.690;  569.920
1091.133;   12.016;  -10.020;  673.340
1091.676;   13.187;  -12.330;  591.940
1092.220;   11.944;  -14.970;  600.920
1092.764;   13.241;  -12.430;  706.960
1093.307;   11.565;   -9.800;  673.780
1093.851;   11.371;  -14.970;  556.540
1094.395;   11.873;  -15.310;  683.140
1094.938;   11.187;  -10.370;  632.520
1095.482;   10.934;  -11.050;  559.800
1096.025;   11.723;  -11.840;  710.880
1096.568;   12.666;  -12.840;  779.280
1097.112;    9.628;  -14.700;  508.180
1097.655;   11.235;   -8.720;  603.000
1098.198;   10.324;  -13.610;  600.180
1098.741;   10.448;  -13.350;  612.860
1099.285;   11.073;  -11.230;  657.300
1099.828;    9.051;  -11.840;  439.400
1100.371;   10.007;  -10.840;  608.160
1100.914;   10.257;  -14.190;  682.660
1101.457;    9.826;  -11.240;  679.900
1101.999;    9.093;  -11.270;  584.680
1102.542;   10.369;  -11.480;  641.440
1103.085;    9.446;  -11.750;  658.500
1103.628;   10.060;  -11.400;  762.060
1104.170;    9.363;  -10.490;  588.280
1104.713;    9.866;  -10.600;  646.700
1105.256;    9.117;  -14.360;  557.440
1105.798;    7.816;  -13.210;  499.980
1106.341;    9.345;  -10.270;  728.900
1106.883;    9.247;  -12.200;  521.340
1107.425;    9.368;  -13.110;  668.180
1107.968;    7.915;  -12.840;  612.380
1108.510;    8.844;   -6.480;  684.960
1109.052;    8.437;  -13.940;  612.620
1109.594;    7.867;  -13.690;  554.440
1110.136;    8.235;  -11.880;  643.220
1110.679;    7.981;   -9.500;  633.080
1111.221;    8.483;  -14.160;  604.460
1111.763;    8.120;  -13.980;  559.220
1112.304;    6.258;  -13.880;  547.140
1112.846;    7.891;  -12.210;  666.240
1113.388;   11.308;  -11.390;  942.180
1113.930;    8.213;  -14.540;  694.200
1114.472;    6.861;  -12.640;  606.540
1115.013;    6.301;  -11.620;  551.280
1115.555;    7.404;  -13.640;  587.100
1116.097;    6.945;  -15.380;  579.480
1116.638;    6.649;  -12.640;  684.600
1117.180;    7.746;   -9.850;  667.740
1117.721;    7.554;  -13.690;  568.580
1118.262;    7.938;  -12.680;  677.960
1118.804;    7.245;  -12.530;  637.340
1119.345;    5.637;  -11.690;  578.400
1119.886;    7.951;  -13.380;  704.040
1120.427;    6.706;  -14.070;  589.020
1120.969;    4.420;  -13.500;  597.920
1121.510;    5.427;  -11.480;  563.060
1122.051;    6.742;  -12.830;  723.580
1122.592;    6.567;  -14.290;  655.420
1123.133;    4.201;  -12.400;  547.940
1123.673;    6.866;  -10.130;  706.480
1124.214;    5.494;  -12.930;  612.460
1124.755;    6.703;  -14.380;  639.460
1125.296;    5.785;  -14.000;  627.320
1125.836;    6.332;  -10.070;  691.500
1126.377;    5.651;  -12.640;  599.660
1126.918;    6.282;  -12.960;  614.980
1127.458;    4.634;  -13.350;  622.220
1127.999;    5.207;  -10.750;  656.980
1128.539;    6.183;  -12.350;  694.240
1129.079;    4.795;  -14.860;  632.720
1129.620;    4.232;  -13.840;  558.100
1130.160;    4.642;  -12.330;  539.480
1130.700;    5.750;  -14.530;  640.840
1131.240;    5.770;  -12.530;  643.700
1131.781;    3.756;  -14.450;  619.680
1132.321;    4.108;   -9.790;  599.120
1132.861;    3.878;  -14.860;  564.200
1133.401;    3.057;  -14.290;  593.940
1133.941;    3.863;  -11.750;  626.280
1134.481;    3.652;   -9.920;  597.580
1135.020;    3.579;  -12.290;  609.160
1135.560;    4.839;  -11.650;  674.940
1136.100;    3.226;  -16.270;  501.160
1136.640;    3.361;  -10.890;  510.480
1137.179;    3.914;  -14.180;  537.960
1137.719;    3.133;  -16.250;  605.400
1138.258;    3.115;  -14.230;  587.360
1138.798;    3.054;   -9.090;  663.780
1139.337;    2.539;  -15.130;  482.840
1139.877;    3.837;  -13.680;  642.360
1140.416;    4.764;  -11.320;  878.060
1140.955;    2.332;  -10.860;  535.380
1141.494;    3.576;  -12.920;  669.280
1142.034;    2.964;  -13.930;  583.520
1142.573;    3.072;  -11.440;  646.280
1143.112;    1.709;  -12.000;  553.480
1143.651;    3.219;  -13.670;  536.480
1144.190;    3.337;  -12.730;  691.640
1144.729;    2.629;  -14.560;  607.420
1145.267;    2.202;  -11.830;  584.900
1145.806;    3.830;  -12.230;  637.040
1146.345;    2.059;  -14.130;  635.020
1146.884;    1.809;  -11.590;  622.500
1147.422;    0.937;  -12.550;  533.060
1147.961;    3.631;  -11.180;  708.460
1148.500;    2.699;  -11.510;  669.720
1149.038;    2.554;  -11.640;  632.500
1149.577;    2.344;  -10.130;  698.640
1150.115;    0.771;  -13.970;  452.280
1150.653;    2.507;  -14.520;  607.340
1151.192;    0.857;  -12.810;  552.920
1151.730;    1.605;   -9.100;  652.560
1152.268;    0.975;  -12.220;  589.520
1152.806;    1.482;  -14.140;  571.180
1153.344;   -0.154;  -12.350;  577.640
1153.882;    1.673;   -8.980;  600.060
1154.421;    0.151;  -15.190;  470.620
1154.958;    0.760;  -15.210;  595.240
1155.496;    1.668;  -12.850;  645.280
1156.034;    1.018;   -9.940;  721.880
1156.572;    2.269;  -13.570;  667.060
1157.110;    0.188;  -14.590;  473.940
1157.647;    1.034;  -13.030;  676.960
1158.185;    0.113;  -12.140;  564.320
1158.723;   -0.940;  -14.390;  509.200
1159.260;    1.502;  -14.090;  701.700
1159.798;    0.925;  -11.920;  658.160
1160.335;    0.215;  -11.110;  631.820

