
Integration time [ms]:   3.276
Averaging Nr. [scans]: 1000
Smoothing Nr. [pixels]: 0
Data measured with spectrometer [name]: 7414430SP
Wave   ;Sample   ;Dark     ;Reference
[nm]   ;[counts] ;[counts] ;[counts] 

288.544;  157.131;    7.793;  793.890
289.143;  160.949;    7.462;  681.602
289.742;  162.067;    8.602;  828.814
290.341;  149.027;    1.321;  789.841
290.940;  139.271;   -0.709;  730.702
291.538;  138.906;    0.881;  881.108
292.137;  138.706;    0.122;  792.581
292.736;  141.814;   -1.929;  975.101
293.335;  138.506;   -8.229;  735.086
293.934;  139.087;   -5.279;  781.677
294.532;  138.166;   -1.369; 1031.958
295.131;  124.135;   -7.641;  834.394
295.730;  124.937;   -8.420;  809.588
296.328;  123.760;   -5.611;  783.442
296.927;  122.777;   -5.781;  779.652
297.525;  123.901;   -6.361;  781.236
298.124;  113.699;  -11.382;  654.009
298.722;  117.585;   -7.641;  761.933
299.321;  115.993;   -6.811;  708.597
299.919;  113.084;   -6.991;  751.918
300.518;  109.726;  -10.362;  689.338
301.116;  111.428;   -9.581;  691.381
301.715;  111.336;   -4.891;  730.222
302.313;  110.233;   -8.801;  704.943
302.911;  105.965;   -8.522;  733.830
303.509;  110.622;   -6.171;  925.627
304.108;  107.701;   -7.311;  760.383
304.706;  107.220;   -8.321;  801.664
305.304;  102.668;  -10.222;  796.707
305.902;  107.534;   -6.021;  784.484
306.500;  103.107;   -4.971;  728.200
307.098;  101.224;   -7.061;  746.560
307.696;   99.106;   -8.801;  780.432
308.294;  100.763;   -6.411;  731.359
308.892;  102.005;   -2.901;  759.769
309.490;   97.554;   -5.041;  712.161
310.088;   95.124;   -5.002;  788.444
310.686;   99.161;   -2.041;  821.749
311.284;   96.119;   -2.351;  766.040
311.882;   93.388;   -4.422;  731.225
312.480;   89.853;   -4.192;  697.167
313.078;   91.641;   -1.172;  808.331
313.675;   92.859;   -2.601;  691.600
314.273;   87.525;   -1.312;  797.837
314.871;   86.446;   -3.942;  589.829
315.468;   84.802;   -2.802;  652.090
316.066;   87.356;   -0.701;  694.427
316.664;   80.152;   -4.362;  656.351
317.261;   83.889;   -2.872;  910.128
317.859;   79.846;   -2.022;  768.735
318.456;   80.816;   -0.531;  830.096
319.054;   76.192;   -3.912;  787.828
319.651;   74.467;   -4.752;  759.928
320.249;   74.120;   -2.602;  810.188
320.846;   71.472;   -0.821;  714.286
321.443;   68.475;   -4.642;  832.135
322.041;   65.071;   -5.002;  812.315
322.638;   62.407;   -3.982;  701.456
323.235;   64.274;   -3.411;  665.683
323.833;   61.078;   -7.361;  740.354
324.430;   56.449;   -8.611;  615.900
325.027;   56.717;   -4.061;  876.855
325.624;   56.494;   -4.031;  644.532
326.221;   53.893;   -7.481;  689.717
326.818;   53.670;   -5.281;  818.332
327.415;   56.264;   -7.460;  748.828
328.012;   55.751;   -5.510;  690.585
328.609;   54.048;   -7.880;  731.389
329.206;   51.873;   -8.331;  778.621
329.803;   51.093;   -5.121;  737.841
330.400;   54.715;   -4.510;  704.260
330.997;   57.183;   -6.441;  817.147
331.594;   55.095;   -8.831;  788.185
332.191;   60.102;   -7.621;  728.722
332.787;   63.609;   -4.591;  844.463
333.384;   62.742;   -7.412;  763.093
333.981;   61.810;   -8.293;  815.687
334.578;   64.626;   -7.052;  708.378
335.174;   66.938;   -3.102;  731.469
335.771;   66.645;   -5.943;  836.456
336.367;   64.012;   -7.393;  710.631
336.964;   67.893;   -4.063;  793.266
337.561;   65.699;   -3.813;  731.112
338.157;   60.322;   -4.654;  911.916
338.754;   59.883;   -7.934;  796.589
339.350;   58.189;   -4.414;  722.493
339.946;   58.923;   -4.664;  773.135
340.543;   51.039;   -6.375;  846.136
341.139;   45.698;   -9.815;  720.836
341.735;   43.036;   -4.526;  772.593
342.332;   41.782;   -4.895;  691.472
342.928;   41.535;   -4.295;  795.394
343.524;   35.298;   -5.476;  761.684
344.120;   31.113;   -5.856;  738.562
344.716;   34.885;   -2.155;  723.717
345.313;   31.947;   -6.275;  795.342
345.909;   27.517;   -8.815;  627.336
346.505;   28.539;   -5.305;  740.247
347.101;   29.554;   -2.674;  827.864
347.697;   29.257;   -4.344;  785.398
348.293;   23.371;   -9.975;  627.244
348.889;   23.794;   -5.774;  745.914
349.485;   25.040;   -5.004;  688.205
350.081;   25.212;   -4.704;  772.592
350.676;   20.457;   -6.635;  691.606
351.272;   23.732;   -4.504;  809.530
351.868;   23.766;   -3.914;  780.497
352.464;   21.078;   -9.044;  723.932
353.059;   17.776;   -8.314;  646.017
353.655;   20.482;   -7.024;  777.063
354.251;   21.634;   -5.343;  759.845
354.846;   15.914;   -8.604;  740.646
355.442;   14.020;   -6.945;  753.071
356.038;   15.306;   -7.564;  751.708
356.633;   15.521;   -5.814;  728.594
357.229;   13.378;   -7.364;  724.757
357.824;   11.977;   -8.024;  703.600
358.420;   10.481;   -9.384;  679.726
359.015;   11.832;   -5.104;  695.357
359.610;   12.389;   -6.854;  763.920
360.206;    6.426;  -10.185;  603.240
360.801;    9.727;   -7.054;  646.503
361.396;   10.856;   -5.034;  725.975
361.992;    7.130;   -8.284;  668.220
362.587;    4.227;   -8.625;  670.160
363.182;    6.092;   -7.674;  689.631
363.777;    7.142;   -5.164;  738.242
364.372;    5.979;   -8.604;  737.314
364.967;    2.458;   -9.055;  680.744
365.563;    7.476;   -6.114;  815.567
366.158;    4.413;   -5.814;  685.161
366.753;    4.167;   -7.854;  649.263
367.348;    2.735;   -7.804;  746.056
367.942;    2.185;   -7.954;  697.298
368.537;    1.481;   -4.984;  754.245
369.132;    1.539;   -8.564;  703.428
369.727;   -1.932;   -8.855;  638.079
370.322;   -1.094;   -6.245;  580.186
370.917;   -1.125;   -6.425;  710.646
371.511;    1.661;   -6.294;  861.834
372.106;   -1.898;   -7.685;  776.964
372.701;   -5.196;   -7.335;  585.988
373.296;    0.028;   -4.564;  863.135
373.890;   -4.649;  -10.235;  647.840
374.485;   -6.541;   -7.885;  691.199
375.079;   -3.005;   -7.324;  738.685
375.674;   -2.158;   -3.494;  812.970
376.268;   -5.657;   -8.525;  691.759
376.863;  -11.630;  -10.086;  580.327
377.457;   -5.645;   -7.025;  662.490
378.052;   -7.543;   -3.585;  764.884
378.646;   -7.957;   -7.595;  741.167
379.240;   -8.124;   -8.335;  721.176
379.835;   -7.817;   -5.785;  636.978
380.429;   -9.520;   -4.335;  562.557
381.023;   -9.896;   -6.805;  779.205
381.617;  -12.247;   -9.195;  680.106
382.212;   -9.212;   -6.905;  685.303
382.806;   -8.095;   -3.745;  760.690
383.400;  -11.803;   -7.745;  672.281
383.994;  -12.889;   -9.765;  664.870
384.588;   -9.137;   -6.564;  697.701
385.182;   -7.512;   -5.344;  726.624
385.776;   -9.284;   -8.514;  706.875
386.370;  -12.847;   -9.555;  681.968
386.964;  -11.738;   -8.715;  684.155
387.558;   -9.776;   -6.174;  598.360
388.152;  -13.138;   -8.725;  681.959
388.745;  -11.497;   -7.965;  814.707
389.339;   -9.745;   -5.924;  747.642
389.933;   -9.775;   -5.524;  695.370
390.527;  -10.293;   -7.114;  859.029
391.120;  -16.766;  -10.725;  595.318
391.714;  -12.139;   -8.035;  711.633
392.308;  -10.332;   -3.574;  780.253
392.901;  -14.346;   -7.245;  642.460
393.495;  -15.881;   -9.285;  595.414
394.089;  -12.916;   -5.895;  760.452
394.682;  -14.372;   -4.295;  697.188
395.275;  -14.881;   -9.875;  719.927
395.869;  -16.173;   -8.485;  667.314
396.462;  -14.750;   -7.455;  616.609
397.056;  -10.922;   -5.424;  776.621
397.649;  -15.480;   -6.605;  731.575
398.242;  -13.125;   -8.224;  712.645
398.836;  -11.572;   -7.474;  766.408
399.429;  -12.636;   -7.094;  631.041
400.022;  -17.349;   -9.475;  665.902
400.615;  -14.381;   -7.145;  805.609
401.208;  -12.102;   -7.174;  691.451
401.802;  -14.571;   -5.515;  699.329
402.395;  -14.798;   -9.875;  683.502
402.988;  -17.317;   -8.845;  696.627
403.581;  -13.178;   -8.874;  646.878
404.174;  -11.711;   -5.324;  686.568
404.767;  -14.412;   -9.575;  638.583
405.360;  -16.431;  -10.965;  621.445
405.953;  -10.946;   -8.764;  759.034
406.545;  -11.250;   -7.514;  725.342
407.138;  -15.579;  -10.025;  618.350
407.731;  -14.404;  -10.034;  613.303
408.324;   -9.688;   -9.374;  660.554
408.917;  -10.776;   -6.534;  681.864
409.509;  -12.935;   -8.004;  740.396
410.102;  -15.545;   -9.875;  643.948
410.695;   -9.628;   -8.604;  665.758
411.287;  -10.369;   -6.794;  599.821
411.880;  -11.384;   -9.334;  585.421
412.472;  -14.550;  -10.254;  613.092
413.065;  -11.053;   -6.714;  629.408
413.657;   -8.866;   -7.234;  576.678
414.250;   -8.849;  -10.544;  646.681
414.842;  -11.025;   -9.744;  676.353
415.434;   -7.906;   -6.994;  570.463
416.027;   -4.612;   -5.893;  652.196
416.619;   -7.261;   -7.264;  713.400
417.211;   -6.979;  -10.374;  599.352
417.804;   -3.693;   -7.993;  628.499
418.396;   -7.714;   -7.234;  607.643
418.988;   -5.467;   -9.443;  659.238
419.580;   -9.407;  -10.724;  568.276
420.172;   -6.519;  -10.323;  536.196
420.764;   -2.400;   -8.793;  672.482
421.356;   -3.140;  -11.143;  636.898
421.948;   -5.051;   -8.293;  677.661
422.540;    0.953;   -7.893;  680.027
423.132;   -0.122;   -7.082;  600.641
423.724;   -3.633;   -8.653;  561.267
424.316;   -1.641;  -10.213;  621.345
424.908;    1.833;   -9.762;  591.517
425.500;    2.519;   -5.572;  647.978
426.092;    3.049;   -8.422;  648.268
426.683;    2.000;   -9.283;  684.836
427.275;    5.083;   -7.852;  641.471
427.867;    6.712;   -5.272;  668.948
428.458;    6.971;   -7.682;  732.344
429.050;    5.007;  -10.612;  680.749
429.642;    7.422;   -9.882;  743.124
430.233;    7.336;   -6.962;  569.356
430.825;    9.047;   -6.842;  724.809
431.416;    6.198;   -9.672;  698.241
432.008;   10.865;   -6.552;  651.723
432.599;   10.498;   -6.891;  656.073
433.190;    8.669;  -10.912;  637.670
433.782;    7.233;  -11.172;  590.395
434.373;   14.422;   -6.061;  884.765
434.964;   13.082;   -8.251;  602.920
435.556;   11.254;   -9.722;  634.537
436.147;   13.604;   -9.082;  758.490
436.738;   13.244;   -8.041;  701.099
437.329;   18.250;   -7.341;  721.723
437.920;   11.127;   -8.162;  666.688
438.511;   11.563;  -11.802;  564.526
439.103;   18.690;  -10.191;  623.998
439.694;   19.917;   -7.601;  681.583
440.285;   20.100;   -8.541;  764.432
440.876;   18.744;   -9.751;  845.738
441.466;   18.252;   -9.401;  575.162
442.057;   23.228;   -7.760;  665.814
442.648;   21.706;   -9.971;  746.255
443.239;   20.401;  -11.001;  620.477
443.830;   25.612;   -7.990;  704.958
444.421;   27.108;   -7.910;  655.474
445.011;   24.001;   -8.131;  693.619
445.602;   23.277;   -7.111;  743.126
446.193;   24.652;  -10.920;  488.117
446.783;   29.375;   -6.500;  640.397
447.374;   24.631;   -8.671;  692.759
447.964;   25.194;  -10.781;  713.770
448.555;   34.212;   -9.650;  822.742
449.145;   31.350;   -8.660;  662.853
449.736;   31.642;   -8.990;  803.179
450.326;   31.229;   -9.500;  713.626
450.917;   35.529;   -8.680;  675.324
451.507;   35.131;   -7.520;  600.661
452.097;   35.746;   -8.590;  746.267
452.688;   36.738;  -11.340;  742.160
453.278;   36.554;  -10.100;  566.840
453.868;   41.316;   -6.019;  793.550
454.458;   39.043;   -9.440;  651.141
455.048;   38.845;  -10.560;  711.783
455.639;   41.343;  -11.799;  567.096
456.229;   44.404;   -6.899;  710.694
456.819;   46.254;   -7.389;  751.158
457.409;   46.930;  -11.119;  773.993
457.999;   49.482;   -9.289;  737.505
458.589;   49.045;   -6.139;  686.606
459.179;   49.066;   -8.729;  717.658
459.769;   46.438;   -9.789;  627.099
460.358;   52.102;  -10.259;  797.262
460.948;   51.392;   -7.299;  689.503
461.538;   53.310;  -10.289;  660.677
462.128;   51.286;  -11.269;  664.934
462.717;   57.705;   -9.368;  710.326
463.307;   60.852;   -7.908;  705.846
463.897;   56.207;   -9.599;  656.942
464.486;   55.360;   -9.769;  837.128
465.076;   61.009;   -8.048;  733.776
465.666;   63.639;   -9.358;  652.900
466.255;   61.292;   -7.919;  785.651
466.845;   60.663;  -11.689;  666.749
467.434;   63.511;   -7.818;  725.873
468.023;   65.056;   -7.678;  658.357
468.613;   61.960;  -10.939;  713.946
469.202;   66.533;  -10.118;  646.507
469.791;   70.408;   -9.108;  737.811
470.381;   72.362;   -6.058;  742.813
470.970;   72.255;  -10.428;  711.099
471.559;   72.131;  -10.268;  733.291
472.148;   75.188;   -8.448;  675.737
472.738;   78.047;   -6.917;  765.466
473.327;   77.522;  -11.978;  637.529
473.916;   76.595;  -11.888;  737.446
474.505;   80.706;   -9.437;  751.703
475.094;   84.536;   -6.747;  806.570
475.683;   83.264;   -9.367;  797.699
476.272;   84.988;  -12.637;  730.632
476.861;   87.006;  -10.027;  706.754
477.449;   94.074;   -8.716;  728.487
478.038;   88.323;   -9.577;  692.513
478.627;   88.587;   -9.718;  714.852
479.216;   95.748;   -8.947;  769.441
479.805;   98.653;   -6.256;  783.375
480.393;   98.718;   -7.937; 1008.945
480.982;   98.136;   -7.717;  874.501
481.571;  104.709;   -9.266;  858.333
482.159;  104.147;   -7.636;  705.386
482.748;  104.483;   -9.667;  821.385
483.336;  109.351;  -10.376;  858.209
483.925;  110.192;   -7.147;  774.373
484.513;  116.802;   -7.996;  758.962
485.102;  113.418;  -10.027;  810.965
485.690;  121.362;  -10.446; 1011.050
486.278;  123.728;   -8.446;  979.329
486.867;  124.684;   -6.356;  809.662
487.455;  126.561;   -9.136;  898.229
488.043;  127.811;  -10.646;  748.361
488.631;  136.700;   -7.456; 1005.079
489.220;  140.911;   -6.636;  908.626
489.808;  141.616;  -11.036;  741.415
490.396;  149.353;  -10.246;  914.645
490.984;  156.261;   -8.556;  830.161
491.572;  167.817;   -5.886;  940.315
492.160;  174.961;   -9.486;  919.081
492.748;  186.142;  -10.976;  884.341
493.336;  209.277;   -8.776; 1019.693
493.924;  241.547;   -5.465;  958.077
494.512;  277.770;   -9.986; 1066.638
495.100;  323.249;  -10.636; 1103.280
495.687;  392.950;  -10.885; 1206.373
496.275;  479.504;   -8.126; 1150.796
496.863;  563.568;  -10.586; 1281.171
497.451;  678.627;  -11.926; 1386.805
498.038;  788.293;  -10.885; 1556.729
498.626;  916.776;   -6.315; 1741.407
499.214; 1134.287;   -7.326; 2016.609
499.801; 1380.836;  -11.906; 2220.633
500.389; 1702.772;  -10.466; 2312.494
500.976; 1989.371;   -5.236; 2744.849
501.564; 2492.357;   -8.936; 3148.565
502.151; 3153.344;  -13.176; 3515.999
502.738; 3546.314;  -10.646; 3971.274
503.326; 3942.380;   -9.525; 4403.796
503.913; 4380.620;  -10.856; 5161.749
504.500; 4893.160;  -11.586; 5986.420
505.088; 5492.937;  -10.336; 6381.201
505.675; 6361.891;   -6.355; 6925.547
506.262; 6903.620;   -9.046; 7619.060
506.849; 7304.544;  -10.416; 8733.969
507.436; 7765.402;  -10.305; 9790.121
508.023; 8118.584;   -5.496; 9985.472
508.610; 8202.324;   -7.856;10434.618
509.197; 9164.457;  -10.097;11198.435
509.784;10520.550;  -10.886;12391.194
510.371;11968.978;   -9.315;13603.713
510.958;13050.788;   -9.936;14426.586
511.545;13627.149;   -9.326;15243.775
512.132;13846.535;  -10.075;15945.876
512.719;14334.553;   -7.796;16340.369
513.305;15601.729;  -10.606;18011.766
513.892;17078.264;  -11.486;19754.971
514.479;18303.738;   -9.126;20967.805
515.066;19691.801;   -6.026;22299.793
515.652;19763.254;   -8.466;22908.660
516.239;20244.402;  -10.886;23798.875
516.825;21710.621;  -11.496;25567.275
517.412;23224.953;   -5.796;28154.959
517.998;24340.641;  -10.506;28344.111
518.585;25113.686;  -10.076;27134.219
519.171;24636.469;   -8.315;27268.576
519.758;25224.211;   -8.596;28964.129
520.344;27663.838;   -8.466;30664.494
520.930;26805.389;  -11.006;32550.605
521.516;25227.684;  -10.495;35422.895
522.103;26872.242;   -5.526;38280.004
522.689;29155.150;   -8.746;37835.117
523.275;29929.129;  -11.376;37288.613
523.861;31488.486;  -11.156;37281.395
524.447;30592.496;   -8.135;37846.949
525.033;29718.795;   -7.896;38321.949
525.619;28219.676;  -12.476;38579.285
526.205;27019.279;   -9.516;40622.875
526.791;28855.578;   -6.926;42258.836
527.377;31532.861;   -8.346;42966.902
527.963;35106.844;   -8.717;42018.949
528.549;37220.191;  -11.016;42476.828
529.135;35645.020;   -8.536;41854.852
529.721;35412.105;   -9.666;41237.711
530.306;34302.145;  -10.066;41259.445
530.892;35457.422;  -11.356;41506.047
531.478;37409.941;   -6.596;43559.613
532.063;39203.582;   -8.836;47695.563
532.649;37521.652;  -10.047;50808.324
533.235;37652.172;   -9.746;51787.500
533.820;39795.047;   -6.566;52145.035
534.406;41266.570;  -10.817;51133.488
534.991;43067.352;   -9.416;49996.805
535.576;41558.891;   -9.036;48882.852
536.162;38661.516;   -6.156;46942.285
536.747;38941.883;  -11.607;45711.746
537.333;41593.156;  -11.787;48510.180
537.918;42200.109;  -12.437;50439.891
538.503;41084.824;   -7.196;50863.711
539.088;41176.070;  -10.556;50906.922
539.673;41135.063;   -8.767;52621.965
540.259;36412.602;  -10.026;52368.094
540.844;33288.988;   -7.416;50879.109
541.429;31729.896;   -9.467;52077.777
542.014;32758.986;   -9.527;52716.695
542.599;39043.008;   -9.946;52363.281
543.184;43453.820;   -7.927;53187.137
543.769;45416.293;   -9.297;54697.605
544.354;46362.164;  -10.127;53913.914
544.938;44130.051;   -9.267;49680.164
545.523;42001.645;   -6.506;47386.277
546.108;43939.551;   -9.787;49151.949
546.693;44834.867;  -11.587;51384.637
547.278;44952.043;  -10.986;51853.254
547.862;45459.578;   -8.206;51173.750
548.447;43771.539;  -10.067;51691.395
549.031;43468.863;   -9.637;52456.703
549.616;43896.273;   -9.926;52714.516
550.201;42930.648;   -6.347;52414.598
550.785;43997.297;   -7.917;52355.059
551.370;44986.375;  -10.867;54589.453
551.954;47076.559;   -9.047;58267.348
552.538;46219.742;   -7.827;59062.176
553.123;44033.008;  -10.287;58115.285
553.707;42966.129;  -12.178;56556.285
554.291;40374.664;   -8.717;56201.668
554.876;41906.988;   -7.457;55335.762
555.460;44199.988;  -10.387;54155.703
556.044;45593.910;   -9.618;53721.484
556.628;46172.047;  -11.567;53731.016
557.212;46787.191;   -8.097;54312.531
557.796;48573.543;  -11.077;53797.773
558.380;46809.930;  -11.108;56145.984
558.964;44980.676;   -9.057;57277.930
559.548;42586.926;   -6.977;56459.641
560.132;39154.344;  -11.457;54434.543
560.716;40593.590;  -11.378;54800.617
561.300;42741.930;   -9.577;57606.945
561.884;41431.820;   -7.127;58972.445
562.467;40104.254;   -7.118;57327.570
563.051;38571.926;  -13.358;54962.434
563.635;36607.656;  -10.178;52594.473
564.219;38363.086;   -7.837;50610.410
564.802;41770.227;  -11.398;49551.180
565.386;42275.383;  -12.788;48370.953
565.969;43412.785;   -9.077;48178.871
566.553;42662.391;   -6.207;49957.305
567.136;41213.492;   -8.568;50369.594
567.720;42310.305;  -11.868;49492.004
568.303;43291.730;   -8.268;50616.352
568.887;42390.250;   -8.698;50727.148
569.470;39914.742;   -6.808;51698.379
570.053;37606.863;  -13.188;52122.078
570.637;35372.402;  -12.037;52536.438
571.220;35745.418;   -8.577;51186.098
571.803;35923.102;   -8.498;51032.762
572.386;38175.109;  -10.498;49609.887
572.969;39105.875;   -9.388;48285.926
573.552;39566.559;   -8.338;47624.285
574.135;38984.809;   -8.518;45498.641
574.718;35874.250;  -13.628;41970.434
575.301;35858.172;  -10.893;41447.137
575.884;35842.094;   -8.158;40923.836
576.467;39574.750;  -10.328;45267.723
577.050;39495.871;  -13.058;48175.543
577.633;38072.605;   -9.458;47729.328
578.216;34793.918;   -8.928;47579.793
578.799;32704.404;   -9.358;47820.996
579.381;34213.363;  -11.388;48115.551
579.964;34408.059;  -11.718;47333.766
580.547;33242.504;   -8.588;46668.969
581.129;34141.660;   -8.859;44466.141
581.712;36023.598;  -10.729;44164.922
582.294;35572.277;  -11.118;46477.855
582.877;36263.223;   -5.218;48244.254
583.459;36431.910;   -8.679;47437.895
584.042;37597.953;  -10.709;46943.219
584.624;35909.523;  -11.669;46792.227
585.206;34743.488;   -8.218;46557.250
585.789;35398.035;  -10.569;45793.773
586.371;35769.539;  -11.859;43836.391
586.953;36852.848;  -10.719;42972.492
587.536;38316.109;   -7.198;42487.211
588.118;37292.027;   -8.720;42086.414
588.700;36116.660;  -10.439;43389.930
589.282;33559.461;   -9.198;43646.039
589.864;31438.955;   -9.199;43438.109
590.446;31394.117;  -11.319;43151.926
591.028;30831.297;  -11.159;42781.867
591.610;30832.250;  -11.779;42839.098
592.192;32182.143;   -7.668;42820.402
592.774;31705.682;  -11.949;40724.277
593.356;29989.086;  -12.129;39874.789
593.937;29919.982;  -10.669;39980.648
594.519;32387.039;   -6.509;42069.633
595.101;32449.096;  -10.849;42976.031
595.683;31072.254;  -11.679;44084.441
596.264;30223.863;   -9.049;43478.797
596.846;29994.563;   -8.849;43803.672
597.427;29982.045;   -9.570;42986.934
598.009;31842.336;  -12.620;42832.219
598.591;31772.162;  -10.039;42580.086
599.172;33996.887;  -10.369;43061.805
599.753;36279.316;   -9.140;41691.469
600.335;35806.715;  -11.430;40692.520
600.916;33330.543;   -9.939;39982.422
601.498;30246.367;   -8.479;40318.617
602.079;29684.574;  -10.920;40670.609
602.660;29318.072;  -11.480;41450.898
603.241;30183.371;  -11.699;41137.738
603.823;30590.359;   -9.579;38868.797
604.404;30224.893;  -10.620;38182.785
604.985;32897.953;  -10.450;38078.047
605.566;33623.156;   -9.129;38056.633
606.147;34526.105;   -7.510;37020.418
606.728;33382.066;  -10.660;37883.359
607.309;31579.109;  -11.740;38748.273
607.890;31195.986;   -9.759;38850.230
608.471;30026.602;   -8.250;37457.918
609.051;30305.195;   -9.240;36066.457
609.632;29951.068;  -12.120;35991.074
610.213;29560.365;   -9.110;37402.641
610.794;30854.799;   -8.030;38383.363
611.374;29813.660;   -8.110;40562.387
611.955;29750.979;  -13.560;38533.727
612.536;30821.297;  -11.400;36951.789
613.116;30276.107;   -8.070;37197.891
613.697;30975.135;  -10.830;38411.125
614.277;30659.986;  -11.641;38673.938
614.858;30058.701;  -13.310;37075.863
615.438;30103.949;   -7.460;35092.906
616.019;28233.480;   -7.601;33666.301
616.599;28956.867;  -12.020;34189.023
617.179;28895.422;  -11.780;36952.047
617.760;27813.328;   -8.570;39582.574
618.340;28185.949;  -11.471;38943.977
618.920;28588.258;  -11.170;37594.156
619.500;29634.941;  -11.071;37866.938
620.080;30228.807;   -7.750;37869.043
620.660;30558.373;  -12.711;36868.617
621.241;31317.215;  -10.211;36352.309
621.821;30746.379;  -10.961;35459.520
622.401;30961.836;   -7.720;35207.414
622.980;33006.445;   -8.981;35980.422
623.560;31593.354;   -9.331;37351.328
624.140;27302.086;   -9.850;34388.582
624.720;23454.740;   -7.451;32368.764
625.300;23230.020;   -9.070;32638.629
625.880;27257.867;  -12.601;34599.035
626.459;30493.088;  -11.751;36831.738
627.039;30615.793;   -9.281;38299.098
627.619;29690.592;   -8.801;38289.574
628.198;29858.217;  -12.071;37220.695
628.778;30581.316;   -9.461;37632.563
629.357;31241.586;   -8.491;38003.012
629.937;31002.506;   -9.721;38402.039
630.516;31902.900;   -9.951;37868.801
631.096;33174.707;  -11.731;35760.410
631.675;35397.992;   -8.572;35225.219
632.254;35201.074;  -11.282;35130.289
632.834;33878.148;  -13.322;35794.570
633.413;34638.141;  -10.301;35788.922
633.992;34705.988;   -8.582;34532.863
634.571;35291.355;   -8.352;33590.113
635.151;34557.488;  -11.912;34943.863
635.730;32422.354;  -10.511;35352.523
636.309;32298.961;   -7.731;35366.605
636.888;31857.021;   -9.952;36165.637
637.467;31040.482;  -11.672;37515.902
638.046;29439.908;   -8.901;39288.695
638.625;28735.639;   -7.912;38279.699
639.204;28060.607;  -10.022;37741.598
639.782;29460.938;  -12.252;38364.551
640.361;31592.232;  -10.041;36740.621
640.940;31332.383;  -11.161;34950.082
641.519;30958.834;   -9.701;34137.398
642.097;32105.328;  -11.271;35654.258
642.676;32036.535;   -8.651;35637.957
643.255;30897.707;   -8.711;36567.074
643.833;30640.971;   -9.581;37809.434
644.412;31705.188;  -13.711;37337.293
644.990;33155.656;  -11.811;37018.531
645.569;35919.996;   -9.411;36518.469
646.147;36583.633;  -10.291;36186.430
646.726;34510.441;  -12.401;36267.688
647.304;32949.414;  -10.411;36647.625
647.882;33584.621;   -9.651;39286.742
648.461;33187.375;   -9.631;39157.703
649.039;30840.359;  -11.881;35412.883
649.617;30786.559;   -9.661;34744.918
650.195;31177.852;   -9.301;35403.098
650.773;30531.146;  -10.511;35053.797
651.352;30561.146;  -11.521;33756.816
651.930;29456.492;  -12.211;31868.773
652.508;28404.303;   -9.171;33121.551
653.086;29779.721;   -9.371;33564.793
653.663;31970.955;  -13.161;34054.668
654.241;30690.705;  -13.031;35693.309
654.819;28752.441;   -9.371;36422.906
655.397;29459.037;  -10.511;38213.484
655.975;29736.822;  -10.371;39507.625
656.553;30782.010;  -10.051;39498.223
657.130;31421.973;  -10.061;40395.480
657.708;28302.494;   -9.561;39242.020
658.286;25570.820;  -11.511;38920.020
658.863;26062.988;  -10.261;40202.898
659.441;28876.107;   -7.531;39677.938
660.018;31372.186;   -9.501;40413.355
660.596;32148.279;  -13.301;39931.414
661.173;34821.234;  -11.211;39604.531
661.750;33785.742;   -9.951;39700.070
662.328;31231.018;   -9.390;39292.809
662.905;29832.172;  -11.330;38235.648
663.482;26877.836;   -9.050;36212.305
664.060;24702.150;   -8.240;35944.945
664.637;28797.145;  -10.050;35170.785
665.214;33383.445;  -11.760;34197.523
665.791;32076.660;  -10.530;34549.520
666.368;31616.139;   -9.690;35118.578
666.945;32103.506;   -9.320;36019.418
667.522;32965.434;  -11.860;36048.438
668.099;32251.373;  -10.770;36243.914
668.676;32616.906;   -6.260;35958.875
669.253;34712.820;   -7.000;37384.730
669.830;35006.117;  -10.190;36779.629
670.407;33786.598;   -9.550;35231.289
670.984;32929.172;   -9.260;35544.270
671.560;31214.607;   -9.280;35466.867
672.137;29491.070;  -11.810;34280.863
672.714;29480.449;  -11.490;34632.863
673.290;30376.818;   -7.740;35135.422
673.867;30806.619;  -10.660;36114.480
674.443;30171.408;  -12.230;36152.859
675.020;28812.920;  -10.450;35327.238
675.596;27502.309;   -9.260;35795.176
676.173;28282.125;  -10.780;35430.355
676.749;28874.758;  -13.690;33549.516
677.326;29950.877;  -11.980;32210.012
677.902;27935.693;   -8.630;32068.871
678.478;25945.498;  -10.730;32583.891
679.054;27629.766;  -10.520;32088.928
679.631;29139.168;  -11.920;30978.848
680.207;30499.016;   -7.490;33160.887
680.783;31512.154;   -9.860;35570.363
681.359;31964.621;  -13.380;36125.184
681.935;31002.760;  -12.480;35240.922
682.511;31753.992;   -7.900;34429.961
683.087;32314.379;   -7.710;34463.680
683.663;32905.801;  -11.480;34648.898
684.239;32488.172;  -14.090;34546.457
684.815;33220.875;   -7.560;35586.375
685.390;33194.477;   -9.910;35821.895
685.966;32835.430;  -11.159;35085.871
686.542;33455.031;  -11.169;34198.230
687.118;31981.371;   -5.959;32847.707
687.693;32152.885;  -10.329;32794.027
688.269;31265.660;  -12.059;33072.367
688.844;31914.525;  -10.909;33141.664
689.420;33233.777;   -8.019;33965.742
689.995;30011.430;   -8.399;34655.523
690.571;28984.033;  -10.949;33576.742
691.146;28317.631;   -9.619;32657.219
691.722;26400.799;   -8.999;32526.979
692.297;25743.400;  -11.589;33014.617
692.872;26693.045;  -11.739;34012.254
693.448;26985.348;  -11.059;34237.434
694.023;28669.410;  -10.139;34142.672
694.598;30639.191;   -9.029;34132.031
695.173;30170.836;  -13.319;34205.250
695.748;27495.869;  -10.169;32882.488
696.323;25313.445;   -8.339;32864.906
696.898;25172.770;   -8.169;33170.004
697.473;28385.162;  -12.309;32432.984
698.048;28365.305;  -10.989;31649.303
698.623;27288.686;   -9.329;30778.141
699.198;28728.729;   -9.849;31140.119
699.773;29961.064;  -12.329;31764.299
700.348;29828.855;  -10.389;31780.816
700.922;28117.285;   -9.269;32046.375
701.497;26514.609;   -9.329;32603.574
702.072;28177.795;  -10.789;34799.871
702.646;28144.617;  -10.839;35793.172
703.221;28633.416;   -9.099;35201.590
703.795;29006.498;  -10.939;34764.527
704.370;27578.154;  -12.859;34307.367
704.944;28854.984;  -11.559;33509.887
705.519;30094.441;   -7.939;31388.584
706.093;32123.666;  -10.499;31340.104
706.668;33125.816;  -11.289;32630.281
707.242;31986.891;  -11.509;32728.779
707.816;30438.395;   -9.639;32947.238
708.390;30116.211;  -11.429;33277.855
708.965;31196.729;  -11.869;33834.336
709.539;31237.547;  -11.689;33709.273
710.113;30629.012;  -10.478;33044.313
710.687;27858.641;  -10.228;31953.992
711.261;27135.590;  -13.698;30505.949
711.835;26925.416;  -13.378;30262.369
712.409;26653.156;   -9.698;31254.447
712.983;26295.836;  -11.898;32754.986
713.557;25308.918;  -15.138;34018.824
714.131;26633.918;  -14.098;34579.625
714.704;26554.732;   -9.958;33890.262
715.278;25799.758;  -10.028;33531.102
715.852;24878.832;  -11.148;33601.660
716.425;24391.609;   -9.068;33515.117
716.999;26044.164;  -10.038;33185.555
717.573;26827.314;   -9.798;33905.996
718.146;27861.398;  -12.378;35199.293
718.720;28198.748;  -11.918;35060.551
719.293;27145.984;   -8.088;34973.230
719.867;26194.648;  -10.888;36394.449
720.440;27108.055;  -11.938;36663.008
721.013;29090.998;  -12.818;35102.426
721.587;30773.719;  -10.298;33985.266
722.160;30764.391;  -10.048;33524.965
722.733;28776.148;  -12.108;32987.043
723.306;26381.434;  -10.818;33066.301
723.880;26660.016;   -8.908;33399.500
724.453;25851.838;   -9.878;33468.297
725.026;25924.111;  -11.188;33816.637
725.599;26178.896;  -11.678;32797.996
726.172;25675.313;   -9.618;33187.434
726.745;26630.316;   -8.258;35136.613
727.318;29389.023;  -12.978;35751.730
727.891;31569.803;  -12.148;35890.430
728.463;32819.520;   -8.968;34822.090
729.036;32944.289;  -10.188;32895.086
729.609;30370.082;  -11.788;31823.225
730.182;28534.891;  -11.788;31445.283
730.754;27811.832;  -10.268;32373.223
731.327;27575.748;   -9.998;33676.820
731.900;26811.256;  -12.228;33417.000
732.472;25832.674;  -13.848;31978.498
733.045;25632.311;   -8.698;30368.777
733.617;25096.797;  -10.607;30574.215
734.190;23706.363;  -11.507;31280.975
734.762;23974.246;  -13.647;31674.412
735.334;25124.520;   -9.767;31247.291
735.907;25191.545;   -9.897;29876.211
736.479;23162.559;  -11.637;29808.488
737.051;22869.016;   -9.567;30233.547
737.623;23964.494;   -8.187;31469.086
738.195;25803.209;  -11.187;31784.225
738.768;26154.705;  -12.337;32120.523
739.340;25510.299;  -12.227;32094.342
739.912;25061.961;  -11.057;31312.680
740.484;25963.143;  -10.207;31946.238
741.056;27117.725;  -10.047;32984.059
741.628;26677.078;  -13.627;33897.715
742.199;27329.744;   -7.177;33213.016
742.771;25668.496;  -10.797;31369.113
743.343;24145.135;  -11.997;31865.473
743.915;24242.191;  -12.867;32388.631
744.487;24869.898;   -7.617;31079.568
745.058;26141.525;   -9.557;30570.107
745.630;25791.051;   -9.877;29970.127
746.201;24484.955;  -14.177;29186.766
746.773;24177.578;   -9.237;28805.723
747.344;24451.791;   -9.847;29591.223
747.916;24562.018;  -11.657;31412.201
748.487;24117.195;  -10.587;32194.898
749.059;23958.848;   -8.707;32533.719
749.630;22871.203;  -10.537;32158.518
750.201;23051.432;  -11.687;30855.395
750.773;23166.543;  -11.647;28622.555
751.344;24493.680;   -7.147;28405.732
751.915;24518.006;   -9.757;28461.551
752.486;24142.781;  -12.427;27842.850
753.057;22548.162;  -12.227;27845.008
753.628;22005.787;  -10.417;27728.107
754.199;22036.420;  -11.767;27381.086
754.770;21542.477;  -11.187;25882.203
755.341;21237.021;  -10.507;25886.184
755.912;21597.586;   -9.387;26050.861
756.483;21860.490;  -10.647;26798.779
757.054;21333.018;  -11.837;27048.238
757.625;19539.166;  -12.716;26294.838
758.195;19077.818;   -9.666;26142.076
758.766;20153.285;   -8.656;26392.234
759.337;20016.398;  -12.856;26334.594
759.907;19342.129;  -13.366;27579.652
760.478;18467.832;   -8.576;28352.770
761.048;18981.746;  -10.526;27325.088
761.619;19492.248;  -11.116;26460.428
762.189;19041.793;  -12.136;26029.826
762.760;19014.941;   -9.456;26430.145
763.330;19252.105;   -7.136;26670.902
763.900;19220.111;  -11.786;26603.021
764.471;18565.291;  -11.546;25542.740
765.041;18447.979;   -8.096;24358.459
765.611;18651.631;   -8.876;23991.297
766.181;18598.557;  -12.196;24470.236
766.751;19092.271;  -11.636;24845.975
767.321;19216.395;  -10.156;24533.633
767.891;19054.703;  -11.766;24916.492
768.461;18758.990;  -14.936;24776.771
769.031;17846.803;  -12.356;24757.988
769.601;17500.191;   -7.526;24181.088
770.171;17932.055;  -10.766;23670.387
770.741;18693.096;  -13.176;22960.045
771.311;18335.748;  -10.616;22917.523
771.880;16907.990;   -9.576;23562.941
772.450;16288.653;  -10.336;24216.500
773.020;16558.750;  -13.516;24140.398
773.589;16446.871;  -13.466;24414.857
774.159;15907.899;   -8.686;23858.717
774.729;15247.487;   -9.476;22942.135
775.298;15276.025;  -13.666;22324.033
775.867;15415.842;  -11.716;21140.313
776.437;14902.312;   -9.906;20838.092
777.006;14745.700;  -12.166;20599.510
777.576;16034.766;  -12.356;20508.809
778.145;15302.670;  -11.646;20732.947
778.714;13949.725;   -8.226;21062.465
779.283;13407.779;   -9.556;20949.664
779.853;13217.323;  -14.116;20508.623
780.422;13554.354;  -11.506;20649.082
780.991;14022.537;   -9.556;21527.520
781.560;14610.098;   -9.095;22632.658
782.129;13461.610;  -12.135;23048.277
782.698;12185.256;  -10.865;23438.555
783.267;11573.360;   -9.335;23267.734
783.836;11867.111;  -11.045;22415.133
784.404;12541.625;  -13.865;20443.152
784.973;12776.067;  -13.095;19699.150
785.542;12740.319;  -11.575;19763.828
786.111;12540.259;   -9.705;20341.408
786.679;12312.346;  -12.105;20207.967
787.248;11919.010;  -12.455;19516.465
787.817;11694.724;  -11.535;18900.363
788.385;11524.183;   -9.765;17879.121
788.954;11394.522;  -14.005;17658.301
789.522;11244.212;  -11.955;17788.879
790.090;10380.863;  -10.135;18118.277
790.659; 9593.693;  -10.975;18338.736
791.227; 9689.754;  -13.375;18508.615
791.795;10022.245;  -12.375;17898.254
792.364;10184.211;  -10.725;17295.133
792.932;10455.244;   -9.715;16822.051
793.500;10244.603;  -12.675;17040.148
794.068;10557.135;  -13.495;17179.787
794.636;10616.892;  -10.885;16664.246
795.204;10240.850;  -11.045;16524.545
795.772;10206.537;  -13.175;17274.564
796.340; 9976.703;  -12.445;17891.002
796.908;10124.907;   -9.735;17648.561
797.476;10431.057;   -9.815;17064.080
798.044;10198.665;  -13.985;16672.777
798.612; 9807.660;  -13.115;17023.996
799.180; 9006.746;  -10.185;16561.615
799.747; 8684.524;   -9.055;15962.773
800.315; 8910.705;  -12.385;15296.992
800.883; 8343.111;  -15.035;14801.771
801.450; 7658.071;  -10.365;14534.430
802.018; 7414.227;   -9.855;14173.248
802.585; 7401.449;  -11.905;14029.547
803.153; 7603.659;  -11.585;13836.846
803.720; 7395.655;   -9.095;13567.324
804.287; 7295.556;   -9.135;13360.622
804.855; 7474.333;  -11.604;13681.981
805.422; 7874.155;  -11.794;13536.560
805.989; 8129.939;  -10.734;13355.958
806.556; 8094.399;  -10.444;13747.896
807.124; 8402.713;  -12.764;13987.376
807.691; 8880.786;  -12.964;14038.674
808.258; 8937.414;  -11.134;14120.152
808.825; 8908.641;   -9.854;13860.111
809.392; 8483.327;  -10.504;13268.790
809.959; 7790.718;  -13.054;12680.389
810.526; 7155.982;   -8.294;12427.308
811.093; 6566.538;   -8.394;12030.105
811.659; 6382.167;  -12.304;11653.664
812.226; 6562.983;  -13.944;11637.183
812.793; 6953.217;  -10.484;11611.521
813.360; 7094.191;  -10.144;11885.181
813.926; 7104.749;  -11.684;12770.539
814.493; 7056.158;  -13.644;12677.638
815.060; 6966.632;   -9.724;11974.336
815.626; 7133.278;   -9.854;11594.715
816.193; 7156.877;  -13.254;11579.474
816.759; 6539.077;  -13.204;11666.972
817.325; 6134.579;   -9.434;11325.530
817.892; 6044.722;  -10.134;11105.369
818.458; 6237.293;  -13.474;10843.928
819.024; 6705.361;  -11.854;10714.406
819.591; 6810.456;  -10.244;10469.165
820.157; 6599.606;  -10.704;10235.523
820.723; 6586.542;  -12.324;10847.563
821.289; 6484.655;   -9.444;11040.980
821.855; 6525.028;   -8.374;10357.100
822.421; 6831.187;  -10.234; 9978.918
822.987; 6818.353;  -13.294; 9754.177
823.553; 6537.726;  -10.884;10065.755
824.119; 6310.284;   -8.884;10036.294
824.685; 5837.160;   -6.784;10029.192
825.251; 5756.951;  -12.004;10199.230
825.816; 5493.466;  -11.474; 9820.189
826.382; 5286.066;   -9.174; 9297.248
826.948; 5579.624;   -9.214; 9381.347
827.513; 6013.826;  -10.774; 9450.726
828.079; 6101.337;  -11.924; 9472.444
828.645; 5890.159;  -10.543; 9292.643
829.210; 5762.375;  -10.533; 9065.341
829.776; 5689.333;  -10.753; 9132.620
830.341; 5841.219;  -10.173; 9092.878
830.906; 5881.613;  -10.743; 9078.557
831.472; 5655.701;  -11.113; 8534.535
832.037; 5289.872;  -10.603; 8677.874
832.602; 5149.337;  -13.323; 8628.692
833.167; 4919.833;  -10.823; 8879.031
833.733; 4781.088;  -10.113; 9189.790
834.298; 4639.726;  -13.583; 9052.608
834.863; 4816.867;  -12.703; 8895.087
835.428; 5023.111;  -10.523; 8824.266
835.993; 4926.397;   -6.963; 8845.385
836.558; 4896.123;  -10.763; 8888.563
837.123; 5074.142;   -9.903; 8966.582
837.688; 5451.748;   -9.913; 8617.860
838.253; 5488.793;  -10.283; 8590.699
838.817; 5133.032;  -12.963; 8443.797
839.382; 5008.394;  -14.243; 8799.356
839.947; 5127.575;  -10.733; 8810.595
840.511; 5111.946;   -9.383; 8796.394
841.076; 4943.567;  -12.563; 8347.231
841.641; 4780.957;  -12.953; 8224.330
842.205; 4646.089;   -7.043; 8223.349
842.770; 4448.128;   -8.163; 8622.107
843.334; 4606.338;  -12.503; 8410.386
843.898; 4744.942;  -11.693; 8337.465
844.463; 4314.029;  -10.203; 8506.283
845.027; 4018.672;   -9.533; 8280.962
845.591; 4048.786;  -13.443; 8231.141
846.156; 4085.800;  -13.143; 7969.179
846.720; 3902.441;   -9.433; 7768.278
847.284; 3806.550;  -11.033; 7630.957
847.848; 3785.730;  -10.403; 7472.395
848.412; 3614.910;  -11.553; 7437.394
848.976; 3525.206;   -8.393; 7674.592
849.540; 3495.339;   -8.713; 7836.011
850.104; 3466.565;  -12.463; 7913.669
850.668; 3540.395;  -12.973; 7694.508
851.232; 3526.090;  -10.793; 7756.887
851.796; 3566.775;  -10.662; 7926.545
852.359; 3658.451;  -13.082; 7827.844
852.923; 3624.073;  -12.192; 7641.163
853.487; 3600.224;  -11.912; 7342.501
854.050; 3435.803;  -10.892; 7042.820
854.614; 3491.266;  -13.992; 7151.338
855.177; 3557.131;  -11.732; 7105.077
855.741; 3431.089;   -8.962; 6989.675
856.304; 3292.371;   -9.442; 6596.634
856.868; 3173.872;  -14.192; 6356.272
857.431; 3115.501;  -12.702; 6468.571
857.995; 3119.391;   -9.942; 6373.210
858.558; 3205.979;   -9.112; 6324.448
859.121; 3101.657;  -12.932; 6408.327
859.684; 2952.396;  -13.442; 6347.886
860.247; 2909.794;  -10.632; 6321.264
860.810; 2875.897;  -11.272; 6301.903
861.374; 2809.930;   -9.832; 6607.881
861.937; 2724.761;  -11.762; 6408.200
862.500; 2727.125;   -9.722; 6572.639
863.062; 2712.605;  -10.512; 6387.297
863.625; 2710.549;  -11.232; 6190.836
864.188; 2743.467;  -14.112; 5807.254
864.751; 2763.559;  -11.302; 5682.413
865.314; 2657.002;  -10.112; 5547.492
865.876; 2496.677;  -12.182; 5500.150
866.439; 2339.770;  -10.722; 5415.909
867.002; 2245.086;   -9.252; 5501.567
867.564; 2306.390;   -9.572; 5413.946
868.127; 2355.097;  -13.142; 5160.325
868.689; 2434.886;  -12.902; 5133.183
869.252; 2543.914;   -9.732; 5252.382
869.814; 2477.283;   -9.432; 5297.141
870.377; 2386.991;  -11.552; 5390.919
870.939; 2390.271;   -9.052; 5599.898
871.501; 2344.836;  -10.982; 5248.336
872.063; 2243.047;  -12.292; 4854.235
872.626; 2191.402;  -14.912; 4817.074
873.188; 2103.145;  -13.112; 4987.732
873.750; 2066.907;  -13.442; 4868.651
874.312; 2013.252;   -9.402; 4779.330
874.874; 1966.964;  -11.062; 4866.348
875.436; 1880.427;  -13.931; 4718.887
875.998; 1828.148;   -9.561; 4660.005
876.560; 1935.532;  -11.321; 4462.964
877.122; 2135.764;  -12.221; 4145.042
877.683; 2292.679;  -12.191; 4056.481
878.245; 2134.116;  -12.101; 3950.740
878.807; 1800.871;   -8.971; 4058.958
879.369; 1367.513;  -12.071; 3954.677
879.930; 1048.482;  -14.621; 3941.495
880.492;  976.086;  -10.311; 4067.014
881.053; 1055.876;  -10.901; 3859.633
881.615; 1134.246;  -14.411; 3776.071
882.176; 1157.324;  -13.761; 3734.750
882.738; 1161.278;   -9.181; 3678.489
883.299; 1210.064;  -11.791; 3405.407
883.860; 1268.212;  -13.121; 3351.106
884.422; 1255.023;  -11.211; 3394.044
884.983; 1202.690;  -10.091; 3166.443
885.544; 1179.744;   -8.461; 3189.802
886.105; 1139.063;  -12.361; 3160.360
886.666; 1090.037;  -14.141; 3093.059
887.227; 1066.503;  -11.361; 2941.957
887.788; 1018.816;  -11.401; 2974.836
888.349;  936.240;  -13.791; 2721.214
888.910;  898.785;  -13.191; 2696.493
889.471;  870.392;   -9.881; 2560.172
890.032;  881.256;   -9.881; 2558.190
890.593;  877.961;  -10.371; 2567.669
891.153;  794.631;  -13.301; 2460.307
891.714;  688.654;  -11.431; 2372.046
892.275;  647.358;  -11.291; 2309.505
892.835;  658.781;  -11.471; 2382.543
893.396;  651.241;  -11.541; 2295.502
893.956;  621.524;  -11.181; 2162.420
894.517;  586.870;  -11.741; 2125.439
895.077;  537.281;  -11.671; 2086.978
895.638;  497.231;  -11.311; 2126.316
896.198;  486.181;   -9.831; 1838.275
896.758;  471.429;   -8.421; 1892.813
897.319;  450.670;  -12.351; 1792.232
897.879;  432.050;  -13.511; 1762.751
898.439;  399.767;  -12.001; 1661.149
898.999;  379.590;  -10.180; 1781.468
899.559;  374.682;  -12.030; 1703.347
900.119;  366.968;  -15.710; 1537.525
900.679;  353.438;   -8.900; 1638.384
901.239;  334.815;   -8.340; 1527.902
901.799;  305.103;  -13.910; 1456.441
902.359;  282.801;  -13.460; 1357.140
902.919;  275.661;  -11.490; 1331.118
903.479;  275.501;  -12.110; 1317.257
904.038;  270.752;  -11.720; 1262.595
904.598;  263.035;  -13.610; 1152.034
905.158;  250.747;  -11.040; 1240.893
905.717;  234.720;  -10.900; 1233.691
906.277;  225.734;  -15.080; 1217.330
906.836;  224.063;  -13.380; 1222.408
907.396;  220.888;  -10.780; 1193.047
907.955;  213.779;   -8.500; 1182.526
908.515;  208.485;  -12.760; 1099.364
909.074;  207.654;  -11.900; 1092.863
909.633;  207.615;   -8.950; 1069.121
910.192;  205.445;   -8.770; 1196.460
910.752;  194.255;  -12.390; 1029.960
911.311;  184.999;  -13.680; 1009.780
911.870;  175.129;  -12.370;  971.460
912.429;  168.587;  -10.900; 1094.080
912.988;  167.930;  -11.690; 1081.060
913.547;  164.645;  -13.240;  940.380
914.106;  160.435;  -11.990;  999.420
914.665;  157.381;   -9.990;  984.020
915.224;  153.010;  -12.880; 1035.760
915.782;  149.378;  -12.350;  922.560
916.341;  149.357;   -9.110; 1049.840
916.900;  148.284;   -9.270;  925.260
917.458;  147.402;  -13.240;  884.220
918.017;  146.622;  -13.550;  942.600
918.576;  145.190;  -12.320;  904.440
919.134;  143.385;  -11.490;  837.980
919.693;  141.821;  -13.670;  893.060
920.251;  141.543;  -15.470;  876.500
920.809;  141.736;  -11.290;  839.580
921.368;  140.830;  -10.210;  885.360
921.926;  139.196;  -12.140;  842.940
922.484;  137.194;  -13.080;  903.360
923.042;  136.319;  -11.720;  880.340
923.601;  136.426;   -7.480;  998.680
924.159;  134.452;  -11.570;  935.560
924.717;  131.742;  -13.840;  841.080
925.275;  132.369;  -10.640;  903.240
925.833;  131.136;  -11.540;  779.320
926.391;  132.442;  -12.960;  938.380
926.949;  133.053;  -14.130;  857.680
927.506;  132.417;  -11.750;  903.500
928.064;  131.769;  -10.250;  877.580
928.622;  133.048;  -13.030;  880.100
929.180;  134.658;  -13.400;  814.180
929.737;  136.694;  -10.700;  808.540
930.295;  139.429;  -10.070;  928.480
930.853;  138.646;  -11.960;  849.100
931.410;  139.989;  -13.120;  821.120
931.968;  141.323;  -10.770;  940.660
932.525;  141.651;  -10.680;  909.380
933.082;  140.851;  -13.130;  811.440
933.640;  142.351;  -13.210;  925.900
934.197;  142.093;  -11.060;  886.360
934.754;  141.468;   -9.580;  897.780
935.312;  143.295;  -14.000;  863.340
935.869;  144.658;  -10.710; 1012.980
936.426;  143.138;   -9.860;  872.800
936.983;  143.767;   -9.710;  889.020
937.540;  144.915;  -13.990;  838.280
938.097;  149.318;  -14.040;  940.120
938.654;  152.518;  -10.310;  898.860
939.211;  154.006;  -10.560;  952.480
939.768;  153.855;  -13.900;  915.420
940.324;  155.921;  -14.760;  904.200
940.881;  158.389;  -10.370;  878.500
941.438;  163.005;   -8.260; 1021.200
941.995;  161.371;  -12.540;  992.560
942.551;  160.935;  -14.670;  875.620
943.108;  162.924;  -10.450;  937.920
943.664;  163.595;  -10.750;  869.340
944.221;  167.450;  -11.550; 1088.140
944.777;  167.327;  -14.770;  869.680
945.334;  165.234;  -12.820;  884.840
945.890;  160.136;  -10.130;  946.480
946.446;  156.954;  -13.470;  947.020
947.003;  158.243;  -12.120;  964.940
947.559;  159.738;   -9.980; 1063.040
948.115;  154.055;   -9.080; 1026.540
948.671;  151.950;  -10.830;  967.300
949.227;  152.368;  -12.440;  859.560
949.783;  152.345;  -12.910;  858.900
950.339;  155.950;  -10.270;  991.000
950.895;  157.227;  -13.630; 1023.840
951.451;  155.987;  -15.100;  925.280
952.007;  155.393;  -11.330;  998.540
952.563;  151.123;  -10.580;  937.780
953.118;  148.357;  -13.440;  904.940
953.674;  146.744;  -12.710;  935.780
954.230;  149.254;  -10.350;  949.640
954.785;  153.590;   -9.190;  936.640
955.341;  155.305;  -11.200;  998.160
955.897;  149.118;  -16.560;  834.660
956.452;  148.255;  -12.570;  953.840
957.008;  145.093;   -7.970; 1083.640
957.563;  141.611;  -11.940; 1009.540
958.118;  137.336;  -13.450;  877.700
958.674;  136.007;  -12.030;  946.780
959.229;  136.519;   -9.410; 1013.980
959.784;  136.442;  -12.000;  832.400
960.339;  136.875;  -14.780; 1001.280
960.894;  135.859;   -9.860;  963.760
961.449;  130.678;   -9.970;  859.960
962.004;  131.954;  -10.900; 1212.840
962.559;  128.656;  -13.150;  860.140
963.114;  127.271;  -13.740;  742.480
963.669;  126.134;   -9.820;  915.500
964.224;  124.275;  -13.890;  874.340
964.779;  124.742;  -12.600;  828.420
965.334;  127.090;  -10.950; 1017.860
965.888;  124.219;  -11.170;  875.360
966.443;  124.713;  -12.540;  972.380
966.998;  121.853;  -15.780;  819.460
967.552;  120.767;   -9.760;  908.380
968.107;  117.626;   -9.060;  868.300
968.661;  118.629;  -11.950;  922.440
969.216;  115.542;  -12.800;  856.280
969.770;  113.323;  -11.210;  917.200
970.324;  113.781;  -11.610;  923.140
970.879;  115.052;  -11.370;  947.180
971.433;  116.818;  -12.540;  952.720
971.987;  115.260;  -11.320;  895.340
972.541;  113.934;  -10.720;  917.100
973.095;  113.396;   -9.680; 1009.460
973.649;  109.012;  -11.440;  809.480
974.203;  107.889;  -11.210;  829.040
974.757;  106.725;  -10.240;  855.220
975.311;  106.799;  -13.720;  872.600
975.865;  105.364;  -13.770;  881.820
976.419;  103.403;  -11.690;  857.400
976.973;  100.473;   -9.510;  849.620
977.526;  100.110;  -12.620;  949.920
978.080;   97.646;  -12.010;  796.780
978.634;   96.983;  -10.170;  921.320
979.187;   95.957;   -9.020;  905.400
979.741;   97.284;   -9.820; 1018.380
980.294;   95.325;  -14.870;  789.160
980.848;   93.656;  -12.380;  717.220
981.401;   94.947;  -10.350;  816.540
981.955;   93.925;  -13.720;  844.300
982.508;   89.110;  -11.490;  746.340
983.061;   89.266;  -10.000;  915.260
983.615;   86.407;  -11.480;  798.800
984.168;   85.657;  -13.220;  770.080
984.721;   85.012;  -13.960;  880.760
985.274;   83.076;  -10.870;  867.500
985.827;   81.704;   -9.790;  834.220
986.380;   78.327;  -13.120;  721.340
986.933;   79.159;  -12.450;  864.800
987.486;   78.341;  -10.210;  861.920
988.039;   78.507;   -8.430;  863.100
988.591;   77.268;  -10.520;  893.260
989.144;   74.690;  -14.860;  737.260
989.697;   74.280;  -13.080;  758.740
990.250;   73.343;  -10.150;  858.100
990.802;   70.632;  -13.430;  755.860
991.355;   70.875;  -12.750;  974.880
991.907;   68.710;  -12.040;  864.320
992.460;   66.544;  -11.330;  753.760
993.012;   66.521;  -13.610;  749.540
993.565;   63.481;  -13.460;  711.360
994.117;   65.284;   -9.360;  950.780
994.669;   61.796;  -11.300;  701.320
995.221;   61.223;  -13.540;  791.920
995.774;   60.376;  -13.430;  787.580
996.326;   58.841;  -12.520;  740.220
996.878;   58.564;  -10.950;  838.420
997.430;   56.163;  -14.300;  699.860
997.982;   54.421;  -13.760;  750.140
998.534;   54.183;  -11.530;  739.060
999.086;   53.583;  -10.310;  738.220
999.638;   52.431;  -12.530;  661.380
1000.190;   51.130;  -11.840;  699.320
1000.741;   50.995;  -10.260;  742.700
1001.293;   50.311;   -8.860;  686.020
1001.845;   49.627;  -13.700;  676.640
1002.396;   49.041;  -12.100;  743.400
1002.948;   48.856;  -12.760;  737.400
1003.500;   47.423;  -10.380;  723.780
1004.051;   48.201;  -11.900;  907.580
1004.603;   46.204;  -12.250;  791.820
1005.154;   43.302;  -13.210;  608.980
1005.705;   42.297;  -10.950;  723.960
1006.257;   41.908;  -13.880;  707.220
1006.808;   41.207;  -12.840;  685.460
1007.359;   41.312;  -10.570;  763.240
1007.910;   40.046;   -9.620;  646.640
1008.461;   39.847;  -13.630;  732.940
1009.013;   37.935;  -17.200;  588.340
1009.564;   40.209;  -10.200;  793.520
1010.115;   37.558;  -12.570;  597.040
1010.665;   37.393;  -15.150;  602.160
1011.216;   37.512;  -14.480;  667.920
1011.767;   37.004;  -11.340;  697.920
1012.318;   36.797;   -9.780;  736.980
1012.869;   35.788;  -12.380;  679.000
1013.419;   35.630;  -15.560;  603.120
1013.970;   35.819;  -11.010;  666.640
1014.521;   35.148;  -11.610;  620.620
1015.071;   36.303;  -13.450;  670.380
1015.622;   35.398;  -13.870;  635.460
1016.172;   34.252;  -11.610;  596.820
1016.723;   34.560;  -12.120;  614.380
1017.273;   33.129;  -13.620;  604.160
1017.823;   33.554;  -14.140;  650.340
1018.374;   33.088;  -12.800;  611.760
1018.924;   33.051;  -12.340;  716.880
1019.474;   33.267;  -11.410;  718.880
1020.024;   31.740;  -14.770;  657.580
1020.574;   33.882;   -9.780;  726.160
1021.124;   32.877;   -8.560;  673.580
1021.674;   31.707;  -15.190;  559.120
1022.224;   32.907;  -13.530;  708.940
1022.774;   32.570;  -13.280;  668.820
1023.324;   32.987;  -10.690;  753.520
1023.874;   33.766;  -10.240;  875.760
1024.423;   31.502;  -12.540;  613.700
1024.973;   30.656;  -10.010;  610.760
1025.523;   30.278;  -10.550;  620.960
1026.072;   29.706;  -13.560;  606.420
1026.622;   29.830;  -15.120;  675.740
1027.172;   30.625;  -11.260;  715.660
1027.721;   29.241;  -11.410;  601.220
1028.270;   29.678;  -13.530;  663.400
1028.820;   29.401;  -13.680;  638.080
1029.369;   28.921;  -13.520;  612.700
1029.918;   29.468;  -10.980;  649.840
1030.468;   29.178;  -13.530;  564.780
1031.017;   28.882;  -13.170;  634.800
1031.566;   28.111;  -12.200;  608.900
1032.115;   29.176;   -9.960;  694.500
1032.664;   27.001;  -13.210;  596.480
1033.213;   28.466;  -12.500;  735.420
1033.762;   26.789;  -11.910;  635.620
1034.311;   27.057;   -9.640;  677.220
1034.860;   27.549;  -13.310;  691.000
1035.408;   27.880;  -11.830;  722.720
1035.957;   27.523;  -12.000;  719.540
1036.506;   26.082;  -11.690;  530.800
1037.055;   27.779;  -10.990;  844.320
1037.603;   26.538;  -15.120;  664.000
1038.152;   25.346;  -12.450;  534.760
1038.700;   25.876;  -10.560;  585.740
1039.249;   24.979;  -11.080;  681.220
1039.797;   25.427;  -12.540;  633.360
1040.345;   25.960;  -11.920;  705.420
1040.894;   25.018;  -11.410;  625.300
1041.442;   25.418;  -14.320;  632.200
1041.990;   24.468;  -16.240;  559.160
1042.538;   24.131;  -11.680;  536.180
1043.087;   24.139;  -10.760;  570.860
1043.635;   24.331;  -11.850;  670.500
1044.183;   23.882;  -15.480;  586.400
1044.731;   23.969;  -11.770;  576.000
1045.279;   23.311;  -13.090;  674.920
1045.827;   25.333;  -12.440;  892.400
1046.374;   22.282;  -13.840;  515.420
1046.922;   22.481;  -13.220;  590.580
1047.470;   23.873;  -10.230;  691.300
1048.018;   23.366;  -14.590;  647.960
1048.565;   24.011;  -12.050;  708.600
1049.113;   21.883;  -11.650;  557.000
1049.660;   21.665;  -10.510;  629.660
1050.208;   22.422;  -13.310;  675.640
1050.755;   21.641;  -15.900;  606.580
1051.303;   22.539;  -11.430;  686.820
1051.850;   21.971;   -8.480;  635.120
1052.397;   19.630;  -15.010;  473.960
1052.945;   20.737;  -13.960;  617.760
1053.492;   21.901;  -13.150;  741.840
1054.039;   22.660;   -9.630;  720.180
1054.586;   20.473;  -13.680;  557.240
1055.133;   21.263;  -14.570;  693.140
1055.680;   21.671;  -13.820;  646.620
1056.227;   20.681;  -11.730;  542.780
1056.774;   21.794;  -12.480;  794.980
1057.321;   19.906;  -13.930;  523.260
1057.868;   20.359;  -11.690;  651.320
1058.415;   19.795;   -9.520;  651.980
1058.961;   20.288;  -13.160;  678.940
1059.508;   20.380;  -12.920;  643.820
1060.055;   19.530;  -11.920;  581.780
1060.601;   20.404;  -11.500;  624.300
1061.148;   18.252;  -14.330;  616.820
1061.694;   18.371;  -16.870;  592.580
1062.241;   19.079;  -10.330;  596.320
1062.787;   19.318;  -10.620;  663.140
1063.334;   20.720;  -10.110;  808.560
1063.880;   19.397;  -13.400;  668.360
1064.426;   18.783;  -10.680;  706.820
1064.972;   17.496;   -9.920;  601.340
1065.518;   17.308;  -10.980;  566.640
1066.065;   18.198;  -14.890;  624.460
1066.611;   17.596;  -12.870;  598.800
1067.157;   18.384;  -12.950;  641.860
1067.703;   18.069;  -13.540;  668.480
1068.249;   17.118;  -13.540;  605.220
1068.794;   17.075;  -12.600;  626.880
1069.340;   16.213;  -10.620;  578.960
1069.886;   16.548;  -12.830;  590.700
1070.432;   16.041;  -14.870;  541.720
1070.977;   16.226;  -11.980;  601.080
1071.523;   16.537;   -8.200;  573.060
1072.068;   16.441;  -12.330;  582.000
1072.614;   16.506;  -16.370;  527.760
1073.160;   16.882;  -11.100;  687.040
1073.705;   15.427;  -10.480;  572.520
1074.250;   15.607;  -14.520;  559.900
1074.796;   15.590;  -11.460;  655.160
1075.341;   16.343;  -11.950;  664.100
1075.886;   15.414;  -11.460;  594.240
1076.431;   14.887;  -13.770;  649.880
1076.976;   14.796;  -12.680;  639.220
1077.521;   15.225;  -13.170;  583.080
1078.067;   14.319;  -10.860;  579.400
1078.612;   15.688;  -13.920;  661.620
1079.156;   14.720;  -13.880;  601.540
1079.701;   14.863;  -13.120;  693.260
1080.246;   15.296;   -9.940;  696.300
1080.791;   14.785;  -14.740;  625.020
1081.336;   13.948;  -13.750;  659.320
1081.880;   14.080;  -13.400;  649.680
1082.425;   13.448;  -12.220;  573.480
1082.970;   15.185;  -11.610;  717.040
1083.514;   13.883;  -13.580;  597.000
1084.059;   13.050;  -12.810;  586.720
1084.603;   12.798;  -12.320;  565.840
1085.147;   14.035;  -13.190;  645.220
1085.692;   14.094;  -12.480;  716.800
1086.236;   12.905;  -13.020;  503.140
1086.780;   14.518;   -9.190;  751.440
1087.325;   13.814;  -12.480;  654.620
1087.869;   13.277;  -12.450;  610.700
1088.413;   13.205;  -12.240;  705.040
1088.957;   11.655;   -9.020;  543.400
1089.501;   13.407;  -10.320;  766.640
1090.045;   13.266;  -12.720;  726.480
1090.589;   11.536;  -13.690;  569.920
1091.133;   12.617;  -10.020;  673.340
1091.676;   12.844;  -12.330;  591.940
1092.220;   11.858;  -14.970;  600.920
1092.764;   12.367;  -12.430;  706.960
1093.307;   12.433;   -9.800;  673.780
1093.851;   10.700;  -14.970;  556.540
1094.395;   11.861;  -15.310;  683.140
1094.938;   11.297;  -10.370;  632.520
1095.482;   11.289;  -11.050;  559.800
1096.025;   12.466;  -11.840;  710.880
1096.568;   11.941;  -12.840;  779.280
1097.112;    9.676;  -14.700;  508.180
1097.655;   11.646;   -8.720;  603.000
1098.198;   10.463;  -13.610;  600.180
1098.741;    9.883;  -13.350;  612.860
1099.285;   10.660;  -11.230;  657.300
1099.828;    9.616;  -11.840;  439.400
1100.371;    9.785;  -10.840;  608.160
1100.914;   10.465;  -14.190;  682.660
1101.457;    9.618;  -11.240;  679.900
1101.999;    8.417;  -11.270;  584.680
1102.542;    9.763;  -11.480;  641.440
1103.085;    9.640;  -11.750;  658.500
1103.628;   10.112;  -11.400;  762.060
1104.170;    9.608;  -10.490;  588.280
1104.713;    9.720;  -10.600;  646.700
1105.256;    9.193;  -14.360;  557.440
1105.798;    8.304;  -13.210;  499.980
1106.341;    9.488;  -10.270;  728.900
1106.883;    8.586;  -12.200;  521.340
1107.425;    8.907;  -13.110;  668.180
1107.968;    8.785;  -12.840;  612.380
1108.510;    9.012;   -6.480;  684.960
1109.052;    7.347;  -13.940;  612.620
1109.594;    7.804;  -13.690;  554.440
1110.136;    8.956;  -11.880;  643.220
1110.679;    8.013;   -9.500;  633.080
1111.221;    8.452;  -14.160;  604.460
1111.763;    6.885;  -13.980;  559.220
1112.304;    7.320;  -13.880;  547.140
1112.846;    7.889;  -12.210;  666.240
1113.388;   10.264;  -11.390;  942.180
1113.930;    7.604;  -14.540;  694.200
1114.472;    7.708;  -12.640;  606.540
1115.013;    6.110;  -11.620;  551.280
1115.555;    6.349;  -13.640;  587.100
1116.097;    6.281;  -15.380;  579.480
1116.638;    6.942;  -12.640;  684.600
1117.180;    6.919;   -9.850;  667.740
1117.721;    6.950;  -13.690;  568.580
1118.262;    7.394;  -12.680;  677.960
1118.804;    6.859;  -12.530;  637.340
1119.345;    5.745;  -11.690;  578.400
1119.886;    6.699;  -13.380;  704.040
1120.427;    5.766;  -14.070;  589.020
1120.969;    5.304;  -13.500;  597.920
1121.510;    5.939;  -11.480;  563.060
1122.051;    5.990;  -12.830;  723.580
1122.592;    4.946;  -14.290;  655.420
1123.133;    5.532;  -12.400;  547.940
1123.673;    6.339;  -10.130;  706.480
1124.214;    5.433;  -12.930;  612.460
1124.755;    5.493;  -14.380;  639.460
1125.296;    5.357;  -14.000;  627.320
1125.836;    5.958;  -10.070;  691.500
1126.377;    4.657;  -12.640;  599.660
1126.918;    5.620;  -12.960;  614.980
1127.458;    4.633;  -13.350;  622.220
1127.999;    6.061;  -10.750;  656.980
1128.539;    5.354;  -12.350;  694.240
1129.079;    4.458;  -14.860;  632.720
1129.620;    4.003;  -13.840;  558.100
1130.160;    4.006;  -12.330;  539.480
1130.700;    4.452;  -14.530;  640.840
1131.240;    4.543;  -12.530;  643.700
1131.781;    3.909;  -14.450;  619.680
1132.321;    3.635;   -9.790;  599.120
1132.861;    2.977;  -14.860;  564.200
1133.401;    2.870;  -14.290;  593.940
1133.941;    4.236;  -11.750;  626.280
1134.481;    3.150;   -9.920;  597.580
1135.020;    3.527;  -12.290;  609.160
1135.560;    3.837;  -11.650;  674.940
1136.100;    3.435;  -16.270;  501.160
1136.640;    1.933;  -10.890;  510.480
1137.179;    2.846;  -14.180;  537.960
1137.719;    3.315;  -16.250;  605.400
1138.258;    2.958;  -14.230;  587.360
1138.798;    3.303;   -9.090;  663.780
1139.337;    1.983;  -15.130;  482.840
1139.877;    2.386;  -13.680;  642.360
1140.416;    4.698;  -11.320;  878.060
1140.955;    1.827;  -10.860;  535.380
1141.494;    2.510;  -12.920;  669.280
1142.034;    2.438;  -13.930;  583.520
1142.573;    3.150;  -11.440;  646.280
1143.112;    2.032;  -12.000;  553.480
1143.651;    3.027;  -13.670;  536.480
1144.190;    2.319;  -12.730;  691.640
1144.729;    2.200;  -14.560;  607.420
1145.267;    2.377;  -11.830;  584.900
1145.806;    2.765;  -12.230;  637.040
1146.345;    1.149;  -14.130;  635.020
1146.884;    1.935;  -11.590;  622.500
1147.422;    1.619;  -12.550;  533.060
1147.961;    3.373;  -11.180;  708.460
1148.500;    2.792;  -11.510;  669.720
1149.038;    2.051;  -11.640;  632.500
1149.577;    1.934;  -10.130;  698.640
1150.115;    0.235;  -13.970;  452.280
1150.653;    1.441;  -14.520;  607.340
1151.192;    1.738;  -12.810;  552.920
1151.730;    1.000;   -9.100;  652.560
1152.268;    0.019;  -12.220;  589.520
1152.806;    0.780;  -14.140;  571.180
1153.344;   -0.142;  -12.350;  577.640
1153.882;    0.640;   -8.980;  600.060
1154.421;   -0.073;  -15.190;  470.620
1154.958;    0.874;  -15.210;  595.240
1155.496;    1.557;  -12.850;  645.280
1156.034;    0.679;   -9.940;  721.880
1156.572;    1.776;  -13.570;  667.060
1157.110;   -0.342;  -14.590;  473.940
1157.647;    0.574;  -13.030;  676.960
1158.185;   -0.381;  -12.140;  564.320
1158.723;   -1.098;  -14.390;  509.200
1159.260;   -0.120;  -14.090;  701.700
1159.798;    0.590;  -11.920;  658.160
1160.335;    0.323;  -11.110;  631.820

