
Integration time [ms]:   3.276
Averaging Nr. [scans]: 1000
Smoothing Nr. [pixels]: 0
Data measured with spectrometer [name]: 7414430SP
Wave   ;Sample   ;Dark     ;Reference
[nm]   ;[counts] ;[counts] ;[counts] 

288.544;  149.603;    7.793;  793.890
289.143;  153.740;    7.462;  681.602
289.742;  154.555;    8.602;  828.814
290.341;  139.654;    1.321;  789.841
290.940;  128.891;   -0.709;  730.702
291.538;  129.076;    0.881;  881.108
292.137;  130.213;    0.122;  792.581
292.736;  134.783;   -1.929;  975.101
293.335;  131.676;   -8.229;  735.086
293.934;  131.867;   -5.279;  781.677
294.532;  130.602;   -1.369; 1031.958
295.131;  115.986;   -7.641;  834.394
295.730;  116.489;   -8.420;  809.588
296.328;  115.143;   -5.611;  783.442
296.927;  115.615;   -5.781;  779.652
297.525;  117.576;   -6.361;  781.236
298.124;  107.265;  -11.382;  654.009
298.722;  110.599;   -7.641;  761.933
299.321;  109.228;   -6.811;  708.597
299.919;  107.410;   -6.991;  751.918
300.518;  103.997;  -10.362;  689.338
301.116;  105.331;   -9.581;  691.381
301.715;  105.367;   -4.891;  730.222
302.313;  104.783;   -8.801;  704.943
302.911;   99.714;   -8.522;  733.830
303.509;  105.462;   -6.171;  925.627
304.108;  102.691;   -7.311;  760.383
304.706;  101.813;   -8.321;  801.664
305.304;   96.659;  -10.222;  796.707
305.902;  101.747;   -6.021;  784.484
306.500;   98.005;   -4.971;  728.200
307.098;   95.955;   -7.061;  746.560
307.696;   94.521;   -8.801;  780.432
308.294;   95.023;   -6.411;  731.359
308.892;   96.906;   -2.901;  759.769
309.490;   92.296;   -5.041;  712.161
310.088;   91.043;   -5.002;  788.444
310.686;   95.480;   -2.041;  821.749
311.284;   91.374;   -2.351;  766.040
311.882;   89.029;   -4.422;  731.225
312.480;   85.606;   -4.192;  697.167
313.078;   87.084;   -1.172;  808.331
313.675;   88.204;   -2.601;  691.600
314.273;   83.108;   -1.312;  797.837
314.871;   82.874;   -3.942;  589.829
315.468;   80.989;   -2.802;  652.090
316.066;   83.971;   -0.701;  694.427
316.664;   76.449;   -4.362;  656.351
317.261;   80.507;   -2.872;  910.128
317.859;   75.454;   -2.022;  768.735
318.456;   76.206;   -0.531;  830.096
319.054;   72.432;   -3.912;  787.828
319.651;   71.710;   -4.752;  759.928
320.249;   69.912;   -2.602;  810.188
320.846;   67.442;   -0.821;  714.286
321.443;   65.284;   -4.642;  832.135
322.041;   61.668;   -5.002;  812.315
322.638;   59.958;   -3.982;  701.456
323.235;   60.988;   -3.411;  665.683
323.833;   58.670;   -7.361;  740.354
324.430;   53.447;   -8.611;  615.900
325.027;   54.915;   -4.061;  876.855
325.624;   54.565;   -4.031;  644.532
326.221;   51.381;   -7.481;  689.717
326.818;   51.934;   -5.281;  818.332
327.415;   54.584;   -7.460;  748.828
328.012;   53.571;   -5.510;  690.585
328.609;   51.839;   -7.880;  731.389
329.206;   49.952;   -8.331;  778.621
329.803;   50.619;   -5.121;  737.841
330.400;   52.779;   -4.510;  704.260
330.997;   54.577;   -6.441;  817.147
331.594;   53.098;   -8.831;  788.185
332.191;   58.201;   -7.621;  728.722
332.787;   61.490;   -4.591;  844.463
333.384;   59.936;   -7.412;  763.093
333.981;   58.463;   -8.293;  815.687
334.578;   61.395;   -7.052;  708.378
335.174;   63.660;   -3.102;  731.469
335.771;   64.182;   -5.943;  836.456
336.367;   60.515;   -7.393;  710.631
336.964;   65.356;   -4.063;  793.266
337.561;   62.595;   -3.813;  731.112
338.157;   57.815;   -4.654;  911.916
338.754;   55.225;   -7.934;  796.589
339.350;   54.383;   -4.414;  722.493
339.946;   56.740;   -4.664;  773.135
340.543;   48.020;   -6.375;  846.136
341.139;   43.050;   -9.815;  720.836
341.735;   39.784;   -4.526;  772.593
342.332;   38.736;   -4.895;  691.472
342.928;   39.787;   -4.295;  795.394
343.524;   33.371;   -5.476;  761.684
344.120;   30.116;   -5.856;  738.562
344.716;   32.841;   -2.155;  723.717
345.313;   30.372;   -6.275;  795.342
345.909;   25.556;   -8.815;  627.336
346.505;   27.787;   -5.305;  740.247
347.101;   27.419;   -2.674;  827.864
347.697;   27.836;   -4.344;  785.398
348.293;   22.556;   -9.975;  627.244
348.889;   23.474;   -5.774;  745.914
349.485;   22.712;   -5.004;  688.205
350.081;   23.849;   -4.704;  772.592
350.676;   18.366;   -6.635;  691.606
351.272;   22.862;   -4.504;  809.530
351.868;   22.480;   -3.914;  780.497
352.464;   20.050;   -9.044;  723.932
353.059;   16.172;   -8.314;  646.017
353.655;   19.031;   -7.024;  777.063
354.251;   20.859;   -5.343;  759.845
354.846;   15.056;   -8.604;  740.646
355.442;   12.574;   -6.945;  753.071
356.038;   14.735;   -7.564;  751.708
356.633;   14.859;   -5.814;  728.594
357.229;   13.009;   -7.364;  724.757
357.824;   11.206;   -8.024;  703.600
358.420;    9.835;   -9.384;  679.726
359.015;   10.788;   -5.104;  695.357
359.610;   11.501;   -6.854;  763.920
360.206;    5.811;  -10.185;  603.240
360.801;    8.551;   -7.054;  646.503
361.396;   10.490;   -5.034;  725.975
361.992;    5.661;   -8.284;  668.220
362.587;    3.056;   -8.625;  670.160
363.182;    5.455;   -7.674;  689.631
363.777;    6.401;   -5.164;  738.242
364.372;    5.732;   -8.604;  737.314
364.967;    1.790;   -9.055;  680.744
365.563;    6.154;   -6.114;  815.567
366.158;    3.764;   -5.814;  685.161
366.753;    3.250;   -7.854;  649.263
367.348;    1.559;   -7.804;  746.056
367.942;    1.762;   -7.954;  697.298
368.537;    1.013;   -4.984;  754.245
369.132;    1.092;   -8.564;  703.428
369.727;   -3.025;   -8.855;  638.079
370.322;   -1.607;   -6.245;  580.186
370.917;   -1.851;   -6.425;  710.646
371.511;    0.622;   -6.294;  861.834
372.106;   -2.443;   -7.685;  776.964
372.701;   -5.678;   -7.335;  585.988
373.296;   -0.006;   -4.564;  863.135
373.890;   -5.109;  -10.235;  647.840
374.485;   -6.601;   -7.885;  691.199
375.079;   -2.810;   -7.324;  738.685
375.674;   -1.628;   -3.494;  812.970
376.268;   -5.460;   -8.525;  691.759
376.863;  -11.615;  -10.086;  580.327
377.457;   -6.417;   -7.025;  662.490
378.052;   -7.327;   -3.585;  764.884
378.646;   -8.338;   -7.595;  741.167
379.240;   -8.950;   -8.335;  721.176
379.835;   -7.657;   -5.785;  636.978
380.429;   -9.864;   -4.335;  562.557
381.023;  -10.427;   -6.805;  779.205
381.617;  -12.223;   -9.195;  680.106
382.212;   -8.516;   -6.905;  685.303
382.806;   -8.403;   -3.745;  760.690
383.400;  -12.240;   -7.745;  672.281
383.994;  -12.972;   -9.765;  664.870
384.588;   -8.930;   -6.564;  697.701
385.182;   -8.202;   -5.344;  726.624
385.776;   -9.433;   -8.514;  706.875
386.370;  -12.903;   -9.555;  681.968
386.964;  -11.046;   -8.715;  684.155
387.558;   -9.963;   -6.174;  598.360
388.152;  -13.046;   -8.725;  681.959
388.745;  -11.777;   -7.965;  814.707
389.339;   -9.622;   -5.924;  747.642
389.933;   -8.713;   -5.524;  695.370
390.527;   -9.808;   -7.114;  859.029
391.120;  -16.162;  -10.725;  595.318
391.714;  -13.466;   -8.035;  711.633
392.308;   -9.478;   -3.574;  780.253
392.901;  -13.966;   -7.245;  642.460
393.495;  -15.249;   -9.285;  595.414
394.089;  -13.040;   -5.895;  760.452
394.682;  -13.949;   -4.295;  697.188
395.275;  -14.851;   -9.875;  719.927
395.869;  -16.404;   -8.485;  667.314
396.462;  -14.799;   -7.455;  616.609
397.056;   -9.892;   -5.424;  776.621
397.649;  -14.753;   -6.605;  731.575
398.242;  -12.304;   -8.224;  712.645
398.836;  -11.561;   -7.474;  766.408
399.429;  -12.969;   -7.094;  631.041
400.022;  -16.240;   -9.475;  665.902
400.615;  -14.357;   -7.145;  805.609
401.208;  -12.136;   -7.174;  691.451
401.802;  -14.434;   -5.515;  699.329
402.395;  -15.448;   -9.875;  683.502
402.988;  -15.686;   -8.845;  696.627
403.581;  -13.478;   -8.874;  646.878
404.174;  -10.382;   -5.324;  686.568
404.767;  -13.613;   -9.575;  638.583
405.360;  -16.867;  -10.965;  621.445
405.953;  -10.636;   -8.764;  759.034
406.545;   -9.935;   -7.514;  725.342
407.138;  -15.066;  -10.025;  618.350
407.731;  -13.497;  -10.034;  613.303
408.324;   -9.322;   -9.374;  660.554
408.917;  -10.789;   -6.534;  681.864
409.509;  -12.108;   -8.004;  740.396
410.102;  -14.257;   -9.875;  643.948
410.695;   -7.559;   -8.604;  665.758
411.287;   -8.854;   -6.794;  599.821
411.880;  -10.043;   -9.334;  585.421
412.472;  -13.503;  -10.254;  613.092
413.065;  -10.541;   -6.714;  629.408
413.657;   -8.672;   -7.234;  576.678
414.250;   -8.304;  -10.544;  646.681
414.842;  -10.159;   -9.744;  676.353
415.434;   -7.361;   -6.994;  570.463
416.027;   -3.233;   -5.893;  652.196
416.619;   -5.510;   -7.264;  713.400
417.211;   -5.993;  -10.374;  599.352
417.804;   -3.062;   -7.993;  628.499
418.396;   -6.736;   -7.234;  607.643
418.988;   -4.497;   -9.443;  659.238
419.580;   -7.635;  -10.724;  568.276
420.172;   -5.576;  -10.323;  536.196
420.764;   -1.384;   -8.793;  672.482
421.356;   -3.818;  -11.143;  636.898
421.948;   -4.029;   -8.293;  677.661
422.540;    1.839;   -7.893;  680.027
423.132;    0.471;   -7.082;  600.641
423.724;   -1.882;   -8.653;  561.267
424.316;   -0.290;  -10.213;  621.345
424.908;    2.952;   -9.762;  591.517
425.500;    3.380;   -5.572;  647.978
426.092;    3.920;   -8.422;  648.268
426.683;    2.465;   -9.283;  684.836
427.275;    6.037;   -7.852;  641.471
427.867;    7.521;   -5.272;  668.948
428.458;    8.337;   -7.682;  732.344
429.050;    6.429;  -10.612;  680.749
429.642;    8.352;   -9.882;  743.124
430.233;    8.963;   -6.962;  569.356
430.825;   10.151;   -6.842;  724.809
431.416;    7.868;   -9.672;  698.241
432.008;   11.838;   -6.552;  651.723
432.599;   11.854;   -6.891;  656.073
433.190;    8.717;  -10.912;  637.670
433.782;    7.850;  -11.172;  590.395
434.373;   15.263;   -6.061;  884.765
434.964;   13.934;   -8.251;  602.920
435.556;   11.604;   -9.722;  634.537
436.147;   14.833;   -9.082;  758.490
436.738;   14.998;   -8.041;  701.099
437.329;   19.801;   -7.341;  721.723
437.920;   12.412;   -8.162;  666.688
438.511;   13.045;  -11.802;  564.526
439.103;   19.780;  -10.191;  623.998
439.694;   21.611;   -7.601;  681.583
440.285;   21.428;   -8.541;  764.432
440.876;   20.022;   -9.751;  845.738
441.466;   20.299;   -9.401;  575.162
442.057;   24.953;   -7.760;  665.814
442.648;   22.596;   -9.971;  746.255
443.239;   21.533;  -11.001;  620.477
443.830;   26.844;   -7.990;  704.958
444.421;   29.310;   -7.910;  655.474
445.011;   25.071;   -8.131;  693.619
445.602;   25.016;   -7.111;  743.126
446.193;   26.968;  -10.920;  488.117
446.783;   31.384;   -6.500;  640.397
447.374;   26.937;   -8.671;  692.759
447.964;   27.329;  -10.781;  713.770
448.555;   35.488;   -9.650;  822.742
449.145;   32.433;   -8.660;  662.853
449.736;   32.882;   -8.990;  803.179
450.326;   32.863;   -9.500;  713.626
450.917;   38.278;   -8.680;  675.324
451.507;   37.167;   -7.520;  600.661
452.097;   37.529;   -8.590;  746.267
452.688;   38.744;  -11.340;  742.160
453.278;   38.361;  -10.100;  566.840
453.868;   42.933;   -6.019;  793.550
454.458;   40.436;   -9.440;  651.141
455.048;   41.367;  -10.560;  711.783
455.639;   42.852;  -11.799;  567.096
456.229;   46.230;   -6.899;  710.694
456.819;   47.985;   -7.389;  751.158
457.409;   48.596;  -11.119;  773.993
457.999;   51.374;   -9.289;  737.505
458.589;   51.427;   -6.139;  686.606
459.179;   50.181;   -8.729;  717.658
459.769;   48.629;   -9.789;  627.099
460.358;   53.764;  -10.259;  797.262
460.948;   53.640;   -7.299;  689.503
461.538;   54.749;  -10.289;  660.677
462.128;   52.445;  -11.269;  664.934
462.717;   59.971;   -9.368;  710.326
463.307;   63.149;   -7.908;  705.846
463.897;   58.932;   -9.599;  656.942
464.486;   58.062;   -9.769;  837.128
465.076;   63.122;   -8.048;  733.776
465.666;   65.341;   -9.358;  652.900
466.255;   63.270;   -7.919;  785.651
466.845;   62.708;  -11.689;  666.749
467.434;   65.922;   -7.818;  725.873
468.023;   66.885;   -7.678;  658.357
468.613;   64.155;  -10.939;  713.946
469.202;   68.638;  -10.118;  646.507
469.791;   73.116;   -9.108;  737.811
470.381;   75.085;   -6.058;  742.813
470.970;   74.356;  -10.428;  711.099
471.559;   73.792;  -10.268;  733.291
472.148;   78.058;   -8.448;  675.737
472.738;   79.757;   -6.917;  765.466
473.327;   79.469;  -11.978;  637.529
473.916;   78.948;  -11.888;  737.446
474.505;   83.421;   -9.437;  751.703
475.094;   86.346;   -6.747;  806.570
475.683;   86.203;   -9.367;  797.699
476.272;   86.843;  -12.637;  730.632
476.861;   88.784;  -10.027;  706.754
477.449;   96.609;   -8.716;  728.487
478.038;   90.572;   -9.577;  692.513
478.627;   92.324;   -9.718;  714.852
479.216;   98.750;   -8.947;  769.441
479.805;  101.326;   -6.256;  783.375
480.393;  100.975;   -7.937; 1008.945
480.982;  100.129;   -7.717;  874.501
481.571;  105.911;   -9.266;  858.333
482.159;  107.317;   -7.636;  705.386
482.748;  106.138;   -9.667;  821.385
483.336;  111.187;  -10.376;  858.209
483.925;  112.719;   -7.147;  774.373
484.513;  118.551;   -7.996;  758.962
485.102;  116.140;  -10.027;  810.965
485.690;  123.610;  -10.446; 1011.050
486.278;  126.481;   -8.446;  979.329
486.867;  126.697;   -6.356;  809.662
487.455;  128.745;   -9.136;  898.229
488.043;  129.806;  -10.646;  748.361
488.631;  139.402;   -7.456; 1005.079
489.220;  142.865;   -6.636;  908.626
489.808;  143.820;  -11.036;  741.415
490.396;  150.701;  -10.246;  914.645
490.984;  157.011;   -8.556;  830.161
491.572;  165.447;   -5.886;  940.315
492.160;  172.879;   -9.486;  919.081
492.748;  185.489;  -10.976;  884.341
493.336;  208.685;   -8.776; 1019.693
493.924;  236.202;   -5.465;  958.077
494.512;  263.318;   -9.986; 1066.638
495.100;  302.524;  -10.636; 1103.280
495.687;  357.780;  -10.885; 1206.373
496.275;  420.706;   -8.126; 1150.796
496.863;  489.719;  -10.586; 1281.171
497.451;  592.065;  -11.926; 1386.805
498.038;  741.120;  -10.885; 1556.729
498.626;  856.880;   -6.315; 1741.407
499.214;  995.712;   -7.326; 2016.609
499.801; 1201.310;  -11.906; 2220.633
500.389; 1480.724;  -10.466; 2312.494
500.976; 1832.829;   -5.236; 2744.849
501.564; 2240.650;   -8.936; 3148.565
502.151; 2623.793;  -13.176; 3515.999
502.738; 3105.967;  -10.646; 3971.274
503.326; 3498.831;   -9.525; 4403.796
503.913; 3916.886;  -10.856; 5161.749
504.500; 4246.839;  -11.586; 5986.420
505.088; 4666.901;  -10.336; 6381.201
505.675; 5229.172;   -6.355; 6925.547
506.262; 5848.623;   -9.046; 7619.060
506.849; 6610.679;  -10.416; 8733.969
507.436; 7121.248;  -10.305; 9790.121
508.023; 7573.496;   -5.496; 9985.472
508.610; 7896.176;   -7.856;10434.618
509.197; 8724.986;  -10.097;11198.435
509.784;10392.691;  -10.886;12391.194
510.371;11539.411;   -9.315;13603.713
510.958;12256.429;   -9.936;14426.586
511.545;12879.371;   -9.326;15243.775
512.132;13374.737;  -10.075;15945.876
512.719;14003.490;   -7.796;16340.369
513.305;15308.607;  -10.606;18011.766
513.892;16212.391;  -11.486;19754.971
514.479;17868.529;   -9.126;20967.805
515.066;19316.018;   -6.026;22299.793
515.652;20394.113;   -8.466;22908.660
516.239;21616.555;  -10.886;23798.875
516.825;21814.939;  -11.496;25567.275
517.412;22601.512;   -5.796;28154.959
517.998;23689.832;  -10.506;28344.111
518.585;23773.729;  -10.076;27134.219
519.171;23680.693;   -8.315;27268.576
519.758;25122.348;   -8.596;28964.129
520.344;26587.480;   -8.466;30664.494
520.930;26686.004;  -11.006;32550.605
521.516;28836.549;  -10.495;35422.895
522.103;31490.344;   -5.526;38280.004
522.689;31863.129;   -8.746;37835.117
523.275;30622.453;  -11.376;37288.613
523.861;31130.178;  -11.156;37281.395
524.447;32905.410;   -8.135;37846.949
525.033;33154.465;   -7.896;38321.949
525.619;33499.832;  -12.476;38579.285
526.205;34924.254;   -9.516;40622.875
526.791;36930.590;   -6.926;42258.836
527.377;37084.496;   -8.346;42966.902
527.963;39113.391;   -8.717;42018.949
528.549;38409.965;  -11.016;42476.828
529.135;36299.141;   -8.536;41854.852
529.721;35688.148;   -9.666;41237.711
530.306;35223.375;  -10.066;41259.445
530.892;35693.191;  -11.356;41506.047
531.478;36853.559;   -6.596;43559.613
532.063;38980.719;   -8.836;47695.563
532.649;39258.789;  -10.047;50808.324
533.235;41273.082;   -9.746;51787.500
533.820;42409.211;   -6.566;52145.035
534.406;42237.691;  -10.817;51133.488
534.991;41492.156;   -9.416;49996.805
535.576;40690.508;   -9.036;48882.852
536.162;40968.992;   -6.156;46942.285
536.747;41768.676;  -11.607;45711.746
537.333;45338.133;  -11.787;48510.180
537.918;47872.316;  -12.437;50439.891
538.503;46558.906;   -7.196;50863.711
539.088;43754.914;  -10.556;50906.922
539.673;44789.398;   -8.767;52621.965
540.259;44836.809;  -10.026;52368.094
540.844;41685.352;   -7.416;50879.109
541.429;42171.176;   -9.467;52077.777
542.014;45738.809;   -9.527;52716.695
542.599;46061.891;   -9.946;52363.281
543.184;42717.109;   -7.927;53187.137
543.769;43318.391;   -9.297;54697.605
544.354;43431.016;  -10.127;53913.914
544.938;42971.594;   -9.267;49680.164
545.523;45313.906;   -6.506;47386.277
546.108;47381.453;   -9.787;49151.949
546.693;49326.867;  -11.587;51384.637
547.278;48727.852;  -10.986;51853.254
547.862;45392.160;   -8.206;51173.750
548.447;41466.586;  -10.067;51691.395
549.031;40928.469;   -9.637;52456.703
549.616;45301.188;   -9.926;52714.516
550.201;45041.246;   -6.347;52414.598
550.785;44779.332;   -7.917;52355.059
551.370;44207.398;  -10.867;54589.453
551.954;44468.387;   -9.047;58267.348
552.538;46047.023;   -7.827;59062.176
553.123;45377.781;  -10.287;58115.285
553.707;43055.277;  -12.178;56556.285
554.291;42933.129;   -8.717;56201.668
554.876;43125.863;   -7.457;55335.762
555.460;44144.375;  -10.387;54155.703
556.044;46551.711;   -9.618;53721.484
556.628;45058.785;  -11.567;53731.016
557.212;44712.797;   -8.097;54312.531
557.796;43154.363;  -11.077;53797.773
558.380;43333.285;  -11.108;56145.984
558.964;42923.477;   -9.057;57277.930
559.548;43272.250;   -6.977;56459.641
560.132;42272.996;  -11.457;54434.543
560.716;41020.348;  -11.378;54800.617
561.300;40867.707;   -9.577;57606.945
561.884;42134.387;   -7.127;58972.445
562.467;41609.844;   -7.118;57327.570
563.051;41066.398;  -13.358;54962.434
563.635;41522.441;  -10.178;52594.473
564.219;42475.711;   -7.837;50610.410
564.802;43322.746;  -11.398;49551.180
565.386;43450.922;  -12.788;48370.953
565.969;42858.938;   -9.077;48178.871
566.553;42573.688;   -6.207;49957.305
567.136;42823.844;   -8.568;50369.594
567.720;39207.379;  -11.868;49492.004
568.303;37323.941;   -8.268;50616.352
568.887;37475.227;   -8.698;50727.148
569.470;38170.469;   -6.808;51698.379
570.053;36801.426;  -13.188;52122.078
570.637;35731.574;  -12.037;52536.438
571.220;35279.559;   -8.577;51186.098
571.803;35542.070;   -8.498;51032.762
572.386;37498.922;  -10.498;49609.887
572.969;40275.027;   -9.388;48285.926
573.552;39212.855;   -8.338;47624.285
574.135;38316.371;   -8.518;45498.641
574.718;34480.898;  -13.628;41970.434
575.301;32507.201;  -10.893;41447.137
575.884;30533.504;   -8.158;40923.836
576.467;31541.826;  -10.328;45267.723
577.050;35387.992;  -13.058;48175.543
577.633;37953.734;   -9.458;47729.328
578.216;37472.742;   -8.928;47579.793
578.799;36877.375;   -9.358;47820.996
579.381;34977.352;  -11.388;48115.551
579.964;33136.293;  -11.718;47333.766
580.547;33989.785;   -8.588;46668.969
581.129;34502.813;   -8.859;44466.141
581.712;34790.188;  -10.729;44164.922
582.294;35778.051;  -11.118;46477.855
582.877;36712.891;   -5.218;48244.254
583.459;35274.906;   -8.679;47437.895
584.042;33662.445;  -10.709;46943.219
584.624;33806.758;  -11.669;46792.227
585.206;32269.086;   -8.218;46557.250
585.789;32780.789;  -10.569;45793.773
586.371;35912.355;  -11.859;43836.391
586.953;35753.227;  -10.719;42972.492
587.536;36134.246;   -7.198;42487.211
588.118;36586.520;   -8.720;42086.414
588.700;33778.691;  -10.439;43389.930
589.282;32386.451;   -9.198;43646.039
589.864;32263.918;   -9.199;43438.109
590.446;33070.359;  -11.319;43151.926
591.028;31481.453;  -11.159;42781.867
591.610;28903.006;  -11.779;42839.098
592.192;25951.295;   -7.668;42820.402
592.774;26408.275;  -11.949;40724.277
593.356;27380.912;  -12.129;39874.789
593.937;28043.602;  -10.669;39980.648
594.519;30553.264;   -6.509;42069.633
595.101;32613.541;  -10.849;42976.031
595.683;32838.742;  -11.679;44084.441
596.264;34166.711;   -9.049;43478.797
596.846;32639.959;   -8.849;43803.672
597.427;31951.828;   -9.570;42986.934
598.009;33793.984;  -12.620;42832.219
598.591;34328.172;  -10.039;42580.086
599.172;33982.102;  -10.369;43061.805
599.753;34182.980;   -9.140;41691.469
600.335;35552.742;  -11.430;40692.520
600.916;33785.016;   -9.939;39982.422
601.498;31882.107;   -8.479;40318.617
602.079;30678.990;  -10.920;40670.609
602.660;30578.037;  -11.480;41450.898
603.241;30824.703;  -11.699;41137.738
603.823;29247.717;   -9.579;38868.797
604.404;29645.768;  -10.620;38182.785
604.985;30916.582;  -10.450;38078.047
605.566;30187.469;   -9.129;38056.633
606.147;29862.600;   -7.510;37020.418
606.728;32407.561;  -10.660;37883.359
607.309;31766.365;  -11.740;38748.273
607.890;30784.102;   -9.759;38850.230
608.471;30041.240;   -8.250;37457.918
609.051;29626.504;   -9.240;36066.457
609.632;28628.650;  -12.120;35991.074
610.213;29415.809;   -9.110;37402.641
610.794;29753.602;   -8.030;38383.363
611.374;28530.883;   -8.110;40562.387
611.955;28310.697;  -13.560;38533.727
612.536;29741.156;  -11.400;36951.789
613.116;30011.682;   -8.070;37197.891
613.697;30760.621;  -10.830;38411.125
614.277;29390.242;  -11.641;38673.938
614.858;30280.705;  -13.310;37075.863
615.438;30311.795;   -7.460;35092.906
616.019;27716.746;   -7.601;33666.301
616.599;28218.203;  -12.020;34189.023
617.179;29964.000;  -11.780;36952.047
617.760;30086.885;   -8.570;39582.574
618.340;31489.932;  -11.471;38943.977
618.920;32972.898;  -11.170;37594.156
619.500;32441.186;  -11.071;37866.938
620.080;32304.916;   -7.750;37869.043
620.660;33337.016;  -12.711;36868.617
621.241;33771.480;  -10.211;36352.309
621.821;33478.930;  -10.961;35459.520
622.401;33112.914;   -7.720;35207.414
622.980;32042.707;   -8.981;35980.422
623.560;30695.035;   -9.331;37351.328
624.140;30223.260;   -9.850;34388.582
624.720;25912.432;   -7.451;32368.764
625.300;22000.041;   -9.070;32638.629
625.880;24670.449;  -12.601;34599.035
626.459;27913.221;  -11.751;36831.738
627.039;30737.035;   -9.281;38299.098
627.619;30816.727;   -8.801;38289.574
628.198;29476.354;  -12.071;37220.695
628.778;29728.807;   -9.461;37632.563
629.357;30488.555;   -8.491;38003.012
629.937;30008.930;   -9.721;38402.039
630.516;29597.590;   -9.951;37868.801
631.096;29800.803;  -11.731;35760.410
631.675;32875.941;   -8.572;35225.219
632.254;38013.277;  -11.282;35130.289
632.834;37380.441;  -13.322;35794.570
633.413;35506.770;  -10.301;35788.922
633.992;32480.279;   -8.582;34532.863
634.571;33736.738;   -8.352;33590.113
635.151;36380.957;  -11.912;34943.863
635.730;34288.410;  -10.511;35352.523
636.309;30999.855;   -7.731;35366.605
636.888;28163.791;   -9.952;36165.637
637.467;28283.799;  -11.672;37515.902
638.046;30615.436;   -8.901;39288.695
638.625;33687.270;   -7.912;38279.699
639.204;33247.559;  -10.022;37741.598
639.782;31991.586;  -12.252;38364.551
640.361;29053.189;  -10.041;36740.621
640.940;26433.369;  -11.161;34950.082
641.519;26080.068;   -9.701;34137.398
642.097;28109.377;  -11.271;35654.258
642.676;31664.234;   -8.651;35637.957
643.255;33123.129;   -8.711;36567.074
643.833;31616.031;   -9.581;37809.434
644.412;31947.455;  -13.711;37337.293
644.990;31667.967;  -11.811;37018.531
645.569;31226.934;   -9.411;36518.469
646.147;29321.545;  -10.291;36186.430
646.726;28781.096;  -12.401;36267.688
647.304;30509.793;  -10.411;36647.625
647.882;31622.281;   -9.651;39286.742
648.461;32789.988;   -9.631;39157.703
649.039;32521.615;  -11.881;35412.883
649.617;32821.098;   -9.661;34744.918
650.195;32730.535;   -9.301;35403.098
650.773;31576.430;  -10.511;35053.797
651.352;29073.973;  -11.521;33756.816
651.930;26219.906;  -12.211;31868.773
652.508;23725.813;   -9.171;33121.551
653.086;27389.852;   -9.371;33564.793
653.663;30680.076;  -13.161;34054.668
654.241;29472.877;  -13.031;35693.309
654.819;30842.012;   -9.371;36422.906
655.397;30205.717;  -10.511;38213.484
655.975;29860.729;  -10.371;39507.625
656.553;29975.381;  -10.051;39498.223
657.130;28931.732;  -10.061;40395.480
657.708;29319.627;   -9.561;39242.020
658.286;29407.807;  -11.511;38920.020
658.863;29929.107;  -10.261;40202.898
659.441;31741.719;   -7.531;39677.938
660.018;30903.643;   -9.501;40413.355
660.596;30375.340;  -13.301;39931.414
661.173;32313.176;  -11.211;39604.531
661.750;32263.611;   -9.951;39700.070
662.328;31255.801;   -9.390;39292.809
662.905;30713.176;  -11.330;38235.648
663.482;26405.805;   -9.050;36212.305
664.060;24090.010;   -8.240;35944.945
664.637;26317.059;  -10.050;35170.785
665.214;28029.996;  -11.760;34197.523
665.791;29859.619;  -10.530;34549.520
666.368;29338.160;   -9.690;35118.578
666.945;30031.064;   -9.320;36019.418
667.522;30752.936;  -11.860;36048.438
668.099;30902.324;  -10.770;36243.914
668.676;30586.783;   -6.260;35958.875
669.253;29186.211;   -7.000;37384.730
669.830;29066.848;  -10.190;36779.629
670.407;28468.795;   -9.550;35231.289
670.984;29527.014;   -9.260;35544.270
671.560;29659.264;   -9.280;35466.867
672.137;28515.756;  -11.810;34280.863
672.714;29540.537;  -11.490;34632.863
673.290;29337.158;   -7.740;35135.422
673.867;29388.203;  -10.660;36114.480
674.443;29590.232;  -12.230;36152.859
675.020;27727.682;  -10.450;35327.238
675.596;29120.885;   -9.260;35795.176
676.173;29705.826;  -10.780;35430.355
676.749;28912.047;  -13.690;33549.516
677.326;28923.023;  -11.980;32210.012
677.902;29137.344;   -8.630;32068.871
678.478;28497.412;  -10.730;32583.891
679.054;28764.348;  -10.520;32088.928
679.631;30104.484;  -11.920;30978.848
680.207;31084.643;   -7.490;33160.887
680.783;32317.680;   -9.860;35570.363
681.359;30931.242;  -13.380;36125.184
681.935;29440.461;  -12.480;35240.922
682.511;28086.047;   -7.900;34429.961
683.087;28142.719;   -7.710;34463.680
683.663;28555.715;  -11.480;34648.898
684.239;28416.572;  -14.090;34546.457
684.815;28573.822;   -7.560;35586.375
685.390;28801.957;   -9.910;35821.895
685.966;28985.002;  -11.159;35085.871
686.542;31552.154;  -11.169;34198.230
687.118;33688.102;   -5.959;32847.707
687.693;33735.621;  -10.329;32794.027
688.269;32968.523;  -12.059;33072.367
688.844;30540.547;  -10.909;33141.664
689.420;28949.303;   -8.019;33965.742
689.995;26999.143;   -8.399;34655.523
690.571;26006.381;  -10.949;33576.742
691.146;26577.592;   -9.619;32657.219
691.722;25688.986;   -8.999;32526.979
692.297;25200.668;  -11.589;33014.617
692.872;27253.689;  -11.739;34012.254
693.448;27456.137;  -11.059;34237.434
694.023;26249.240;  -10.139;34142.672
694.598;27848.016;   -9.029;34132.031
695.173;27697.822;  -13.319;34205.250
695.748;27317.498;  -10.169;32882.488
696.323;27154.723;   -8.339;32864.906
696.898;27042.068;   -8.169;33170.004
697.473;26835.686;  -12.309;32432.984
698.048;26764.059;  -10.989;31649.303
698.623;27165.070;   -9.329;30778.141
699.198;28782.561;   -9.849;31140.119
699.773;29416.977;  -12.329;31764.299
700.348;28400.508;  -10.389;31780.816
700.922;28723.988;   -9.269;32046.375
701.497;29099.516;   -9.329;32603.574
702.072;29189.965;  -10.789;34799.871
702.646;28588.297;  -10.839;35793.172
703.221;27609.484;   -9.099;35201.590
703.795;29974.311;  -10.939;34764.527
704.370;29719.320;  -12.859;34307.367
704.944;29585.680;  -11.559;33509.887
705.519;30642.625;   -7.939;31388.584
706.093;31902.020;  -10.499;31340.104
706.668;31534.334;  -11.289;32630.281
707.242;30036.117;  -11.509;32728.779
707.816;28825.398;   -9.639;32947.238
708.390;27361.516;  -11.429;33277.855
708.965;27889.025;  -11.869;33834.336
709.539;28508.441;  -11.689;33709.273
710.113;29175.969;  -10.478;33044.313
710.687;28369.225;  -10.228;31953.992
711.261;25959.059;  -13.698;30505.949
711.835;25613.871;  -13.378;30262.369
712.409;26681.244;   -9.698;31254.447
712.983;27977.703;  -11.898;32754.986
713.557;29159.695;  -15.138;34018.824
714.131;28899.484;  -14.098;34579.625
714.704;27690.924;   -9.958;33890.262
715.278;25226.477;  -10.028;33531.102
715.852;25156.779;  -11.148;33601.660
716.425;26525.281;   -9.068;33515.117
716.999;27076.656;  -10.038;33185.555
717.573;27998.266;   -9.798;33905.996
718.146;29180.611;  -12.378;35199.293
718.720;29237.928;  -11.918;35060.551
719.293;29148.305;   -8.088;34973.230
719.867;31702.324;  -10.888;36394.449
720.440;31750.689;  -11.938;36663.008
721.013;30692.994;  -12.818;35102.426
721.587;29290.432;  -10.298;33985.266
722.160;26902.246;  -10.048;33524.965
722.733;25870.580;  -12.108;32987.043
723.306;26723.080;  -10.818;33066.301
723.880;28860.934;   -8.908;33399.500
724.453;30627.299;   -9.878;33468.297
725.026;29399.668;  -11.188;33816.637
725.599;26375.852;  -11.678;32797.996
726.172;26867.307;   -9.618;33187.434
726.745;28382.979;   -8.258;35136.613
727.318;30265.699;  -12.978;35751.730
727.891;31483.723;  -12.148;35890.430
728.463;31462.973;   -8.968;34822.090
729.036;30055.193;  -10.188;32895.086
729.609;29867.426;  -11.788;31823.225
730.182;25985.861;  -11.788;31445.283
730.754;23446.865;  -10.268;32373.223
731.327;23665.863;   -9.998;33676.820
731.900;23730.311;  -12.228;33417.000
732.472;25609.375;  -13.848;31978.498
733.045;28286.471;   -8.698;30368.777
733.617;28300.852;  -10.607;30574.215
734.190;27341.305;  -11.507;31280.975
734.762;24315.141;  -13.647;31674.412
735.334;23087.207;   -9.767;31247.291
735.907;23795.084;   -9.897;29876.211
736.479;23421.029;  -11.637;29808.488
737.051;22902.424;   -9.567;30233.547
737.623;24016.615;   -8.187;31469.086
738.195;24785.736;  -11.187;31784.225
738.768;26264.580;  -12.337;32120.523
739.340;25921.293;  -12.227;32094.342
739.912;24585.965;  -11.057;31312.680
740.484;23960.047;  -10.207;31946.238
741.056;22914.521;  -10.047;32984.059
741.628;24325.941;  -13.627;33897.715
742.199;26674.658;   -7.177;33213.016
742.771;25432.516;  -10.797;31369.113
743.343;23041.770;  -11.997;31865.473
743.915;21782.246;  -12.867;32388.631
744.487;22059.650;   -7.617;31079.568
745.058;22565.445;   -9.557;30570.107
745.630;23747.018;   -9.877;29970.127
746.201;25143.426;  -14.177;29186.766
746.773;25292.863;   -9.237;28805.723
747.344;24643.250;   -9.847;29591.223
747.916;22796.996;  -11.657;31412.201
748.487;22171.051;  -10.587;32194.898
749.059;23412.824;   -8.707;32533.719
749.630;24696.869;  -10.537;32158.518
750.201;24021.393;  -11.687;30855.395
750.773;22902.141;  -11.647;28622.555
751.344;23122.963;   -7.147;28405.732
751.915;23899.113;   -9.757;28461.551
752.486;22640.859;  -12.427;27842.850
753.057;20243.922;  -12.227;27845.008
753.628;19328.445;  -10.417;27728.107
754.199;20248.326;  -11.767;27381.086
754.770;21228.490;  -11.187;25882.203
755.341;21483.057;  -10.507;25886.184
755.912;21494.301;   -9.387;26050.861
756.483;20741.494;  -10.647;26798.779
757.054;18926.305;  -11.837;27048.238
757.625;17739.176;  -12.716;26294.838
758.195;17333.428;   -9.666;26142.076
758.766;17105.098;   -8.656;26392.234
759.337;18140.633;  -12.856;26334.594
759.907;19989.006;  -13.366;27579.652
760.478;21074.834;   -8.576;28352.770
761.048;21003.051;  -10.526;27325.088
761.619;20489.928;  -11.116;26460.428
762.189;19949.848;  -12.136;26029.826
762.760;20345.301;   -9.456;26430.145
763.330;21435.117;   -7.136;26670.902
763.900;20590.059;  -11.786;26603.021
764.471;17580.363;  -11.546;25542.740
765.041;16632.428;   -8.096;24358.459
765.611;17291.479;   -8.876;23991.297
766.181;17915.084;  -12.196;24470.236
766.751;18712.221;  -11.636;24845.975
767.321;18534.664;  -10.156;24533.633
767.891;16430.652;  -11.766;24916.492
768.461;15584.873;  -14.936;24776.771
769.031;16046.830;  -12.356;24757.988
769.601;17985.750;   -7.526;24181.088
770.171;18055.619;  -10.766;23670.387
770.741;17199.385;  -13.176;22960.045
771.311;17068.367;  -10.616;22917.523
771.880;17002.215;   -9.576;23562.941
772.450;16686.930;  -10.336;24216.500
773.020;16768.199;  -13.516;24140.398
773.589;16659.049;  -13.466;24414.857
774.159;16593.949;   -8.686;23858.717
774.729;16212.379;   -9.476;22942.135
775.298;15366.554;  -13.666;22324.033
775.867;14888.036;  -11.716;21140.313
776.437;15002.680;   -9.906;20838.092
777.006;14777.341;  -12.166;20599.510
777.576;14765.711;  -12.356;20508.809
778.145;14986.776;  -11.646;20732.947
778.714;14692.479;   -8.226;21062.465
779.283;13562.222;   -9.556;20949.664
779.853;13331.933;  -14.116;20508.623
780.422;13809.886;  -11.506;20649.082
780.991;13290.942;   -9.556;21527.520
781.560;12472.476;   -9.095;22632.658
782.129;12447.055;  -12.135;23048.277
782.698;12331.013;  -10.865;23438.555
783.267;11984.021;   -9.335;23267.734
783.836;12022.011;  -11.045;22415.133
784.404;12925.714;  -13.865;20443.152
784.973;13061.608;  -13.095;19699.150
785.542;12799.870;  -11.575;19763.828
786.111;12764.062;   -9.705;20341.408
786.679;12478.270;  -12.105;20207.967
787.248;12242.420;  -12.455;19516.465
787.817;11753.983;  -11.535;18900.363
788.385;11263.821;   -9.765;17879.121
788.954;10735.226;  -14.005;17658.301
789.522;10542.726;  -11.955;17788.879
790.090;11325.473;  -10.135;18118.277
790.659;11731.900;  -10.975;18338.736
791.227;11128.788;  -13.375;18508.615
791.795;11512.730;  -12.375;17898.254
792.364;11947.823;  -10.725;17295.133
792.932;12282.770;   -9.715;16822.051
793.500;12280.276;  -12.675;17040.148
794.068;12414.513;  -13.495;17179.787
794.636;12533.953;  -10.885;16664.246
795.204;12124.484;  -11.045;16524.545
795.772;11969.196;  -13.175;17274.564
796.340;11395.725;  -12.445;17891.002
796.908;11263.640;   -9.735;17648.561
797.476;11147.804;   -9.815;17064.080
798.044;10543.114;  -13.985;16672.777
798.612; 9725.491;  -13.115;17023.996
799.180; 9558.174;  -10.185;16561.615
799.747; 9561.342;   -9.055;15962.773
800.315; 9250.125;  -12.385;15296.992
800.883; 8881.299;  -15.035;14801.771
801.450; 8811.858;  -10.365;14534.430
802.018; 8858.102;   -9.855;14173.248
802.585; 8909.276;  -11.905;14029.547
803.153; 8945.054;  -11.585;13836.846
803.720; 8900.331;   -9.095;13567.324
804.287; 8600.834;   -9.135;13360.622
804.855; 8146.191;  -11.604;13681.981
805.422; 7981.808;  -11.794;13536.560
805.989; 7884.194;  -10.734;13355.958
806.556; 8065.965;  -10.444;13747.896
807.124; 8538.287;  -12.764;13987.376
807.691; 8629.894;  -12.964;14038.674
808.258; 8490.455;  -11.134;14120.152
808.825; 8188.097;   -9.854;13860.111
809.392; 8111.313;  -10.504;13268.790
809.959; 7558.157;  -13.054;12680.389
810.526; 7118.928;   -8.294;12427.308
811.093; 7195.492;   -8.394;12030.105
811.659; 7885.613;  -12.304;11653.664
812.226; 8400.436;  -13.944;11637.183
812.793; 8070.686;  -10.484;11611.521
813.360; 7448.708;  -10.144;11885.181
813.926; 6998.132;  -11.684;12770.539
814.493; 6663.654;  -13.644;12677.638
815.060; 6228.089;   -9.724;11974.336
815.626; 6297.958;   -9.854;11594.715
816.193; 6783.475;  -13.254;11579.474
816.759; 6896.781;  -13.204;11666.972
817.325; 7154.575;   -9.434;11325.530
817.892; 7577.386;  -10.134;11105.369
818.458; 7974.770;  -13.474;10843.928
819.024; 7606.113;  -11.854;10714.406
819.591; 7269.880;  -10.244;10469.165
820.157; 6972.505;  -10.704;10235.523
820.723; 6499.066;  -12.324;10847.563
821.289; 6268.750;   -9.444;11040.980
821.855; 6230.742;   -8.374;10357.100
822.421; 6279.830;  -10.234; 9978.918
822.987; 6199.175;  -13.294; 9754.177
823.553; 5848.089;  -10.884;10065.755
824.119; 5708.184;   -8.884;10036.294
824.685; 5818.175;   -6.784;10029.192
825.251; 5844.221;  -12.004;10199.230
825.816; 5763.396;  -11.474; 9820.189
826.382; 5617.593;   -9.174; 9297.248
826.948; 5885.289;   -9.214; 9381.347
827.513; 6282.917;  -10.774; 9450.726
828.079; 6053.022;  -11.924; 9472.444
828.645; 5445.009;  -10.543; 9292.643
829.210; 5352.450;  -10.533; 9065.341
829.776; 5323.028;  -10.753; 9132.620
830.341; 5244.101;  -10.173; 9092.878
830.906; 5454.070;  -10.743; 9078.557
831.472; 5777.562;  -11.113; 8534.535
832.037; 5524.948;  -10.603; 8677.874
832.602; 5001.589;  -13.323; 8628.692
833.167; 4634.114;  -10.823; 8879.031
833.733; 4571.917;  -10.113; 9189.790
834.298; 4686.275;  -13.583; 9052.608
834.863; 4658.232;  -12.703; 8895.087
835.428; 4673.892;  -10.523; 8824.266
835.993; 4731.538;   -6.963; 8845.385
836.558; 4647.501;  -10.763; 8888.563
837.123; 4708.292;   -9.903; 8966.582
837.688; 4836.275;   -9.913; 8617.860
838.253; 4971.546;  -10.283; 8590.699
838.817; 5130.488;  -12.963; 8443.797
839.382; 5060.856;  -14.243; 8799.356
839.947; 4783.652;  -10.733; 8810.595
840.511; 4483.978;   -9.383; 8796.394
841.076; 4112.143;  -12.563; 8347.231
841.641; 4120.076;  -12.953; 8224.330
842.205; 4164.520;   -7.043; 8223.349
842.770; 4333.064;   -8.163; 8622.107
843.334; 4633.975;  -12.503; 8410.386
843.898; 4585.780;  -11.693; 8337.465
844.463; 4526.712;  -10.203; 8506.283
845.027; 4233.245;   -9.533; 8280.962
845.591; 4052.053;  -13.443; 8231.141
846.156; 4054.276;  -13.143; 7969.179
846.720; 3910.912;   -9.433; 7768.278
847.284; 3765.022;  -11.033; 7630.957
847.848; 3558.797;  -10.403; 7472.395
848.412; 3450.856;  -11.553; 7437.394
848.976; 3508.562;   -8.393; 7674.592
849.540; 3452.670;   -8.713; 7836.011
850.104; 3564.988;  -12.463; 7913.669
850.668; 3888.208;  -12.973; 7694.508
851.232; 3948.423;  -10.793; 7756.887
851.796; 3760.655;  -10.662; 7926.545
852.359; 3481.970;  -13.082; 7827.844
852.923; 3358.756;  -12.192; 7641.163
853.487; 3182.410;  -11.912; 7342.501
854.050; 3127.395;  -10.892; 7042.820
854.614; 3309.639;  -13.992; 7151.338
855.177; 3470.915;  -11.732; 7105.077
855.741; 3518.495;   -8.962; 6989.675
856.304; 3338.166;   -9.442; 6596.634
856.868; 3277.413;  -14.192; 6356.272
857.431; 3448.591;  -12.702; 6468.571
857.995; 3570.498;   -9.942; 6373.210
858.558; 3583.605;   -9.112; 6324.448
859.121; 3299.958;  -12.932; 6408.327
859.684; 3161.303;  -13.442; 6347.886
860.247; 3254.283;  -10.632; 6321.264
860.810; 3208.112;  -11.272; 6301.903
861.374; 2920.849;   -9.832; 6607.881
861.937; 2649.775;  -11.762; 6408.200
862.500; 2628.608;   -9.722; 6572.639
863.062; 2769.512;  -10.512; 6387.297
863.625; 2926.200;  -11.232; 6190.836
864.188; 3084.412;  -14.112; 5807.254
864.751; 3145.179;  -11.302; 5682.413
865.314; 3020.780;  -10.112; 5547.492
865.876; 2865.064;  -12.182; 5500.150
866.439; 2881.524;  -10.722; 5415.909
867.002; 2785.110;   -9.252; 5501.567
867.564; 2546.111;   -9.572; 5413.946
868.127; 2352.864;  -13.142; 5160.325
868.689; 2322.303;  -12.902; 5133.183
869.252; 2280.986;   -9.732; 5252.382
869.814; 2180.545;   -9.432; 5297.141
870.377; 2171.606;  -11.552; 5390.919
870.939; 2249.190;   -9.052; 5599.898
871.501; 2302.179;  -10.982; 5248.336
872.063; 2315.368;  -12.292; 4854.235
872.626; 2297.681;  -14.912; 4817.074
873.188; 2276.314;  -13.112; 4987.732
873.750; 2214.429;  -13.442; 4868.651
874.312; 2130.041;   -9.402; 4779.330
874.874; 2050.225;  -11.062; 4866.348
875.436; 1985.369;  -13.931; 4718.887
875.998; 1955.149;   -9.561; 4660.005
876.560; 1917.598;  -11.321; 4462.964
877.122; 1837.354;  -12.221; 4145.042
877.683; 1741.023;  -12.191; 4056.481
878.245; 1682.782;  -12.101; 3950.740
878.807; 1737.461;   -8.971; 4058.958
879.369; 1741.576;  -12.071; 3954.677
879.930; 1618.746;  -14.621; 3941.495
880.492; 1557.687;  -10.311; 4067.014
881.053; 1527.173;  -10.901; 3859.633
881.615; 1425.955;  -14.411; 3776.071
882.176; 1373.906;  -13.761; 3734.750
882.738; 1375.366;   -9.181; 3678.489
883.299; 1371.567;  -11.791; 3405.407
883.860; 1372.988;  -13.121; 3351.106
884.422; 1366.242;  -11.211; 3394.044
884.983; 1310.300;  -10.091; 3166.443
885.544; 1210.347;   -8.461; 3189.802
886.105; 1142.213;  -12.361; 3160.360
886.666; 1089.768;  -14.141; 3093.059
887.227; 1033.558;  -11.361; 2941.957
887.788;  955.901;  -11.401; 2974.836
888.349;  883.009;  -13.791; 2721.214
888.910;  884.547;  -13.191; 2696.493
889.471;  893.080;   -9.881; 2560.172
890.032;  865.559;   -9.881; 2558.190
890.593;  834.205;  -10.371; 2567.669
891.153;  806.011;  -13.301; 2460.307
891.714;  759.469;  -11.431; 2372.046
892.275;  720.536;  -11.291; 2309.505
892.835;  681.437;  -11.471; 2382.543
893.396;  631.477;  -11.541; 2295.502
893.956;  580.109;  -11.181; 2162.420
894.517;  543.565;  -11.741; 2125.439
895.077;  540.626;  -11.671; 2086.978
895.638;  539.603;  -11.311; 2126.316
896.198;  509.763;   -9.831; 1838.275
896.758;  461.710;   -8.421; 1892.813
897.319;  427.546;  -12.351; 1792.232
897.879;  413.884;  -13.511; 1762.751
898.439;  390.526;  -12.001; 1661.149
898.999;  363.600;  -10.180; 1781.468
899.559;  353.849;  -12.030; 1703.347
900.119;  349.686;  -15.710; 1537.525
900.679;  347.758;   -8.900; 1638.384
901.239;  333.765;   -8.340; 1527.902
901.799;  322.973;  -13.910; 1456.441
902.359;  315.120;  -13.460; 1357.140
902.919;  302.975;  -11.490; 1331.118
903.479;  288.388;  -12.110; 1317.257
904.038;  265.823;  -11.720; 1262.595
904.598;  250.917;  -13.610; 1152.034
905.158;  246.387;  -11.040; 1240.893
905.717;  239.743;  -10.900; 1233.691
906.277;  227.656;  -15.080; 1217.330
906.836;  217.770;  -13.380; 1222.408
907.396;  210.721;  -10.780; 1193.047
907.955;  203.234;   -8.500; 1182.526
908.515;  197.643;  -12.760; 1099.364
909.074;  190.754;  -11.900; 1092.863
909.633;  185.589;   -8.950; 1069.121
910.192;  181.049;   -8.770; 1196.460
910.752;  176.989;  -12.390; 1029.960
911.311;  172.043;  -13.680; 1009.780
911.870;  169.874;  -12.370;  971.460
912.429;  169.831;  -10.900; 1094.080
912.988;  167.530;  -11.690; 1081.060
913.547;  163.170;  -13.240;  940.380
914.106;  158.801;  -11.990;  999.420
914.665;  155.137;   -9.990;  984.020
915.224;  153.753;  -12.880; 1035.760
915.782;  153.308;  -12.350;  922.560
916.341;  152.350;   -9.110; 1049.840
916.900;  148.980;   -9.270;  925.260
917.458;  147.875;  -13.240;  884.220
918.017;  147.234;  -13.550;  942.600
918.576;  146.892;  -12.320;  904.440
919.134;  144.678;  -11.490;  837.980
919.693;  141.557;  -13.670;  893.060
920.251;  140.515;  -15.470;  876.500
920.809;  139.511;  -11.290;  839.580
921.368;  139.005;  -10.210;  885.360
921.926;  137.355;  -12.140;  842.940
922.484;  136.191;  -13.080;  903.360
923.042;  135.618;  -11.720;  880.340
923.601;  138.783;   -7.480;  998.680
924.159;  136.778;  -11.570;  935.560
924.717;  133.213;  -13.840;  841.080
925.275;  133.194;  -10.640;  903.240
925.833;  132.997;  -11.540;  779.320
926.391;  133.877;  -12.960;  938.380
926.949;  131.360;  -14.130;  857.680
927.506;  132.042;  -11.750;  903.500
928.064;  132.936;  -10.250;  877.580
928.622;  132.472;  -13.030;  880.100
929.180;  131.466;  -13.400;  814.180
929.737;  133.338;  -10.700;  808.540
930.295;  136.617;  -10.070;  928.480
930.853;  137.705;  -11.960;  849.100
931.410;  139.544;  -13.120;  821.120
931.968;  138.876;  -10.770;  940.660
932.525;  137.836;  -10.680;  909.380
933.082;  138.290;  -13.130;  811.440
933.640;  138.739;  -13.210;  925.900
934.197;  137.109;  -11.060;  886.360
934.754;  138.895;   -9.580;  897.780
935.312;  141.538;  -14.000;  863.340
935.869;  145.985;  -10.710; 1012.980
936.426;  146.416;   -9.860;  872.800
936.983;  146.808;   -9.710;  889.020
937.540;  145.684;  -13.990;  838.280
938.097;  144.256;  -14.040;  940.120
938.654;  145.297;  -10.310;  898.860
939.211;  148.859;  -10.560;  952.480
939.768;  151.518;  -13.900;  915.420
940.324;  155.056;  -14.760;  904.200
940.881;  157.319;  -10.370;  878.500
941.438;  157.603;   -8.260; 1021.200
941.995;  153.039;  -12.540;  992.560
942.551;  148.846;  -14.670;  875.620
943.108;  149.096;  -10.450;  937.920
943.664;  152.447;  -10.750;  869.340
944.221;  156.788;  -11.550; 1088.140
944.777;  154.698;  -14.770;  869.680
945.334;  157.321;  -12.820;  884.840
945.890;  159.850;  -10.130;  946.480
946.446;  159.418;  -13.470;  947.020
947.003;  159.858;  -12.120;  964.940
947.559;  162.024;   -9.980; 1063.040
948.115;  160.925;   -9.080; 1026.540
948.671;  158.778;  -10.830;  967.300
949.227;  155.747;  -12.440;  859.560
949.783;  153.492;  -12.910;  858.900
950.339;  154.965;  -10.270;  991.000
950.895;  154.818;  -13.630; 1023.840
951.451;  155.454;  -15.100;  925.280
952.007;  157.621;  -11.330;  998.540
952.563;  158.864;  -10.580;  937.780
953.118;  158.491;  -13.440;  904.940
953.674;  158.748;  -12.710;  935.780
954.230;  158.894;  -10.350;  949.640
954.785;  156.626;   -9.190;  936.640
955.341;  155.604;  -11.200;  998.160
955.897;  153.959;  -16.560;  834.660
956.452;  153.329;  -12.570;  953.840
957.008;  151.697;   -7.970; 1083.640
957.563;  149.267;  -11.940; 1009.540
958.118;  145.061;  -13.450;  877.700
958.674;  146.843;  -12.030;  946.780
959.229;  148.352;   -9.410; 1013.980
959.784;  145.237;  -12.000;  832.400
960.339;  143.402;  -14.780; 1001.280
960.894;  138.729;   -9.860;  963.760
961.449;  135.936;   -9.970;  859.960
962.004;  136.508;  -10.900; 1212.840
962.559;  131.354;  -13.150;  860.140
963.114;  129.720;  -13.740;  742.480
963.669;  128.787;   -9.820;  915.500
964.224;  125.919;  -13.890;  874.340
964.779;  124.143;  -12.600;  828.420
965.334;  126.524;  -10.950; 1017.860
965.888;  127.392;  -11.170;  875.360
966.443;  130.799;  -12.540;  972.380
966.998;  131.290;  -15.780;  819.460
967.552;  128.259;   -9.760;  908.380
968.107;  117.836;   -9.060;  868.300
968.661;  108.416;  -11.950;  922.440
969.216;   99.162;  -12.800;  856.280
969.770;   92.673;  -11.210;  917.200
970.324;   91.717;  -11.610;  923.140
970.879;   90.625;  -11.370;  947.180
971.433;   93.406;  -12.540;  952.720
971.987;   92.949;  -11.320;  895.340
972.541;   92.642;  -10.720;  917.100
973.095;   93.516;   -9.680; 1009.460
973.649;   93.298;  -11.440;  809.480
974.203;   94.885;  -11.210;  829.040
974.757;   95.226;  -10.240;  855.220
975.311;   96.005;  -13.720;  872.600
975.865;   95.706;  -13.770;  881.820
976.419;   94.554;  -11.690;  857.400
976.973;   95.110;   -9.510;  849.620
977.526;   97.546;  -12.620;  949.920
978.080;   97.922;  -12.010;  796.780
978.634;   99.393;  -10.170;  921.320
979.187;   96.485;   -9.020;  905.400
979.741;   95.576;   -9.820; 1018.380
980.294;   90.390;  -14.870;  789.160
980.848;   89.571;  -12.380;  717.220
981.401;   90.876;  -10.350;  816.540
981.955;   92.980;  -13.720;  844.300
982.508;   92.298;  -11.490;  746.340
983.061;   92.866;  -10.000;  915.260
983.615;   89.738;  -11.480;  798.800
984.168;   86.417;  -13.220;  770.080
984.721;   86.220;  -13.960;  880.760
985.274;   85.949;  -10.870;  867.500
985.827;   84.208;   -9.790;  834.220
986.380;   82.156;  -13.120;  721.340
986.933;   80.351;  -12.450;  864.800
987.486;   78.690;  -10.210;  861.920
988.039;   78.842;   -8.430;  863.100
988.591;   76.201;  -10.520;  893.260
989.144;   73.538;  -14.860;  737.260
989.697;   72.853;  -13.080;  758.740
990.250;   74.379;  -10.150;  858.100
990.802;   73.762;  -13.430;  755.860
991.355;   73.280;  -12.750;  974.880
991.907;   71.340;  -12.040;  864.320
992.460;   69.400;  -11.330;  753.760
993.012;   69.281;  -13.610;  749.540
993.565;   68.091;  -13.460;  711.360
994.117;   69.757;   -9.360;  950.780
994.669;   65.234;  -11.300;  701.320
995.221;   63.693;  -13.540;  791.920
995.774;   61.851;  -13.430;  787.580
996.326;   60.380;  -12.520;  740.220
996.878;   60.545;  -10.950;  838.420
997.430;   58.094;  -14.300;  699.860
997.982;   57.246;  -13.760;  750.140
998.534;   56.189;  -11.530;  739.060
999.086;   55.297;  -10.310;  738.220
999.638;   54.471;  -12.530;  661.380
1000.190;   53.405;  -11.840;  699.320
1000.741;   53.301;  -10.260;  742.700
1001.293;   52.407;   -8.860;  686.020
1001.845;   51.002;  -13.700;  676.640
1002.396;   50.607;  -12.100;  743.400
1002.948;   49.163;  -12.760;  737.400
1003.500;   46.634;  -10.380;  723.780
1004.051;   46.465;  -11.900;  907.580
1004.603;   45.249;  -12.250;  791.820
1005.154;   41.812;  -13.210;  608.980
1005.705;   42.603;  -10.950;  723.960
1006.257;   42.318;  -13.880;  707.220
1006.808;   41.364;  -12.840;  685.460
1007.359;   41.079;  -10.570;  763.240
1007.910;   40.351;   -9.620;  646.640
1008.461;   40.445;  -13.630;  732.940
1009.013;   38.875;  -17.200;  588.340
1009.564;   39.608;  -10.200;  793.520
1010.115;   37.437;  -12.570;  597.040
1010.665;   37.083;  -15.150;  602.160
1011.216;   37.268;  -14.480;  667.920
1011.767;   37.244;  -11.340;  697.920
1012.318;   36.959;   -9.780;  736.980
1012.869;   36.483;  -12.380;  679.000
1013.419;   35.515;  -15.560;  603.120
1013.970;   35.964;  -11.010;  666.640
1014.521;   35.081;  -11.610;  620.620
1015.071;   35.101;  -13.450;  670.380
1015.622;   35.457;  -13.870;  635.460
1016.172;   34.533;  -11.610;  596.820
1016.723;   33.867;  -12.120;  614.380
1017.273;   33.947;  -13.620;  604.160
1017.823;   34.593;  -14.140;  650.340
1018.374;   33.794;  -12.800;  611.760
1018.924;   33.379;  -12.340;  716.880
1019.474;   33.965;  -11.410;  718.880
1020.024;   32.132;  -14.770;  657.580
1020.574;   33.782;   -9.780;  726.160
1021.124;   32.587;   -8.560;  673.580
1021.674;   31.470;  -15.190;  559.120
1022.224;   33.427;  -13.530;  708.940
1022.774;   32.235;  -13.280;  668.820
1023.324;   32.855;  -10.690;  753.520
1023.874;   33.734;  -10.240;  875.760
1024.423;   30.753;  -12.540;  613.700
1024.973;   30.758;  -10.010;  610.760
1025.523;   30.562;  -10.550;  620.960
1026.072;   30.450;  -13.560;  606.420
1026.622;   29.887;  -15.120;  675.740
1027.172;   30.913;  -11.260;  715.660
1027.721;   29.566;  -11.410;  601.220
1028.270;   30.463;  -13.530;  663.400
1028.820;   29.543;  -13.680;  638.080
1029.369;   29.023;  -13.520;  612.700
1029.918;   29.955;  -10.980;  649.840
1030.468;   28.750;  -13.530;  564.780
1031.017;   29.041;  -13.170;  634.800
1031.566;   28.345;  -12.200;  608.900
1032.115;   28.403;   -9.960;  694.500
1032.664;   27.034;  -13.210;  596.480
1033.213;   28.515;  -12.500;  735.420
1033.762;   28.611;  -11.910;  635.620
1034.311;   28.108;   -9.640;  677.220
1034.860;   27.863;  -13.310;  691.000
1035.408;   28.088;  -11.830;  722.720
1035.957;   28.460;  -12.000;  719.540
1036.506;   25.817;  -11.690;  530.800
1037.055;   28.276;  -10.990;  844.320
1037.603;   26.665;  -15.120;  664.000
1038.152;   25.388;  -12.450;  534.760
1038.700;   25.878;  -10.560;  585.740
1039.249;   25.712;  -11.080;  681.220
1039.797;   25.729;  -12.540;  633.360
1040.345;   26.327;  -11.920;  705.420
1040.894;   24.825;  -11.410;  625.300
1041.442;   25.024;  -14.320;  632.200
1041.990;   24.089;  -16.240;  559.160
1042.538;   24.246;  -11.680;  536.180
1043.087;   24.099;  -10.760;  570.860
1043.635;   25.061;  -11.850;  670.500
1044.183;   23.684;  -15.480;  586.400
1044.731;   24.014;  -11.770;  576.000
1045.279;   23.527;  -13.090;  674.920
1045.827;   25.561;  -12.440;  892.400
1046.374;   22.791;  -13.840;  515.420
1046.922;   22.161;  -13.220;  590.580
1047.470;   23.864;  -10.230;  691.300
1048.018;   23.527;  -14.590;  647.960
1048.565;   24.107;  -12.050;  708.600
1049.113;   22.389;  -11.650;  557.000
1049.660;   22.224;  -10.510;  629.660
1050.208;   23.122;  -13.310;  675.640
1050.755;   21.425;  -15.900;  606.580
1051.303;   22.552;  -11.430;  686.820
1051.850;   21.640;   -8.480;  635.120
1052.397;   20.670;  -15.010;  473.960
1052.945;   20.828;  -13.960;  617.760
1053.492;   22.390;  -13.150;  741.840
1054.039;   22.561;   -9.630;  720.180
1054.586;   21.070;  -13.680;  557.240
1055.133;   22.040;  -14.570;  693.140
1055.680;   21.127;  -13.820;  646.620
1056.227;   20.233;  -11.730;  542.780
1056.774;   22.022;  -12.480;  794.980
1057.321;   20.611;  -13.930;  523.260
1057.868;   20.626;  -11.690;  651.320
1058.415;   20.512;   -9.520;  651.980
1058.961;   20.475;  -13.160;  678.940
1059.508;   20.480;  -12.920;  643.820
1060.055;   20.319;  -11.920;  581.780
1060.601;   20.635;  -11.500;  624.300
1061.148;   20.122;  -14.330;  616.820
1061.694;   19.276;  -16.870;  592.580
1062.241;   18.918;  -10.330;  596.320
1062.787;   19.775;  -10.620;  663.140
1063.334;   20.279;  -10.110;  808.560
1063.880;   19.171;  -13.400;  668.360
1064.426;   19.214;  -10.680;  706.820
1064.972;   18.281;   -9.920;  601.340
1065.518;   17.167;  -10.980;  566.640
1066.065;   18.400;  -14.890;  624.460
1066.611;   17.589;  -12.870;  598.800
1067.157;   18.807;  -12.950;  641.860
1067.703;   18.337;  -13.540;  668.480
1068.249;   17.836;  -13.540;  605.220
1068.794;   17.813;  -12.600;  626.880
1069.340;   16.811;  -10.620;  578.960
1069.886;   17.978;  -12.830;  590.700
1070.432;   16.381;  -14.870;  541.720
1070.977;   16.087;  -11.980;  601.080
1071.523;   16.725;   -8.200;  573.060
1072.068;   16.672;  -12.330;  582.000
1072.614;   16.533;  -16.370;  527.760
1073.160;   17.479;  -11.100;  687.040
1073.705;   15.770;  -10.480;  572.520
1074.250;   15.592;  -14.520;  559.900
1074.796;   17.398;  -11.460;  655.160
1075.341;   17.444;  -11.950;  664.100
1075.886;   16.220;  -11.460;  594.240
1076.431;   16.034;  -13.770;  649.880
1076.976;   15.411;  -12.680;  639.220
1077.521;   15.207;  -13.170;  583.080
1078.067;   14.889;  -10.860;  579.400
1078.612;   15.543;  -13.920;  661.620
1079.156;   15.239;  -13.880;  601.540
1079.701;   16.258;  -13.120;  693.260
1080.246;   15.622;   -9.940;  696.300
1080.791;   15.221;  -14.740;  625.020
1081.336;   14.647;  -13.750;  659.320
1081.880;   15.469;  -13.400;  649.680
1082.425;   14.025;  -12.220;  573.480
1082.970;   15.579;  -11.610;  717.040
1083.514;   13.984;  -13.580;  597.000
1084.059;   13.698;  -12.810;  586.720
1084.603;   13.669;  -12.320;  565.840
1085.147;   13.665;  -13.190;  645.220
1085.692;   14.371;  -12.480;  716.800
1086.236;   13.120;  -13.020;  503.140
1086.780;   14.604;   -9.190;  751.440
1087.325;   14.365;  -12.480;  654.620
1087.869;   13.855;  -12.450;  610.700
1088.413;   14.185;  -12.240;  705.040
1088.957;   12.342;   -9.020;  543.400
1089.501;   14.040;  -10.320;  766.640
1090.045;   13.096;  -12.720;  726.480
1090.589;   11.407;  -13.690;  569.920
1091.133;   12.775;  -10.020;  673.340
1091.676;   13.004;  -12.330;  591.940
1092.220;   12.194;  -14.970;  600.920
1092.764;   13.037;  -12.430;  706.960
1093.307;   12.794;   -9.800;  673.780
1093.851;   11.200;  -14.970;  556.540
1094.395;   12.379;  -15.310;  683.140
1094.938;   11.987;  -10.370;  632.520
1095.482;   12.002;  -11.050;  559.800
1096.025;   12.420;  -11.840;  710.880
1096.568;   12.681;  -12.840;  779.280
1097.112;   10.256;  -14.700;  508.180
1097.655;   10.912;   -8.720;  603.000
1098.198;   10.520;  -13.610;  600.180
1098.741;   10.326;  -13.350;  612.860
1099.285;   11.935;  -11.230;  657.300
1099.828;    9.576;  -11.840;  439.400
1100.371;   10.954;  -10.840;  608.160
1100.914;   10.578;  -14.190;  682.660
1101.457;   10.588;  -11.240;  679.900
1101.999;    9.072;  -11.270;  584.680
1102.542;   10.426;  -11.480;  641.440
1103.085;   10.018;  -11.750;  658.500
1103.628;   10.953;  -11.400;  762.060
1104.170;    9.892;  -10.490;  588.280
1104.713;   10.097;  -10.600;  646.700
1105.256;    9.319;  -14.360;  557.440
1105.798;    8.565;  -13.210;  499.980
1106.341;   10.933;  -10.270;  728.900
1106.883;    8.832;  -12.200;  521.340
1107.425;    9.289;  -13.110;  668.180
1107.968;    9.406;  -12.840;  612.380
1108.510;   10.261;   -6.480;  684.960
1109.052;    7.913;  -13.940;  612.620
1109.594;    8.315;  -13.690;  554.440
1110.136;    9.492;  -11.880;  643.220
1110.679;    8.589;   -9.500;  633.080
1111.221;    8.998;  -14.160;  604.460
1111.763;    8.115;  -13.980;  559.220
1112.304;    7.649;  -13.880;  547.140
1112.846;    8.750;  -12.210;  666.240
1113.388;   11.615;  -11.390;  942.180
1113.930;    8.441;  -14.540;  694.200
1114.472;    7.689;  -12.640;  606.540
1115.013;    6.387;  -11.620;  551.280
1115.555;    7.140;  -13.640;  587.100
1116.097;    6.545;  -15.380;  579.480
1116.638;    7.492;  -12.640;  684.600
1117.180;    8.005;   -9.850;  667.740
1117.721;    7.994;  -13.690;  568.580
1118.262;    7.733;  -12.680;  677.960
1118.804;    7.552;  -12.530;  637.340
1119.345;    6.601;  -11.690;  578.400
1119.886;    7.852;  -13.380;  704.040
1120.427;    6.208;  -14.070;  589.020
1120.969;    6.459;  -13.500;  597.920
1121.510;    5.632;  -11.480;  563.060
1122.051;    6.654;  -12.830;  723.580
1122.592;    5.955;  -14.290;  655.420
1123.133;    5.638;  -12.400;  547.940
1123.673;    7.310;  -10.130;  706.480
1124.214;    5.647;  -12.930;  612.460
1124.755;    6.295;  -14.380;  639.460
1125.296;    5.857;  -14.000;  627.320
1125.836;    6.785;  -10.070;  691.500
1126.377;    5.564;  -12.640;  599.660
1126.918;    5.789;  -12.960;  614.980
1127.458;    5.352;  -13.350;  622.220
1127.999;    5.517;  -10.750;  656.980
1128.539;    5.808;  -12.350;  694.240
1129.079;    5.190;  -14.860;  632.720
1129.620;    4.716;  -13.840;  558.100
1130.160;    4.390;  -12.330;  539.480
1130.700;    5.282;  -14.530;  640.840
1131.240;    5.188;  -12.530;  643.700
1131.781;    4.806;  -14.450;  619.680
1132.321;    4.627;   -9.790;  599.120
1132.861;    3.279;  -14.860;  564.200
1133.401;    4.009;  -14.290;  593.940
1133.941;    4.197;  -11.750;  626.280
1134.481;    4.021;   -9.920;  597.580
1135.020;    3.579;  -12.290;  609.160
1135.560;    4.039;  -11.650;  674.940
1136.100;    3.273;  -16.270;  501.160
1136.640;    3.372;  -10.890;  510.480
1137.179;    3.660;  -14.180;  537.960
1137.719;    3.547;  -16.250;  605.400
1138.258;    4.116;  -14.230;  587.360
1138.798;    4.197;   -9.090;  663.780
1139.337;    2.990;  -15.130;  482.840
1139.877;    3.676;  -13.680;  642.360
1140.416;    5.830;  -11.320;  878.060
1140.955;    3.003;  -10.860;  535.380
1141.494;    2.938;  -12.920;  669.280
1142.034;    2.881;  -13.930;  583.520
1142.573;    3.757;  -11.440;  646.280
1143.112;    2.401;  -12.000;  553.480
1143.651;    2.973;  -13.670;  536.480
1144.190;    3.732;  -12.730;  691.640
1144.729;    3.556;  -14.560;  607.420
1145.267;    3.162;  -11.830;  584.900
1145.806;    3.845;  -12.230;  637.040
1146.345;    1.755;  -14.130;  635.020
1146.884;    2.337;  -11.590;  622.500
1147.422;    1.577;  -12.550;  533.060
1147.961;    3.375;  -11.180;  708.460
1148.500;    2.732;  -11.510;  669.720
1149.038;    3.396;  -11.640;  632.500
1149.577;    2.635;  -10.130;  698.640
1150.115;    0.833;  -13.970;  452.280
1150.653;    2.640;  -14.520;  607.340
1151.192;    1.610;  -12.810;  552.920
1151.730;    1.545;   -9.100;  652.560
1152.268;    1.550;  -12.220;  589.520
1152.806;    1.312;  -14.140;  571.180
1153.344;    0.775;  -12.350;  577.640
1153.882;    1.312;   -8.980;  600.060
1154.421;    0.427;  -15.190;  470.620
1154.958;    1.324;  -15.210;  595.240
1155.496;    2.195;  -12.850;  645.280
1156.034;    1.570;   -9.940;  721.880
1156.572;    2.826;  -13.570;  667.060
1157.110;   -0.150;  -14.590;  473.940
1157.647;    1.948;  -13.030;  676.960
1158.185;    0.624;  -12.140;  564.320
1158.723;    0.128;  -14.390;  509.200
1159.260;    0.917;  -14.090;  701.700
1159.798;    1.317;  -11.920;  658.160
1160.335;    0.412;  -11.110;  631.820

