
Integration time [ms]:   3.276
Averaging Nr. [scans]: 1000
Smoothing Nr. [pixels]: 0
Data measured with spectrometer [name]: 7414430SP
Wave   ;Sample   ;Dark     ;Reference
[nm]   ;[counts] ;[counts] ;[counts] 

288.544;  153.451;    7.793;  793.890
289.143;  155.306;    7.462;  681.602
289.742;  156.829;    8.602;  828.814
290.341;  144.503;    1.321;  789.841
290.940;  134.631;   -0.709;  730.702
291.538;  135.696;    0.881;  881.108
292.137;  134.835;    0.122;  792.581
292.736;  138.858;   -1.929;  975.101
293.335;  135.007;   -8.229;  735.086
293.934;  133.906;   -5.279;  781.677
294.532;  134.086;   -1.369; 1031.958
295.131;  121.376;   -7.641;  834.394
295.730;  122.346;   -8.420;  809.588
296.328;  120.490;   -5.611;  783.442
296.927;  119.401;   -5.781;  779.652
297.525;  119.317;   -6.361;  781.236
298.124;  109.341;  -11.382;  654.009
298.722;  114.307;   -7.641;  761.933
299.321;  113.441;   -6.811;  708.597
299.919;  110.521;   -6.991;  751.918
300.518;  106.532;  -10.362;  689.338
301.116;  106.598;   -9.581;  691.381
301.715;  108.116;   -4.891;  730.222
302.313;  108.034;   -8.801;  704.943
302.911;  103.657;   -8.522;  733.830
303.509;  107.243;   -6.171;  925.627
304.108;  105.579;   -7.311;  760.383
304.706;  105.632;   -8.321;  801.664
305.304;  100.264;  -10.222;  796.707
305.902;  104.071;   -6.021;  784.484
306.500;   99.911;   -4.971;  728.200
307.098;   98.421;   -7.061;  746.560
307.696;   95.999;   -8.801;  780.432
308.294;   98.257;   -6.411;  731.359
308.892;   99.346;   -2.901;  759.769
309.490;   95.614;   -5.041;  712.161
310.088;   93.032;   -5.002;  788.444
310.686;   96.208;   -2.041;  821.749
311.284;   92.821;   -2.351;  766.040
311.882;   90.765;   -4.422;  731.225
312.480;   87.019;   -4.192;  697.167
313.078;   88.648;   -1.172;  808.331
313.675;   90.539;   -2.601;  691.600
314.273;   85.222;   -1.312;  797.837
314.871;   84.913;   -3.942;  589.829
315.468;   82.504;   -2.802;  652.090
316.066;   85.595;   -0.701;  694.427
316.664;   78.572;   -4.362;  656.351
317.261;   82.206;   -2.872;  910.128
317.859;   77.602;   -2.022;  768.735
318.456;   78.526;   -0.531;  830.096
319.054;   74.136;   -3.912;  787.828
319.651;   72.950;   -4.752;  759.928
320.249;   72.116;   -2.602;  810.188
320.846;   69.967;   -0.821;  714.286
321.443;   66.703;   -4.642;  832.135
322.041;   64.404;   -5.002;  812.315
322.638;   62.399;   -3.982;  701.456
323.235;   63.561;   -3.411;  665.683
323.833;   60.214;   -7.361;  740.354
324.430;   55.614;   -8.611;  615.900
325.027;   56.056;   -4.061;  876.855
325.624;   56.529;   -4.031;  644.532
326.221;   53.916;   -7.481;  689.717
326.818;   53.739;   -5.281;  818.332
327.415;   55.130;   -7.460;  748.828
328.012;   55.326;   -5.510;  690.585
328.609;   54.057;   -7.880;  731.389
329.206;   52.958;   -8.331;  778.621
329.803;   50.781;   -5.121;  737.841
330.400;   55.712;   -4.510;  704.260
330.997;   57.512;   -6.441;  817.147
331.594;   55.379;   -8.831;  788.185
332.191;   59.647;   -7.621;  728.722
332.787;   63.448;   -4.591;  844.463
333.384;   62.998;   -7.412;  763.093
333.981;   60.211;   -8.293;  815.687
334.578;   63.186;   -7.052;  708.378
335.174;   65.981;   -3.102;  731.469
335.771;   65.572;   -5.943;  836.456
336.367;   61.390;   -7.393;  710.631
336.964;   64.983;   -4.063;  793.266
337.561;   64.384;   -3.813;  731.112
338.157;   60.549;   -4.654;  911.916
338.754;   58.236;   -7.934;  796.589
339.350;   57.254;   -4.414;  722.493
339.946;   58.024;   -4.664;  773.135
340.543;   50.605;   -6.375;  846.136
341.139;   44.949;   -9.815;  720.836
341.735;   42.498;   -4.526;  772.593
342.332;   42.142;   -4.895;  691.472
342.928;   42.540;   -4.295;  795.394
343.524;   36.078;   -5.476;  761.684
344.120;   31.702;   -5.856;  738.562
344.716;   35.856;   -2.155;  723.717
345.313;   33.627;   -6.275;  795.342
345.909;   26.975;   -8.815;  627.336
346.505;   28.837;   -5.305;  740.247
347.101;   30.271;   -2.674;  827.864
347.697;   30.664;   -4.344;  785.398
348.293;   24.535;   -9.975;  627.244
348.889;   25.419;   -5.774;  745.914
349.485;   25.198;   -5.004;  688.205
350.081;   26.185;   -4.704;  772.592
350.676;   20.173;   -6.635;  691.606
351.272;   25.095;   -4.504;  809.530
351.868;   24.912;   -3.914;  780.497
352.464;   22.759;   -9.044;  723.932
353.059;   18.551;   -8.314;  646.017
353.655;   21.514;   -7.024;  777.063
354.251;   22.673;   -5.343;  759.845
354.846;   17.345;   -8.604;  740.646
355.442;   14.842;   -6.945;  753.071
356.038;   16.698;   -7.564;  751.708
356.633;   17.250;   -5.814;  728.594
357.229;   15.307;   -7.364;  724.757
357.824;   13.478;   -8.024;  703.600
358.420;   12.434;   -9.384;  679.726
359.015;   13.956;   -5.104;  695.357
359.610;   14.421;   -6.854;  763.920
360.206;    8.122;  -10.185;  603.240
360.801;   10.046;   -7.054;  646.503
361.396;   13.066;   -5.034;  725.975
361.992;    9.367;   -8.284;  668.220
362.587;    5.806;   -8.625;  670.160
363.182;    7.685;   -7.674;  689.631
363.777;    9.120;   -5.164;  738.242
364.372;    8.907;   -8.604;  737.314
364.967;    5.060;   -9.055;  680.744
365.563;    8.583;   -6.114;  815.567
366.158;    5.790;   -5.814;  685.161
366.753;    6.637;   -7.854;  649.263
367.348;    4.599;   -7.804;  746.056
367.942;    4.254;   -7.954;  697.298
368.537;    4.228;   -4.984;  754.245
369.132;    4.449;   -8.564;  703.428
369.727;    0.097;   -8.855;  638.079
370.322;    1.411;   -6.245;  580.186
370.917;    1.168;   -6.425;  710.646
371.511;    4.227;   -6.294;  861.834
372.106;    0.210;   -7.685;  776.964
372.701;   -3.356;   -7.335;  585.988
373.296;    3.180;   -4.564;  863.135
373.890;   -2.520;  -10.235;  647.840
374.485;   -3.708;   -7.885;  691.199
375.079;    0.006;   -7.324;  738.685
375.674;    0.813;   -3.494;  812.970
376.268;   -2.781;   -8.525;  691.759
376.863;   -8.185;  -10.086;  580.327
377.457;   -2.969;   -7.025;  662.490
378.052;   -4.152;   -3.585;  764.884
378.646;   -5.505;   -7.595;  741.167
379.240;   -5.989;   -8.335;  721.176
379.835;   -4.700;   -5.785;  636.978
380.429;   -6.707;   -4.335;  562.557
381.023;   -6.433;   -6.805;  779.205
381.617;   -8.683;   -9.195;  680.106
382.212;   -5.950;   -6.905;  685.303
382.806;   -4.937;   -3.745;  760.690
383.400;   -8.203;   -7.745;  672.281
383.994;  -10.404;   -9.765;  664.870
384.588;   -6.118;   -6.564;  697.701
385.182;   -4.541;   -5.344;  726.624
385.776;   -6.218;   -8.514;  706.875
386.370;   -9.324;   -9.555;  681.968
386.964;   -8.661;   -8.715;  684.155
387.558;   -7.107;   -6.174;  598.360
388.152;   -9.886;   -8.725;  681.959
388.745;   -8.289;   -7.965;  814.707
389.339;   -7.596;   -5.924;  747.642
389.933;   -6.075;   -5.524;  695.370
390.527;   -6.914;   -7.114;  859.029
391.120;  -13.211;  -10.725;  595.318
391.714;  -10.198;   -8.035;  711.633
392.308;   -6.573;   -3.574;  780.253
392.901;  -10.659;   -7.245;  642.460
393.495;  -11.721;   -9.285;  595.414
394.089;   -9.935;   -5.895;  760.452
394.682;  -10.286;   -4.295;  697.188
395.275;  -11.196;   -9.875;  719.927
395.869;  -12.874;   -8.485;  667.314
396.462;  -11.587;   -7.455;  616.609
397.056;   -6.910;   -5.424;  776.621
397.649;  -11.927;   -6.605;  731.575
398.242;  -10.096;   -8.224;  712.645
398.836;   -9.019;   -7.474;  766.408
399.429;   -8.953;   -7.094;  631.041
400.022;  -12.824;   -9.475;  665.902
400.615;  -11.095;   -7.145;  805.609
401.208;   -8.547;   -7.174;  691.451
401.802;  -10.526;   -5.515;  699.329
402.395;  -11.127;   -9.875;  683.502
402.988;  -13.249;   -8.845;  696.627
403.581;   -9.979;   -8.874;  646.878
404.174;   -6.778;   -5.324;  686.568
404.767;  -10.676;   -9.575;  638.583
405.360;  -13.795;  -10.965;  621.445
405.953;   -7.737;   -8.764;  759.034
406.545;   -7.541;   -7.514;  725.342
407.138;  -10.362;  -10.025;  618.350
407.731;   -9.944;  -10.034;  613.303
408.324;   -6.176;   -9.374;  660.554
408.917;   -6.609;   -6.534;  681.864
409.509;   -9.043;   -8.004;  740.396
410.102;  -10.810;   -9.875;  643.948
410.695;   -5.294;   -8.604;  665.758
411.287;   -6.110;   -6.794;  599.821
411.880;   -6.712;   -9.334;  585.421
412.472;   -9.988;  -10.254;  613.092
413.065;   -7.395;   -6.714;  629.408
413.657;   -4.744;   -7.234;  576.678
414.250;   -5.178;  -10.544;  646.681
414.842;   -6.914;   -9.744;  676.353
415.434;   -4.621;   -6.994;  570.463
416.027;   -0.268;   -5.893;  652.196
416.619;   -3.047;   -7.264;  713.400
417.211;   -3.722;  -10.374;  599.352
417.804;   -0.089;   -7.993;  628.499
418.396;   -3.026;   -7.234;  607.643
418.988;   -1.094;   -9.443;  659.238
419.580;   -4.965;  -10.724;  568.276
420.172;   -2.428;  -10.323;  536.196
420.764;    2.312;   -8.793;  672.482
421.356;    1.284;  -11.143;  636.898
421.948;   -0.771;   -8.293;  677.661
422.540;    4.514;   -7.893;  680.027
423.132;    4.558;   -7.082;  600.641
423.724;    1.020;   -8.653;  561.267
424.316;    2.744;  -10.213;  621.345
424.908;    6.039;   -9.762;  591.517
425.500;    6.720;   -5.572;  647.978
426.092;    8.248;   -8.422;  648.268
426.683;    5.627;   -9.283;  684.836
427.275;    8.677;   -7.852;  641.471
427.867;   10.659;   -5.272;  668.948
428.458;   11.024;   -7.682;  732.344
429.050;    9.016;  -10.612;  680.749
429.642;   12.079;   -9.882;  743.124
430.233;   13.155;   -6.962;  569.356
430.825;   13.759;   -6.842;  724.809
431.416;   10.646;   -9.672;  698.241
432.008;   14.616;   -6.552;  651.723
432.599;   14.980;   -6.891;  656.073
433.190;   12.739;  -10.912;  637.670
433.782;   11.836;  -11.172;  590.395
434.373;   18.918;   -6.061;  884.765
434.964;   17.841;   -8.251;  602.920
435.556;   15.946;   -9.722;  634.537
436.147;   18.189;   -9.082;  758.490
436.738;   18.291;   -8.041;  701.099
437.329;   23.956;   -7.341;  721.723
437.920;   15.857;   -8.162;  666.688
438.511;   17.050;  -11.802;  564.526
439.103;   22.767;  -10.191;  623.998
439.694;   25.296;   -7.601;  681.583
440.285;   24.928;   -8.541;  764.432
440.876;   23.753;   -9.751;  845.738
441.466;   23.314;   -9.401;  575.162
442.057;   28.790;   -7.760;  665.814
442.648;   27.086;   -9.971;  746.255
443.239;   25.727;  -11.001;  620.477
443.830;   30.629;   -7.990;  704.958
444.421;   32.106;   -7.910;  655.474
445.011;   28.586;   -8.131;  693.619
445.602;   27.948;   -7.111;  743.126
446.193;   30.240;  -10.920;  488.117
446.783;   34.699;   -6.500;  640.397
447.374;   30.436;   -8.671;  692.759
447.964;   30.797;  -10.781;  713.770
448.555;   38.926;   -9.650;  822.742
449.145;   35.552;   -8.660;  662.853
449.736;   36.876;   -8.990;  803.179
450.326;   36.440;   -9.500;  713.626
450.917;   40.893;   -8.680;  675.324
451.507;   40.357;   -7.520;  600.661
452.097;   41.148;   -8.590;  746.267
452.688;   42.446;  -11.340;  742.160
453.278;   41.400;  -10.100;  566.840
453.868;   46.621;   -6.019;  793.550
454.458;   44.480;   -9.440;  651.141
455.048;   44.565;  -10.560;  711.783
455.639;   45.927;  -11.799;  567.096
456.229;   50.176;   -6.899;  710.694
456.819;   51.560;   -7.389;  751.158
457.409;   51.529;  -11.119;  773.993
457.999;   53.777;   -9.289;  737.505
458.589;   54.086;   -6.139;  686.606
459.179;   54.174;   -8.729;  717.658
459.769;   52.917;   -9.789;  627.099
460.358;   58.289;  -10.259;  797.262
460.948;   57.510;   -7.299;  689.503
461.538;   59.478;  -10.289;  660.677
462.128;   56.777;  -11.269;  664.934
462.717;   62.889;   -9.368;  710.326
463.307;   67.021;   -7.908;  705.846
463.897;   62.832;   -9.599;  656.942
464.486;   61.681;   -9.769;  837.128
465.076;   66.008;   -8.048;  733.776
465.666;   69.704;   -9.358;  652.900
466.255;   67.736;   -7.919;  785.651
466.845;   66.962;  -11.689;  666.749
467.434;   69.726;   -7.818;  725.873
468.023;   70.865;   -7.678;  658.357
468.613;   68.168;  -10.939;  713.946
469.202;   73.299;  -10.118;  646.507
469.791;   77.040;   -9.108;  737.811
470.381;   78.609;   -6.058;  742.813
470.970;   78.529;  -10.428;  711.099
471.559;   78.307;  -10.268;  733.291
472.148;   82.223;   -8.448;  675.737
472.738;   84.427;   -6.917;  765.466
473.327;   84.662;  -11.978;  637.529
473.916;   82.996;  -11.888;  737.446
474.505;   87.720;   -9.437;  751.703
475.094;   90.754;   -6.747;  806.570
475.683;   91.121;   -9.367;  797.699
476.272;   91.511;  -12.637;  730.632
476.861;   94.902;  -10.027;  706.754
477.449;   99.832;   -8.716;  728.487
478.038;   95.819;   -9.577;  692.513
478.627;   97.274;   -9.718;  714.852
479.216;  102.875;   -8.947;  769.441
479.805;  106.298;   -6.256;  783.375
480.393;  106.652;   -7.937; 1008.945
480.982;  105.708;   -7.717;  874.501
481.571;  112.094;   -9.266;  858.333
482.159;  113.530;   -7.636;  705.386
482.748;  113.320;   -9.667;  821.385
483.336;  117.543;  -10.376;  858.209
483.925;  118.615;   -7.147;  774.373
484.513;  126.065;   -7.996;  758.962
485.102;  123.019;  -10.027;  810.965
485.690;  131.850;  -10.446; 1011.050
486.278;  132.934;   -8.446;  979.329
486.867;  135.611;   -6.356;  809.662
487.455;  137.779;   -9.136;  898.229
488.043;  139.540;  -10.646;  748.361
488.631;  148.336;   -7.456; 1005.079
489.220;  152.671;   -6.636;  908.626
489.808;  155.286;  -11.036;  741.415
490.396;  163.890;  -10.246;  914.645
490.984;  173.395;   -8.556;  830.161
491.572;  188.273;   -5.886;  940.315
492.160;  199.452;   -9.486;  919.081
492.748;  213.084;  -10.976;  884.341
493.336;  241.000;   -8.776; 1019.693
493.924;  283.389;   -5.465;  958.077
494.512;  336.850;   -9.986; 1066.638
495.100;  394.359;  -10.636; 1103.280
495.687;  485.279;  -10.885; 1206.373
496.275;  591.865;   -8.126; 1150.796
496.863;  697.784;  -10.586; 1281.171
497.451;  844.136;  -11.926; 1386.805
498.038;  980.941;  -10.885; 1556.729
498.626; 1148.498;   -6.315; 1741.407
499.214; 1428.052;   -7.326; 2016.609
499.801; 1736.777;  -11.906; 2220.633
500.389; 2120.445;  -10.466; 2312.494
500.976; 2478.003;   -5.236; 2744.849
501.564; 3107.762;   -8.936; 3148.565
502.151; 3903.991;  -13.176; 3515.999
502.738; 4383.286;  -10.646; 3971.274
503.326; 4873.515;   -9.525; 4403.796
503.913; 5311.452;  -10.856; 5161.749
504.500; 5881.303;  -11.586; 5986.420
505.088; 6604.623;  -10.336; 6381.201
505.675; 7664.113;   -6.355; 6925.547
506.262; 8241.848;   -9.046; 7619.060
506.849; 8683.268;  -10.416; 8733.969
507.436; 9357.143;  -10.305; 9790.121
508.023; 9916.970;   -5.496; 9985.472
508.610; 9913.152;   -7.856;10434.618
509.197;10827.930;  -10.097;11198.435
509.784;12332.014;  -10.886;12391.194
510.371;13844.888;   -9.315;13603.713
510.958;15268.716;   -9.936;14426.586
511.545;16140.859;   -9.326;15243.775
512.132;16212.638;  -10.075;15945.876
512.719;16547.457;   -7.796;16340.369
513.305;17903.760;  -10.606;18011.766
513.892;19654.926;  -11.486;19754.971
514.479;21023.879;   -9.126;20967.805
515.066;22286.777;   -6.026;22299.793
515.652;22034.131;   -8.466;22908.660
516.239;22457.600;  -10.886;23798.875
516.825;24163.605;  -11.496;25567.275
517.412;25987.053;   -5.796;28154.959
517.998;27245.170;  -10.506;28344.111
518.585;28032.600;  -10.076;27134.219
519.171;27285.379;   -8.315;27268.576
519.758;28250.502;   -8.596;28964.129
520.344;30968.115;   -8.466;30664.494
520.930;29908.408;  -11.006;32550.605
521.516;27852.084;  -10.495;35422.895
522.103;29940.027;   -5.526;38280.004
522.689;32594.176;   -8.746;37835.117
523.275;33350.918;  -11.376;37288.613
523.861;35496.688;  -11.156;37281.395
524.447;35299.762;   -8.135;37846.949
525.033;35444.410;   -7.896;38321.949
525.619;35937.680;  -12.476;38579.285
526.205;35787.422;   -9.516;40622.875
526.791;35135.559;   -6.926;42258.836
527.377;35021.156;   -8.346;42966.902
527.963;36644.637;   -8.717;42018.949
528.549;38430.855;  -11.016;42476.828
529.135;36651.426;   -8.536;41854.852
529.721;36541.340;   -9.666;41237.711
530.306;35575.559;  -10.066;41259.445
530.892;36381.984;  -11.356;41506.047
531.478;38279.484;   -6.596;43559.613
532.063;39952.527;   -8.836;47695.563
532.649;38407.871;  -10.047;50808.324
533.235;39117.871;   -9.746;51787.500
533.820;41085.426;   -6.566;52145.035
534.406;42868.813;  -10.817;51133.488
534.991;44932.117;   -9.416;49996.805
535.576;43379.918;   -9.036;48882.852
536.162;40199.805;   -6.156;46942.285
536.747;40816.242;  -11.607;45711.746
537.333;43870.867;  -11.787;48510.180
537.918;44548.469;  -12.437;50439.891
538.503;43834.766;   -7.196;50863.711
539.088;44371.438;  -10.556;50906.922
539.673;45270.277;   -8.767;52621.965
540.259;42145.930;  -10.026;52368.094
540.844;41648.020;   -7.416;50879.109
541.429;41606.160;   -9.467;52077.777
542.014;40515.820;   -9.527;52716.695
542.599;43377.367;   -9.946;52363.281
543.184;44904.699;   -7.927;53187.137
543.769;45274.512;   -9.297;54697.605
544.354;45867.676;  -10.127;53913.914
544.938;43573.602;   -9.267;49680.164
545.523;41381.414;   -6.506;47386.277
546.108;43041.176;   -9.787;49151.949
546.693;43772.887;  -11.587;51384.637
547.278;44626.723;  -10.986;51853.254
547.862;45746.094;   -8.206;51173.750
548.447;43883.863;  -10.067;51691.395
549.031;43234.398;   -9.637;52456.703
549.616;43651.137;   -9.926;52714.516
550.201;42884.031;   -6.347;52414.598
550.785;43466.656;   -7.917;52355.059
551.370;44519.734;  -10.867;54589.453
551.954;47349.871;   -9.047;58267.348
552.538;46692.605;   -7.827;59062.176
553.123;44397.594;  -10.287;58115.285
553.707;42692.582;  -12.178;56556.285
554.291;40235.535;   -8.717;56201.668
554.876;41719.926;   -7.457;55335.762
555.460;44152.773;  -10.387;54155.703
556.044;46235.113;   -9.618;53721.484
556.628;46604.773;  -11.567;53731.016
557.212;47179.758;   -8.097;54312.531
557.796;49709.219;  -11.077;53797.773
558.380;47782.684;  -11.108;56145.984
558.964;45743.203;   -9.057;57277.930
559.548;42859.184;   -6.977;56459.641
560.132;39488.738;  -11.457;54434.543
560.716;41209.109;  -11.378;54800.617
561.300;43552.637;   -9.577;57606.945
561.884;42104.305;   -7.127;58972.445
562.467;40949.527;   -7.118;57327.570
563.051;39505.652;  -13.358;54962.434
563.635;37457.527;  -10.178;52594.473
564.219;39359.965;   -7.837;50610.410
564.802;43376.070;  -11.398;49551.180
565.386;44490.066;  -12.788;48370.953
565.969;45274.402;   -9.077;48178.871
566.553;43928.992;   -6.207;49957.305
567.136;42291.809;   -8.568;50369.594
567.720;43012.043;  -11.868;49492.004
568.303;43981.383;   -8.268;50616.352
568.887;43962.195;   -8.698;50727.148
569.470;41954.121;   -6.808;51698.379
570.053;39297.641;  -13.188;52122.078
570.637;36689.867;  -12.037;52536.438
571.220;36794.891;   -8.577;51186.098
571.803;37206.266;   -8.498;51032.762
572.386;39469.391;  -10.498;49609.887
572.969;40685.922;   -9.388;48285.926
573.552;41444.352;   -8.338;47624.285
574.135;40812.828;   -8.518;45498.641
574.718;37285.348;  -13.628;41970.434
575.301;37390.988;  -10.893;41447.137
575.884;37496.629;   -8.158;40923.836
576.467;41673.020;  -10.328;45267.723
577.050;41709.566;  -13.058;48175.543
577.633;39920.945;   -9.458;47729.328
578.216;36558.676;   -8.928;47579.793
578.799;34612.953;   -9.358;47820.996
579.381;35826.156;  -11.388;48115.551
579.964;36075.789;  -11.718;47333.766
580.547;34744.117;   -8.588;46668.969
581.129;35330.922;   -8.859;44466.141
581.712;37129.844;  -10.729;44164.922
582.294;37049.973;  -11.118;46477.855
582.877;37546.680;   -5.218;48244.254
583.459;37516.332;   -8.679;47437.895
584.042;39072.492;  -10.709;46943.219
584.624;37574.383;  -11.669;46792.227
585.206;36419.266;   -8.218;46557.250
585.789;37597.680;  -10.569;45793.773
586.371;38171.234;  -11.859;43836.391
586.953;39179.305;  -10.719;42972.492
587.536;40663.340;   -7.198;42487.211
588.118;39955.063;   -8.720;42086.414
588.700;38995.160;  -10.439;43389.930
589.282;35860.945;   -9.198;43646.039
589.864;33292.355;   -9.199;43438.109
590.446;33265.305;  -11.319;43151.926
591.028;33036.492;  -11.159;42781.867
591.610;33066.086;  -11.779;42839.098
592.192;34282.707;   -7.668;42820.402
592.774;33670.266;  -11.949;40724.277
593.356;31708.139;  -12.129;39874.789
593.937;31599.061;  -10.669;39980.648
594.519;34108.246;   -6.509;42069.633
595.101;34119.113;  -10.849;42976.031
595.683;32699.203;  -11.679;44084.441
596.264;32064.428;   -9.049;43478.797
596.846;31776.670;   -8.849;43803.672
597.427;31485.127;   -9.570;42986.934
598.009;33486.316;  -12.620;42832.219
598.591;33614.230;  -10.039;42580.086
599.172;35431.258;  -10.369;43061.805
599.753;37435.973;   -9.140;41691.469
600.335;36800.777;  -11.430;40692.520
600.916;34497.340;   -9.939;39982.422
601.498;31500.689;   -8.479;40318.617
602.079;31029.768;  -10.920;40670.609
602.660;30831.596;  -11.480;41450.898
603.241;31567.145;  -11.699;41137.738
603.823;31978.686;   -9.579;38868.797
604.404;31778.955;  -10.620;38182.785
604.985;34467.258;  -10.450;38078.047
605.566;35262.801;   -9.129;38056.633
606.147;35872.270;   -7.510;37020.418
606.728;34611.895;  -10.660;37883.359
607.309;32836.965;  -11.740;38748.273
607.890;32840.547;   -9.759;38850.230
608.471;31383.406;   -8.250;37457.918
609.051;31002.695;   -9.240;36066.457
609.632;30578.129;  -12.120;35991.074
610.213;30357.840;   -9.110;37402.641
610.794;31662.451;   -8.030;38383.363
611.374;30443.016;   -8.110;40562.387
611.955;30422.898;  -13.560;38533.727
612.536;31407.201;  -11.400;36951.789
613.116;30833.773;   -8.070;37197.891
613.697;31632.059;  -10.830;38411.125
614.277;31252.463;  -11.641;38673.938
614.858;30706.010;  -13.310;37075.863
615.438;30598.076;   -7.460;35092.906
616.019;28832.283;   -7.601;33666.301
616.599;29536.984;  -12.020;34189.023
617.179;29455.088;  -11.780;36952.047
617.760;28568.166;   -8.570;39582.574
618.340;28581.768;  -11.471;38943.977
618.920;28746.314;  -11.170;37594.156
619.500;29868.686;  -11.071;37866.938
620.080;30443.766;   -7.750;37869.043
620.660;31252.150;  -12.711;36868.617
621.241;32032.355;  -10.211;36352.309
621.821;30870.168;  -10.961;35459.520
622.401;30922.896;   -7.720;35207.414
622.980;33212.664;   -8.981;35980.422
623.560;31880.148;   -9.331;37351.328
624.140;27704.244;   -9.850;34388.582
624.720;23402.934;   -7.451;32368.764
625.300;22988.439;   -9.070;32638.629
625.880;27290.934;  -12.601;34599.035
626.459;30680.645;  -11.751;36831.738
627.039;30357.895;   -9.281;38299.098
627.619;29556.566;   -8.801;38289.574
628.198;30067.623;  -12.071;37220.695
628.778;30670.932;   -9.461;37632.563
629.357;31083.404;   -8.491;38003.012
629.937;30625.283;   -9.721;38402.039
630.516;31426.281;   -9.951;37868.801
631.096;32977.840;  -11.731;35760.410
631.675;35357.840;   -8.572;35225.219
632.254;34897.723;  -11.282;35130.289
632.834;33646.609;  -13.322;35794.570
633.413;34394.992;  -10.301;35788.922
633.992;34199.668;   -8.582;34532.863
634.571;34683.363;   -8.352;33590.113
635.151;33924.293;  -11.912;34943.863
635.730;32361.982;  -10.511;35352.523
636.309;32453.934;   -7.731;35366.605
636.888;32162.021;   -9.952;36165.637
637.467;31195.402;  -11.672;37515.902
638.046;29603.588;   -8.901;39288.695
638.625;28684.629;   -7.912;38279.699
639.204;28141.408;  -10.022;37741.598
639.782;29875.977;  -12.252;38364.551
640.361;32058.225;  -10.041;36740.621
640.940;31742.047;  -11.161;34950.082
641.519;31010.777;   -9.701;34137.398
642.097;32147.074;  -11.271;35654.258
642.676;32061.664;   -8.651;35637.957
643.255;30929.143;   -8.711;36567.074
643.833;30582.275;   -9.581;37809.434
644.412;31139.027;  -13.711;37337.293
644.990;32615.010;  -11.811;37018.531
645.569;35391.336;   -9.411;36518.469
646.147;36298.746;  -10.291;36186.430
646.726;34678.473;  -12.401;36267.688
647.304;33139.527;  -10.411;36647.625
647.882;33637.156;   -9.651;39286.742
648.461;33279.641;   -9.631;39157.703
649.039;30857.229;  -11.881;35412.883
649.617;30819.113;   -9.661;34744.918
650.195;31280.576;   -9.301;35403.098
650.773;30318.773;  -10.511;35053.797
651.352;30470.848;  -11.521;33756.816
651.930;29532.127;  -12.211;31868.773
652.508;28520.148;   -9.171;33121.551
653.086;30022.627;   -9.371;33564.793
653.663;32000.896;  -13.161;34054.668
654.241;30535.520;  -13.031;35693.309
654.819;28326.361;   -9.371;36422.906
655.397;28850.336;  -10.511;38213.484
655.975;29626.486;  -10.371;39507.625
656.553;30529.371;  -10.051;39498.223
657.130;30774.766;  -10.061;40395.480
657.708;27713.031;   -9.561;39242.020
658.286;25130.512;  -11.511;38920.020
658.863;25425.932;  -10.261;40202.898
659.441;28115.404;   -7.531;39677.938
660.018;30900.258;   -9.501;40413.355
660.596;31645.590;  -13.301;39931.414
661.173;33942.785;  -11.211;39604.531
661.750;33132.027;   -9.951;39700.070
662.328;30968.613;   -9.390;39292.809
662.905;29670.051;  -11.330;38235.648
663.482;26621.404;   -9.050;36212.305
664.060;24458.004;   -8.240;35944.945
664.637;28315.408;  -10.050;35170.785
665.214;32561.580;  -11.760;34197.523
665.791;31289.637;  -10.530;34549.520
666.368;31208.750;   -9.690;35118.578
666.945;31535.844;   -9.320;36019.418
667.522;31979.193;  -11.860;36048.438
668.099;31184.570;  -10.770;36243.914
668.676;31785.305;   -6.260;35958.875
669.253;33621.387;   -7.000;37384.730
669.830;33568.418;  -10.190;36779.629
670.407;32572.301;   -9.550;35231.289
670.984;32174.775;   -9.260;35544.270
671.560;31016.531;   -9.280;35466.867
672.137;29069.574;  -11.810;34280.863
672.714;28711.674;  -11.490;34632.863
673.290;29493.453;   -7.740;35135.422
673.867;29974.955;  -10.660;36114.480
674.443;29220.990;  -12.230;36152.859
675.020;27841.695;  -10.450;35327.238
675.596;26382.195;   -9.260;35795.176
676.173;27195.402;  -10.780;35430.355
676.749;27947.580;  -13.690;33549.516
677.326;28923.756;  -11.980;32210.012
677.902;27099.273;   -8.630;32068.871
678.478;25390.842;  -10.730;32583.891
679.054;26840.236;  -10.520;32088.928
679.631;28422.723;  -11.920;30978.848
680.207;29838.215;   -7.490;33160.887
680.783;30657.014;   -9.860;35570.363
681.359;31430.592;  -13.380;36125.184
681.935;30889.232;  -12.480;35240.922
682.511;31413.266;   -7.900;34429.961
683.087;31474.338;   -7.710;34463.680
683.663;31666.752;  -11.480;34648.898
684.239;31489.980;  -14.090;34546.457
684.815;32536.104;   -7.560;35586.375
685.390;32707.098;   -9.910;35821.895
685.966;32532.199;  -11.159;35085.871
686.542;32742.781;  -11.169;34198.230
687.118;31005.598;   -5.959;32847.707
687.693;31179.703;  -10.329;32794.027
688.269;30455.250;  -12.059;33072.367
688.844;31053.766;  -10.909;33141.664
689.420;32002.648;   -8.019;33965.742
689.995;28892.029;   -8.399;34655.523
690.571;28229.902;  -10.949;33576.742
691.146;27934.207;   -9.619;32657.219
691.722;26300.824;   -8.999;32526.979
692.297;25403.029;  -11.589;33014.617
692.872;25754.000;  -11.739;34012.254
693.448;26007.055;  -11.059;34237.434
694.023;27880.176;  -10.139;34142.672
694.598;30100.199;   -9.029;34132.031
695.173;29823.570;  -13.319;34205.250
695.748;27147.863;  -10.169;32882.488
696.323;24964.967;   -8.339;32864.906
696.898;24758.654;   -8.169;33170.004
697.473;27809.215;  -12.309;32432.984
698.048;27531.035;  -10.989;31649.303
698.623;26540.486;   -9.329;30778.141
699.198;27850.701;   -9.849;31140.119
699.773;28826.549;  -12.329;31764.299
700.348;28586.115;  -10.389;31780.816
700.922;26992.072;   -9.269;32046.375
701.497;25809.195;   -9.329;32603.574
702.072;27645.846;  -10.789;34799.871
702.646;27700.660;  -10.839;35793.172
703.221;28127.047;   -9.099;35201.590
703.795;28427.549;  -10.939;34764.527
704.370;27057.934;  -12.859;34307.367
704.944;28399.889;  -11.559;33509.887
705.519;29714.377;   -7.939;31388.584
706.093;31724.123;  -10.499;31340.104
706.668;32867.699;  -11.289;32630.281
707.242;31587.895;  -11.509;32728.779
707.816;30131.113;   -9.639;32947.238
708.390;29772.553;  -11.429;33277.855
708.965;30894.014;  -11.869;33834.336
709.539;30949.080;  -11.689;33709.273
710.113;30366.521;  -10.478;33044.313
710.687;27607.559;  -10.228;31953.992
711.261;26738.146;  -13.698;30505.949
711.835;26478.953;  -13.378;30262.369
712.409;26518.588;   -9.698;31254.447
712.983;26226.074;  -11.898;32754.986
713.557;25407.072;  -15.138;34018.824
714.131;26964.750;  -14.098;34579.625
714.704;26565.537;   -9.958;33890.262
715.278;25709.619;  -10.028;33531.102
715.852;24913.939;  -11.148;33601.660
716.425;24405.750;   -9.068;33515.117
716.999;25755.602;  -10.038;33185.555
717.573;26248.934;   -9.798;33905.996
718.146;27407.275;  -12.378;35199.293
718.720;28176.049;  -11.918;35060.551
719.293;27343.203;   -8.088;34973.230
719.867;26582.230;  -10.888;36394.449
720.440;27604.455;  -11.938;36663.008
721.013;29794.830;  -12.818;35102.426
721.587;31231.873;  -10.298;33985.266
722.160;30722.012;  -10.048;33524.965
722.733;28734.670;  -12.108;32987.043
723.306;26549.113;  -10.818;33066.301
723.880;27070.293;   -8.908;33399.500
724.453;26135.090;   -9.878;33468.297
725.026;26112.609;  -11.188;33816.637
725.599;26156.783;  -11.678;32797.996
726.172;25313.898;   -9.618;33187.434
726.745;26097.203;   -8.258;35136.613
727.318;29180.518;  -12.978;35751.730
727.891;31300.457;  -12.148;35890.430
728.463;32648.881;   -8.968;34822.090
729.036;32634.574;  -10.188;32895.086
729.609;30053.449;  -11.788;31823.225
730.182;28474.412;  -11.788;31445.283
730.754;27803.338;  -10.268;32373.223
731.327;27723.641;   -9.998;33676.820
731.900;26940.619;  -12.228;33417.000
732.472;25694.723;  -13.848;31978.498
733.045;25273.734;   -8.698;30368.777
733.617;24859.410;  -10.607;30574.215
734.190;23361.652;  -11.507;31280.975
734.762;23518.418;  -13.647;31674.412
735.334;24948.225;   -9.767;31247.291
735.907;25043.635;   -9.897;29876.211
736.479;23034.646;  -11.637;29808.488
737.051;22907.709;   -9.567;30233.547
737.623;23837.783;   -8.187;31469.086
738.195;25437.834;  -11.187;31784.225
738.768;25777.117;  -12.337;32120.523
739.340;25183.717;  -12.227;32094.342
739.912;24802.523;  -11.057;31312.680
740.484;25715.240;  -10.207;31946.238
741.056;26765.959;  -10.047;32984.059
741.628;26286.393;  -13.627;33897.715
742.199;26896.822;   -7.177;33213.016
742.771;25155.082;  -10.797;31369.113
743.343;23462.328;  -11.997;31865.473
743.915;23337.385;  -12.867;32388.631
744.487;23905.941;   -7.617;31079.568
745.058;25302.971;   -9.557;30570.107
745.630;24970.541;   -9.877;29970.127
746.201;23557.516;  -14.177;29186.766
746.773;23200.232;   -9.237;28805.723
747.344;23513.959;   -9.847;29591.223
747.916;23466.461;  -11.657;31412.201
748.487;22806.283;  -10.587;32194.898
749.059;22733.826;   -8.707;32533.719
749.630;21805.381;  -10.537;32158.518
750.201;22076.666;  -11.687;30855.395
750.773;22137.262;  -11.647;28622.555
751.344;23436.545;   -7.147;28405.732
751.915;23579.137;   -9.757;28461.551
752.486;23161.355;  -12.427;27842.850
753.057;21506.654;  -12.227;27845.008
753.628;20642.641;  -10.417;27728.107
754.199;20530.771;  -11.767;27381.086
754.770;20171.070;  -11.187;25882.203
755.341;19869.191;  -10.507;25886.184
755.912;20070.084;   -9.387;26050.861
756.483;20329.479;  -10.647;26798.779
757.054;19698.576;  -11.837;27048.238
757.625;18027.637;  -12.716;26294.838
758.195;17452.732;   -9.666;26142.076
758.766;18357.162;   -8.656;26392.234
759.337;18235.129;  -12.856;26334.594
759.907;17499.250;  -13.366;27579.652
760.478;16772.893;   -8.576;28352.770
761.048;17180.189;  -10.526;27325.088
761.619;17531.336;  -11.116;26460.428
762.189;16920.945;  -12.136;26029.826
762.760;16643.771;   -9.456;26430.145
763.330;16692.764;   -7.136;26670.902
763.900;16832.877;  -11.786;26603.021
764.471;16410.434;  -11.546;25542.740
765.041;16185.957;   -8.096;24358.459
765.611;16203.110;   -8.876;23991.297
766.181;16248.272;  -12.196;24470.236
766.751;16787.777;  -11.636;24845.975
767.321;16693.904;  -10.156;24533.633
767.891;16392.455;  -11.766;24916.492
768.461;16095.419;  -14.936;24776.771
769.031;15307.290;  -12.356;24757.988
769.601;15002.226;   -7.526;24181.088
770.171;15254.771;  -10.766;23670.387
770.741;15717.920;  -13.176;22960.045
771.311;15428.234;  -10.616;22917.523
771.880;14383.173;   -9.576;23562.941
772.450;13848.348;  -10.336;24216.500
773.020;14071.450;  -13.516;24140.398
773.589;13998.673;  -13.466;24414.857
774.159;13507.425;   -8.686;23858.717
774.729;12859.403;   -9.476;22942.135
775.298;12843.950;  -13.666;22324.033
775.867;12939.072;  -11.716;21140.313
776.437;12442.861;   -9.906;20838.092
777.006;12276.525;  -12.166;20599.510
777.576;13294.702;  -12.356;20508.809
778.145;12750.967;  -11.646;20732.947
778.714;11682.718;   -8.226;21062.465
779.283;11312.806;   -9.556;20949.664
779.853;11223.316;  -14.116;20508.623
780.422;11359.216;  -11.506;20649.082
780.991;11679.059;   -9.556;21527.520
781.560;12213.711;   -9.095;22632.658
782.129;11315.305;  -12.135;23048.277
782.698;10299.344;  -10.865;23438.555
783.267; 9799.131;   -9.335;23267.734
783.836;10084.033;  -11.045;22415.133
784.404;10713.282;  -13.865;20443.152
784.973;10846.133;  -13.095;19699.150
785.542;10764.904;  -11.575;19763.828
786.111;10693.539;   -9.705;20341.408
786.679;10597.294;  -12.105;20207.967
787.248;10337.554;  -12.455;19516.465
787.817;10256.192;  -11.535;18900.363
788.385;10215.438;   -9.765;17879.121
788.954;10207.987;  -14.005;17658.301
789.522;10167.118;  -11.955;17788.879
790.090; 9375.516;  -10.135;18118.277
790.659; 8601.962;  -10.975;18338.736
791.227; 8678.970;  -13.375;18508.615
791.795; 9044.548;  -12.375;17898.254
792.364; 9266.445;  -10.725;17295.133
792.932; 9642.877;   -9.715;16822.051
793.500; 9610.564;  -12.675;17040.148
794.068; 9968.016;  -13.495;17179.787
794.636;10153.330;  -10.885;16664.246
795.204; 9982.583;  -11.045;16524.545
795.772;10108.802;  -13.175;17274.564
796.340;10008.564;  -12.445;17891.002
796.908;10269.886;   -9.735;17648.561
797.476;10592.248;   -9.815;17064.080
798.044;10190.559;  -13.985;16672.777
798.612; 9781.955;  -13.115;17023.996
799.180; 9141.189;  -10.185;16561.615
799.747; 8898.292;   -9.055;15962.773
800.315; 9209.457;  -12.385;15296.992
800.883; 8726.253;  -15.035;14801.771
801.450; 8073.834;  -10.365;14534.430
802.018; 7866.731;   -9.855;14173.248
802.585; 7896.097;  -11.905;14029.547
803.153; 8156.494;  -11.585;13836.846
803.720; 7947.599;   -9.095;13567.324
804.287; 7853.563;   -9.135;13360.622
804.855; 8050.037;  -11.604;13681.981
805.422; 8428.667;  -11.794;13536.560
805.989; 8697.802;  -10.734;13355.958
806.556; 8780.529;  -10.444;13747.896
807.124; 9294.173;  -12.764;13987.376
807.691; 9879.054;  -12.964;14038.674
808.258; 9868.781;  -11.134;14120.152
808.825; 9822.094;   -9.854;13860.111
809.392; 9413.493;  -10.504;13268.790
809.959; 8734.692;  -13.054;12680.389
810.526; 8068.285;   -8.294;12427.308
811.093; 7407.741;   -8.394;12030.105
811.659; 7217.886;  -12.304;11653.664
812.226; 7376.861;  -13.944;11637.183
812.793; 7727.583;  -10.484;11611.521
813.360; 7859.468;  -10.144;11885.181
813.926; 7879.215;  -11.684;12770.539
814.493; 7796.082;  -13.644;12677.638
815.060; 7638.412;   -9.724;11974.336
815.626; 7768.657;   -9.854;11594.715
816.193; 7830.345;  -13.254;11579.474
816.759; 7207.185;  -13.204;11666.972
817.325; 6733.653;   -9.434;11325.530
817.892; 6538.823;  -10.134;11105.369
818.458; 6663.846;  -13.474;10843.928
819.024; 7116.214;  -11.854;10714.406
819.591; 7163.449;  -10.244;10469.165
820.157; 6878.151;  -10.704;10235.523
820.723; 6875.350;  -12.324;10847.563
821.289; 6809.117;   -9.444;11040.980
821.855; 6826.361;   -8.374;10357.100
822.421; 7097.297;  -10.234; 9978.918
822.987; 7060.775;  -13.294; 9754.177
823.553; 6771.312;  -10.884;10065.755
824.119; 6502.345;   -8.884;10036.294
824.685; 5939.434;   -6.784;10029.192
825.251; 5768.411;  -12.004;10199.230
825.816; 5398.683;  -11.474; 9820.189
826.382; 5138.674;   -9.174; 9297.248
826.948; 5459.450;   -9.214; 9381.347
827.513; 5884.131;  -10.774; 9450.726
828.079; 5906.889;  -11.924; 9472.444
828.645; 5624.914;  -10.543; 9292.643
829.210; 5456.461;  -10.533; 9065.341
829.776; 5373.985;  -10.753; 9132.620
830.341; 5526.761;  -10.173; 9092.878
830.906; 5544.881;  -10.743; 9078.557
831.472; 5269.595;  -11.113; 8534.535
832.037; 4918.633;  -10.603; 8677.874
832.602; 4821.725;  -13.323; 8628.692
833.167; 4617.386;  -10.823; 8879.031
833.733; 4436.421;  -10.113; 9189.790
834.298; 4244.394;  -13.583; 9052.608
834.863; 4409.909;  -12.703; 8895.087
835.428; 4638.266;  -10.523; 8824.266
835.993; 4583.829;   -6.963; 8845.385
836.558; 4539.009;  -10.763; 8888.563
837.123; 4667.171;   -9.903; 8966.582
837.688; 5009.083;   -9.913; 8617.860
838.253; 5058.515;  -10.283; 8590.699
838.817; 4686.292;  -12.963; 8443.797
839.382; 4548.561;  -14.243; 8799.356
839.947; 4673.613;  -10.733; 8810.595
840.511; 4697.666;   -9.383; 8796.394
841.076; 4559.284;  -12.563; 8347.231
841.641; 4422.109;  -12.953; 8224.330
842.205; 4295.929;   -7.043; 8223.349
842.770; 4092.803;   -8.163; 8622.107
843.334; 4264.972;  -12.503; 8410.386
843.898; 4429.758;  -11.693; 8337.465
844.463; 4030.679;  -10.203; 8506.283
845.027; 3745.442;   -9.533; 8280.962
845.591; 3773.263;  -13.443; 8231.141
846.156; 3793.131;  -13.143; 7969.179
846.720; 3599.441;   -9.433; 7768.278
847.284; 3525.359;  -11.033; 7630.957
847.848; 3558.635;  -10.403; 7472.395
848.412; 3418.814;  -11.553; 7437.394
848.976; 3313.702;   -8.393; 7674.592
849.540; 3252.483;   -8.713; 7836.011
850.104; 3241.169;  -12.463; 7913.669
850.668; 3342.316;  -12.973; 7694.508
851.232; 3339.843;  -10.793; 7756.887
851.796; 3376.350;  -10.662; 7926.545
852.359; 3476.129;  -13.082; 7827.844
852.923; 3464.568;  -12.192; 7641.163
853.487; 3457.267;  -11.912; 7342.501
854.050; 3310.755;  -10.892; 7042.820
854.614; 3365.013;  -13.992; 7151.338
855.177; 3451.637;  -11.732; 7105.077
855.741; 3331.577;   -8.962; 6989.675
856.304; 3183.526;   -9.442; 6596.634
856.868; 3048.328;  -14.192; 6356.272
857.431; 2995.374;  -12.702; 6468.571
857.995; 3019.918;   -9.942; 6373.210
858.558; 3095.833;   -9.112; 6324.448
859.121; 2996.667;  -12.932; 6408.327
859.684; 2897.388;  -13.442; 6347.886
860.247; 2871.683;  -10.632; 6321.264
860.810; 2824.219;  -11.272; 6301.903
861.374; 2745.251;   -9.832; 6607.881
861.937; 2656.072;  -11.762; 6408.200
862.500; 2651.062;   -9.722; 6572.639
863.062; 2647.958;  -10.512; 6387.297
863.625; 2671.208;  -11.232; 6190.836
864.188; 2720.030;  -14.112; 5807.254
864.751; 2734.891;  -11.302; 5682.413
865.314; 2617.239;  -10.112; 5547.492
865.876; 2452.472;  -12.182; 5500.150
866.439; 2302.557;  -10.722; 5415.909
867.002; 2212.451;   -9.252; 5501.567
867.564; 2265.522;   -9.572; 5413.946
868.127; 2307.681;  -13.142; 5160.325
868.689; 2395.971;  -12.902; 5133.183
869.252; 2504.111;   -9.732; 5252.382
869.814; 2434.324;   -9.432; 5297.141
870.377; 2335.463;  -11.552; 5390.919
870.939; 2314.434;   -9.052; 5599.898
871.501; 2249.239;  -10.982; 5248.336
872.063; 2149.043;  -12.292; 4854.235
872.626; 2097.275;  -14.912; 4817.074
873.188; 2014.086;  -13.112; 4987.732
873.750; 1986.129;  -13.442; 4868.651
874.312; 1947.377;   -9.402; 4779.330
874.874; 1904.174;  -11.062; 4866.348
875.436; 1796.917;  -13.931; 4718.887
875.998; 1686.614;   -9.561; 4660.005
876.560; 1680.651;  -11.321; 4462.964
877.122; 1739.541;  -12.221; 4145.042
877.683; 1839.740;  -12.191; 4056.481
878.245; 1878.525;  -12.101; 3950.740
878.807; 1912.485;   -8.971; 4058.958
879.369; 1858.882;  -12.071; 3954.677
879.930; 1716.755;  -14.621; 3941.495
880.492; 1625.625;  -10.311; 4067.014
881.053; 1631.516;  -10.901; 3859.633
881.615; 1623.253;  -14.411; 3776.071
882.176; 1552.738;  -13.761; 3734.750
882.738; 1476.143;   -9.181; 3678.489
883.299; 1465.873;  -11.791; 3405.407
883.860; 1475.366;  -13.121; 3351.106
884.422; 1416.371;  -11.211; 3394.044
884.983; 1335.347;  -10.091; 3166.443
885.544; 1288.685;   -8.461; 3189.802
886.105; 1221.434;  -12.361; 3160.360
886.666; 1159.339;  -14.141; 3093.059
887.227; 1131.458;  -11.361; 2941.957
887.788; 1074.544;  -11.401; 2974.836
888.349;  976.950;  -13.791; 2721.214
888.910;  931.821;  -13.191; 2696.493
889.471;  897.134;   -9.881; 2560.172
890.032;  902.999;   -9.881; 2558.190
890.593;  894.699;  -10.371; 2567.669
891.153;  809.522;  -13.301; 2460.307
891.714;  702.573;  -11.431; 2372.046
892.275;  658.143;  -11.291; 2309.505
892.835;  667.142;  -11.471; 2382.543
893.396;  656.630;  -11.541; 2295.502
893.956;  628.010;  -11.181; 2162.420
894.517;  586.344;  -11.741; 2125.439
895.077;  532.511;  -11.671; 2086.978
895.638;  492.326;  -11.311; 2126.316
896.198;  480.561;   -9.831; 1838.275
896.758;  465.384;   -8.421; 1892.813
897.319;  443.752;  -12.351; 1792.232
897.879;  426.519;  -13.511; 1762.751
898.439;  394.612;  -12.001; 1661.149
898.999;  374.424;  -10.180; 1781.468
899.559;  367.269;  -12.030; 1703.347
900.119;  356.627;  -15.710; 1537.525
900.679;  343.206;   -8.900; 1638.384
901.239;  324.079;   -8.340; 1527.902
901.799;  297.534;  -13.910; 1456.441
902.359;  276.110;  -13.460; 1357.140
902.919;  269.072;  -11.490; 1331.118
903.479;  269.496;  -12.110; 1317.257
904.038;  262.981;  -11.720; 1262.595
904.598;  254.049;  -13.610; 1152.034
905.158;  244.308;  -11.040; 1240.893
905.717;  228.029;  -10.900; 1233.691
906.277;  219.126;  -15.080; 1217.330
906.836;  216.254;  -13.380; 1222.408
907.396;  214.119;  -10.780; 1193.047
907.955;  206.097;   -8.500; 1182.526
908.515;  201.054;  -12.760; 1099.364
909.074;  200.465;  -11.900; 1092.863
909.633;  200.382;   -8.950; 1069.121
910.192;  198.829;   -8.770; 1196.460
910.752;  187.073;  -12.390; 1029.960
911.311;  177.116;  -13.680; 1009.780
911.870;  168.444;  -12.370;  971.460
912.429;  162.931;  -10.900; 1094.080
912.988;  160.853;  -11.690; 1081.060
913.547;  158.225;  -13.240;  940.380
914.106;  157.078;  -11.990;  999.420
914.665;  155.134;   -9.990;  984.020
915.224;  153.479;  -12.880; 1035.760
915.782;  150.422;  -12.350;  922.560
916.341;  150.063;   -9.110; 1049.840
916.900;  147.976;   -9.270;  925.260
917.458;  146.231;  -13.240;  884.220
918.017;  144.419;  -13.550;  942.600
918.576;  142.469;  -12.320;  904.440
919.134;  140.972;  -11.490;  837.980
919.693;  138.798;  -13.670;  893.060
920.251;  137.479;  -15.470;  876.500
920.809;  137.883;  -11.290;  839.580
921.368;  137.747;  -10.210;  885.360
921.926;  135.630;  -12.140;  842.940
922.484;  132.777;  -13.080;  903.360
923.042;  132.099;  -11.720;  880.340
923.601;  132.304;   -7.480;  998.680
924.159;  130.058;  -11.570;  935.560
924.717;  127.477;  -13.840;  841.080
925.275;  129.182;  -10.640;  903.240
925.833;  127.584;  -11.540;  779.320
926.391;  128.868;  -12.960;  938.380
926.949;  127.946;  -14.130;  857.680
927.506;  128.633;  -11.750;  903.500
928.064;  127.353;  -10.250;  877.580
928.622;  128.410;  -13.030;  880.100
929.180;  130.538;  -13.400;  814.180
929.737;  132.498;  -10.700;  808.540
930.295;  134.817;  -10.070;  928.480
930.853;  134.718;  -11.960;  849.100
931.410;  135.070;  -13.120;  821.120
931.968;  136.994;  -10.770;  940.660
932.525;  137.357;  -10.680;  909.380
933.082;  136.524;  -13.130;  811.440
933.640;  136.730;  -13.210;  925.900
934.197;  137.830;  -11.060;  886.360
934.754;  137.851;   -9.580;  897.780
935.312;  139.399;  -14.000;  863.340
935.869;  140.425;  -10.710; 1012.980
936.426;  139.330;   -9.860;  872.800
936.983;  139.713;   -9.710;  889.020
937.540;  140.055;  -13.990;  838.280
938.097;  143.661;  -14.040;  940.120
938.654;  147.114;  -10.310;  898.860
939.211;  147.101;  -10.560;  952.480
939.768;  147.426;  -13.900;  915.420
940.324;  149.854;  -14.760;  904.200
940.881;  153.655;  -10.370;  878.500
941.438;  157.468;   -8.260; 1021.200
941.995;  156.036;  -12.540;  992.560
942.551;  155.562;  -14.670;  875.620
943.108;  157.107;  -10.450;  937.920
943.664;  157.217;  -10.750;  869.340
944.221;  162.300;  -11.550; 1088.140
944.777;  161.440;  -14.770;  869.680
945.334;  160.313;  -12.820;  884.840
945.890;  155.507;  -10.130;  946.480
946.446;  151.868;  -13.470;  947.020
947.003;  153.790;  -12.120;  964.940
947.559;  153.882;   -9.980; 1063.040
948.115;  150.628;   -9.080; 1026.540
948.671;  148.136;  -10.830;  967.300
949.227;  147.327;  -12.440;  859.560
949.783;  147.433;  -12.910;  858.900
950.339;  151.924;  -10.270;  991.000
950.895;  151.714;  -13.630; 1023.840
951.451;  150.567;  -15.100;  925.280
952.007;  149.738;  -11.330;  998.540
952.563;  145.943;  -10.580;  937.780
953.118;  143.499;  -13.440;  904.940
953.674;  142.457;  -12.710;  935.780
954.230;  145.511;  -10.350;  949.640
954.785;  148.258;   -9.190;  936.640
955.341;  149.250;  -11.200;  998.160
955.897;  144.610;  -16.560;  834.660
956.452;  143.121;  -12.570;  953.840
957.008;  140.366;   -7.970; 1083.640
957.563;  136.119;  -11.940; 1009.540
958.118;  132.572;  -13.450;  877.700
958.674;  131.773;  -12.030;  946.780
959.229;  131.664;   -9.410; 1013.980
959.784;  131.786;  -12.000;  832.400
960.339;  132.929;  -14.780; 1001.280
960.894;  129.915;   -9.860;  963.760
961.449;  126.376;   -9.970;  859.960
962.004;  127.752;  -10.900; 1212.840
962.559;  123.795;  -13.150;  860.140
963.114;  122.934;  -13.740;  742.480
963.669;  121.771;   -9.820;  915.500
964.224;  120.381;  -13.890;  874.340
964.779;  120.400;  -12.600;  828.420
965.334;  121.585;  -10.950; 1017.860
965.888;  120.810;  -11.170;  875.360
966.443;  119.513;  -12.540;  972.380
966.998;  117.348;  -15.780;  819.460
967.552;  115.970;   -9.760;  908.380
968.107;  114.670;   -9.060;  868.300
968.661;  114.950;  -11.950;  922.440
969.216;  110.967;  -12.800;  856.280
969.770;  109.804;  -11.210;  917.200
970.324;  109.938;  -11.610;  923.140
970.879;  109.838;  -11.370;  947.180
971.433;  111.410;  -12.540;  952.720
971.987;  110.629;  -11.320;  895.340
972.541;  109.175;  -10.720;  917.100
973.095;  108.100;   -9.680; 1009.460
973.649;  105.037;  -11.440;  809.480
974.203;  102.596;  -11.210;  829.040
974.757;  102.739;  -10.240;  855.220
975.311;  103.011;  -13.720;  872.600
975.865;  102.326;  -13.770;  881.820
976.419;   99.095;  -11.690;  857.400
976.973;   96.605;   -9.510;  849.620
977.526;   95.971;  -12.620;  949.920
978.080;   93.340;  -12.010;  796.780
978.634;   93.024;  -10.170;  921.320
979.187;   92.762;   -9.020;  905.400
979.741;   94.539;   -9.820; 1018.380
980.294;   92.286;  -14.870;  789.160
980.848;   91.241;  -12.380;  717.220
981.401;   92.768;  -10.350;  816.540
981.955;   90.927;  -13.720;  844.300
982.508;   86.539;  -11.490;  746.340
983.061;   87.194;  -10.000;  915.260
983.615;   85.357;  -11.480;  798.800
984.168;   82.972;  -13.220;  770.080
984.721;   82.560;  -13.960;  880.760
985.274;   80.353;  -10.870;  867.500
985.827;   79.145;   -9.790;  834.220
986.380;   76.306;  -13.120;  721.340
986.933;   75.196;  -12.450;  864.800
987.486;   74.683;  -10.210;  861.920
988.039;   75.075;   -8.430;  863.100
988.591;   74.021;  -10.520;  893.260
989.144;   71.415;  -14.860;  737.260
989.697;   70.556;  -13.080;  758.740
990.250;   70.050;  -10.150;  858.100
990.802;   68.492;  -13.430;  755.860
991.355;   67.778;  -12.750;  974.880
991.907;   65.882;  -12.040;  864.320
992.460;   63.987;  -11.330;  753.760
993.012;   63.642;  -13.610;  749.540
993.565;   61.332;  -13.460;  711.360
994.117;   62.044;   -9.360;  950.780
994.669;   59.763;  -11.300;  701.320
995.221;   58.753;  -13.540;  791.920
995.774;   57.605;  -13.430;  787.580
996.326;   56.036;  -12.520;  740.220
996.878;   56.173;  -10.950;  838.420
997.430;   53.079;  -14.300;  699.860
997.982;   51.664;  -13.760;  750.140
998.534;   51.993;  -11.530;  739.060
999.086;   51.984;  -10.310;  738.220
999.638;   50.439;  -12.530;  661.380
1000.190;   48.956;  -11.840;  699.320
1000.741;   48.818;  -10.260;  742.700
1001.293;   48.923;   -8.860;  686.020
1001.845;   47.728;  -13.700;  676.640
1002.396;   46.988;  -12.100;  743.400
1002.948;   47.342;  -12.760;  737.400
1003.500;   45.491;  -10.380;  723.780
1004.051;   45.715;  -11.900;  907.580
1004.603;   43.868;  -12.250;  791.820
1005.154;   41.261;  -13.210;  608.980
1005.705;   41.421;  -10.950;  723.960
1006.257;   40.672;  -13.880;  707.220
1006.808;   38.668;  -12.840;  685.460
1007.359;   38.862;  -10.570;  763.240
1007.910;   38.680;   -9.620;  646.640
1008.461;   37.440;  -13.630;  732.940
1009.013;   36.263;  -17.200;  588.340
1009.564;   37.723;  -10.200;  793.520
1010.115;   36.403;  -12.570;  597.040
1010.665;   35.723;  -15.150;  602.160
1011.216;   34.942;  -14.480;  667.920
1011.767;   35.490;  -11.340;  697.920
1012.318;   34.794;   -9.780;  736.980
1012.869;   34.821;  -12.380;  679.000
1013.419;   34.265;  -15.560;  603.120
1013.970;   34.319;  -11.010;  666.640
1014.521;   33.921;  -11.610;  620.620
1015.071;   33.866;  -13.450;  670.380
1015.622;   33.214;  -13.870;  635.460
1016.172;   32.372;  -11.610;  596.820
1016.723;   32.001;  -12.120;  614.380
1017.273;   31.843;  -13.620;  604.160
1017.823;   31.749;  -14.140;  650.340
1018.374;   30.821;  -12.800;  611.760
1018.924;   31.952;  -12.340;  716.880
1019.474;   31.606;  -11.410;  718.880
1020.024;   30.283;  -14.770;  657.580
1020.574;   31.513;   -9.780;  726.160
1021.124;   31.734;   -8.560;  673.580
1021.674;   30.302;  -15.190;  559.120
1022.224;   30.788;  -13.530;  708.940
1022.774;   30.601;  -13.280;  668.820
1023.324;   30.756;  -10.690;  753.520
1023.874;   31.942;  -10.240;  875.760
1024.423;   29.438;  -12.540;  613.700
1024.973;   29.166;  -10.010;  610.760
1025.523;   28.496;  -10.550;  620.960
1026.072;   28.256;  -13.560;  606.420
1026.622;   28.323;  -15.120;  675.740
1027.172;   29.934;  -11.260;  715.660
1027.721;   28.436;  -11.410;  601.220
1028.270;   28.226;  -13.530;  663.400
1028.820;   27.426;  -13.680;  638.080
1029.369;   27.570;  -13.520;  612.700
1029.918;   27.308;  -10.980;  649.840
1030.468;   26.935;  -13.530;  564.780
1031.017;   27.540;  -13.170;  634.800
1031.566;   26.404;  -12.200;  608.900
1032.115;   27.033;   -9.960;  694.500
1032.664;   25.434;  -13.210;  596.480
1033.213;   27.045;  -12.500;  735.420
1033.762;   26.164;  -11.910;  635.620
1034.311;   26.154;   -9.640;  677.220
1034.860;   25.788;  -13.310;  691.000
1035.408;   26.109;  -11.830;  722.720
1035.957;   26.253;  -12.000;  719.540
1036.506;   24.094;  -11.690;  530.800
1037.055;   26.097;  -10.990;  844.320
1037.603;   24.629;  -15.120;  664.000
1038.152;   23.649;  -12.450;  534.760
1038.700;   23.878;  -10.560;  585.740
1039.249;   23.797;  -11.080;  681.220
1039.797;   23.985;  -12.540;  633.360
1040.345;   24.420;  -11.920;  705.420
1040.894;   23.663;  -11.410;  625.300
1041.442;   23.739;  -14.320;  632.200
1041.990;   22.705;  -16.240;  559.160
1042.538;   22.450;  -11.680;  536.180
1043.087;   22.289;  -10.760;  570.860
1043.635;   23.465;  -11.850;  670.500
1044.183;   22.333;  -15.480;  586.400
1044.731;   22.327;  -11.770;  576.000
1045.279;   22.984;  -13.090;  674.920
1045.827;   23.640;  -12.440;  892.400
1046.374;   21.297;  -13.840;  515.420
1046.922;   20.460;  -13.220;  590.580
1047.470;   22.106;  -10.230;  691.300
1048.018;   22.130;  -14.590;  647.960
1048.565;   22.359;  -12.050;  708.600
1049.113;   20.727;  -11.650;  557.000
1049.660;   21.269;  -10.510;  629.660
1050.208;   20.966;  -13.310;  675.640
1050.755;   19.770;  -15.900;  606.580
1051.303;   21.589;  -11.430;  686.820
1051.850;   20.887;   -8.480;  635.120
1052.397;   18.343;  -15.010;  473.960
1052.945;   19.443;  -13.960;  617.760
1053.492;   20.667;  -13.150;  741.840
1054.039;   21.360;   -9.630;  720.180
1054.586;   19.004;  -13.680;  557.240
1055.133;   19.961;  -14.570;  693.140
1055.680;   19.901;  -13.820;  646.620
1056.227;   19.392;  -11.730;  542.780
1056.774;   20.235;  -12.480;  794.980
1057.321;   18.040;  -13.930;  523.260
1057.868;   18.370;  -11.690;  651.320
1058.415;   18.523;   -9.520;  651.980
1058.961;   18.447;  -13.160;  678.940
1059.508;   18.125;  -12.920;  643.820
1060.055;   18.538;  -11.920;  581.780
1060.601;   19.096;  -11.500;  624.300
1061.148;   18.070;  -14.330;  616.820
1061.694;   17.554;  -16.870;  592.580
1062.241;   17.204;  -10.330;  596.320
1062.787;   17.772;  -10.620;  663.140
1063.334;   18.941;  -10.110;  808.560
1063.880;   17.754;  -13.400;  668.360
1064.426;   17.538;  -10.680;  706.820
1064.972;   16.947;   -9.920;  601.340
1065.518;   16.011;  -10.980;  566.640
1066.065;   17.006;  -14.890;  624.460
1066.611;   16.806;  -12.870;  598.800
1067.157;   16.641;  -12.950;  641.860
1067.703;   16.530;  -13.540;  668.480
1068.249;   15.723;  -13.540;  605.220
1068.794;   16.155;  -12.600;  626.880
1069.340;   15.058;  -10.620;  578.960
1069.886;   15.601;  -12.830;  590.700
1070.432;   14.701;  -14.870;  541.720
1070.977;   14.060;  -11.980;  601.080
1071.523;   15.012;   -8.200;  573.060
1072.068;   15.512;  -12.330;  582.000
1072.614;   14.912;  -16.370;  527.760
1073.160;   15.798;  -11.100;  687.040
1073.705;   14.123;  -10.480;  572.520
1074.250;   14.055;  -14.520;  559.900
1074.796;   14.801;  -11.460;  655.160
1075.341;   15.162;  -11.950;  664.100
1075.886;   15.059;  -11.460;  594.240
1076.431;   13.919;  -13.770;  649.880
1076.976;   13.619;  -12.680;  639.220
1077.521;   14.022;  -13.170;  583.080
1078.067;   13.379;  -10.860;  579.400
1078.612;   13.752;  -13.920;  661.620
1079.156;   13.797;  -13.880;  601.540
1079.701;   13.681;  -13.120;  693.260
1080.246;   13.988;   -9.940;  696.300
1080.791;   13.385;  -14.740;  625.020
1081.336;   13.665;  -13.750;  659.320
1081.880;   13.503;  -13.400;  649.680
1082.425;   13.215;  -12.220;  573.480
1082.970;   13.817;  -11.610;  717.040
1083.514;   12.536;  -13.580;  597.000
1084.059;   12.400;  -12.810;  586.720
1084.603;   12.419;  -12.320;  565.840
1085.147;   12.639;  -13.190;  645.220
1085.692;   13.242;  -12.480;  716.800
1086.236;   11.622;  -13.020;  503.140
1086.780;   13.718;   -9.190;  751.440
1087.325;   12.138;  -12.480;  654.620
1087.869;   11.575;  -12.450;  610.700
1088.413;   12.129;  -12.240;  705.040
1088.957;   10.516;   -9.020;  543.400
1089.501;   12.648;  -10.320;  766.640
1090.045;   11.507;  -12.720;  726.480
1090.589;   10.126;  -13.690;  569.920
1091.133;   11.886;  -10.020;  673.340
1091.676;   11.129;  -12.330;  591.940
1092.220;   10.911;  -14.970;  600.920
1092.764;   11.901;  -12.430;  706.960
1093.307;   11.317;   -9.800;  673.780
1093.851;    9.682;  -14.970;  556.540
1094.395;   10.625;  -15.310;  683.140
1094.938;   10.077;  -10.370;  632.520
1095.482;   10.098;  -11.050;  559.800
1096.025;   10.952;  -11.840;  710.880
1096.568;   10.703;  -12.840;  779.280
1097.112;    8.918;  -14.700;  508.180
1097.655;   10.921;   -8.720;  603.000
1098.198;    8.884;  -13.610;  600.180
1098.741;    8.534;  -13.350;  612.860
1099.285;   10.239;  -11.230;  657.300
1099.828;    8.540;  -11.840;  439.400
1100.371;    9.186;  -10.840;  608.160
1100.914;    9.041;  -14.190;  682.660
1101.457;    9.386;  -11.240;  679.900
1101.999;    7.745;  -11.270;  584.680
1102.542;    9.043;  -11.480;  641.440
1103.085;    8.179;  -11.750;  658.500
1103.628;    9.575;  -11.400;  762.060
1104.170;    8.724;  -10.490;  588.280
1104.713;    8.782;  -10.600;  646.700
1105.256;    7.347;  -14.360;  557.440
1105.798;    6.818;  -13.210;  499.980
1106.341;    8.751;  -10.270;  728.900
1106.883;    7.765;  -12.200;  521.340
1107.425;    7.915;  -13.110;  668.180
1107.968;    7.816;  -12.840;  612.380
1108.510;    8.801;   -6.480;  684.960
1109.052;    6.529;  -13.940;  612.620
1109.594;    6.996;  -13.690;  554.440
1110.136;    8.070;  -11.880;  643.220
1110.679;    7.859;   -9.500;  633.080
1111.221;    7.271;  -14.160;  604.460
1111.763;    6.373;  -13.980;  559.220
1112.304;    6.711;  -13.880;  547.140
1112.846;    7.185;  -12.210;  666.240
1113.388;    9.797;  -11.390;  942.180
1113.930;    7.032;  -14.540;  694.200
1114.472;    6.181;  -12.640;  606.540
1115.013;    5.852;  -11.620;  551.280
1115.555;    5.329;  -13.640;  587.100
1116.097;    4.766;  -15.380;  579.480
1116.638;    6.222;  -12.640;  684.600
1117.180;    6.647;   -9.850;  667.740
1117.721;    6.183;  -13.690;  568.580
1118.262;    6.394;  -12.680;  677.960
1118.804;    6.201;  -12.530;  637.340
1119.345;    5.536;  -11.690;  578.400
1119.886;    6.430;  -13.380;  704.040
1120.427;    4.535;  -14.070;  589.020
1120.969;    4.497;  -13.500;  597.920
1121.510;    4.951;  -11.480;  563.060
1122.051;    5.502;  -12.830;  723.580
1122.592;    4.007;  -14.290;  655.420
1123.133;    3.772;  -12.400;  547.940
1123.673;    4.764;  -10.130;  706.480
1124.214;    4.305;  -12.930;  612.460
1124.755;    4.711;  -14.380;  639.460
1125.296;    4.437;  -14.000;  627.320
1125.836;    5.478;  -10.070;  691.500
1126.377;    3.785;  -12.640;  599.660
1126.918;    4.348;  -12.960;  614.980
1127.458;    3.784;  -13.350;  622.220
1127.999;    4.514;  -10.750;  656.980
1128.539;    4.037;  -12.350;  694.240
1129.079;    4.235;  -14.860;  632.720
1129.620;    3.042;  -13.840;  558.100
1130.160;    3.409;  -12.330;  539.480
1130.700;    3.963;  -14.530;  640.840
1131.240;    4.206;  -12.530;  643.700
1131.781;    3.085;  -14.450;  619.680
1132.321;    3.491;   -9.790;  599.120
1132.861;    2.634;  -14.860;  564.200
1133.401;    2.274;  -14.290;  593.940
1133.941;    3.684;  -11.750;  626.280
1134.481;    2.677;   -9.920;  597.580
1135.020;    2.520;  -12.290;  609.160
1135.560;    2.435;  -11.650;  674.940
1136.100;    2.563;  -16.270;  501.160
1136.640;    2.860;  -10.890;  510.480
1137.179;    1.954;  -14.180;  537.960
1137.719;    1.934;  -16.250;  605.400
1138.258;    2.265;  -14.230;  587.360
1138.798;    2.920;   -9.090;  663.780
1139.337;    1.137;  -15.130;  482.840
1139.877;    2.502;  -13.680;  642.360
1140.416;    3.570;  -11.320;  878.060
1140.955;    1.134;  -10.860;  535.380
1141.494;    1.671;  -12.920;  669.280
1142.034;    1.005;  -13.930;  583.520
1142.573;    2.759;  -11.440;  646.280
1143.112;    1.533;  -12.000;  553.480
1143.651;    1.263;  -13.670;  536.480
1144.190;    1.693;  -12.730;  691.640
1144.729;    1.529;  -14.560;  607.420
1145.267;    1.426;  -11.830;  584.900
1145.806;    2.128;  -12.230;  637.040
1146.345;    1.238;  -14.130;  635.020
1146.884;    0.709;  -11.590;  622.500
1147.422;    1.698;  -12.550;  533.060
1147.961;    2.287;  -11.180;  708.460
1148.500;    1.933;  -11.510;  669.720
1149.038;    1.864;  -11.640;  632.500
1149.577;    1.544;  -10.130;  698.640
1150.115;   -0.326;  -13.970;  452.280
1150.653;    0.329;  -14.520;  607.340
1151.192;    0.550;  -12.810;  552.920
1151.730;    0.884;   -9.100;  652.560
1152.268;    0.473;  -12.220;  589.520
1152.806;    0.080;  -14.140;  571.180
1153.344;   -0.954;  -12.350;  577.640
1153.882;    0.734;   -8.980;  600.060
1154.421;   -0.764;  -15.190;  470.620
1154.958;   -0.237;  -15.210;  595.240
1155.496;    1.155;  -12.850;  645.280
1156.034;    0.673;   -9.940;  721.880
1156.572;    1.199;  -13.570;  667.060
1157.110;   -1.302;  -14.590;  473.940
1157.647;    0.172;  -13.030;  676.960
1158.185;   -0.436;  -12.140;  564.320
1158.723;   -1.478;  -14.390;  509.200
1159.260;    0.157;  -14.090;  701.700
1159.798;   -0.394;  -11.920;  658.160
1160.335;   -0.063;  -11.110;  631.820

