
Integration time [ms]:   3.276
Averaging Nr. [scans]: 1000
Smoothing Nr. [pixels]: 0
Data measured with spectrometer [name]: 7414430SP
Wave   ;Sample   ;Dark     ;Reference
[nm]   ;[counts] ;[counts] ;[counts] 

288.544;  149.499;    7.793;  793.890
289.143;  154.190;    7.462;  681.602
289.742;  154.718;    8.602;  828.814
290.341;  139.740;    1.321;  789.841
290.940;  128.154;   -0.709;  730.702
291.538;  129.881;    0.881;  881.108
292.137;  129.547;    0.122;  792.581
292.736;  134.201;   -1.929;  975.101
293.335;  130.528;   -8.229;  735.086
293.934;  131.337;   -5.279;  781.677
294.532;  129.980;   -1.369; 1031.958
295.131;  115.663;   -7.641;  834.394
295.730;  116.039;   -8.420;  809.588
296.328;  115.003;   -5.611;  783.442
296.927;  116.893;   -5.781;  779.652
297.525;  116.404;   -6.361;  781.236
298.124;  106.805;  -11.382;  654.009
298.722;  111.002;   -7.641;  761.933
299.321;  109.025;   -6.811;  708.597
299.919;  107.031;   -6.991;  751.918
300.518;  102.988;  -10.362;  689.338
301.116;  105.732;   -9.581;  691.381
301.715;  105.788;   -4.891;  730.222
302.313;  104.306;   -8.801;  704.943
302.911;   99.452;   -8.522;  733.830
303.509;  104.913;   -6.171;  925.627
304.108;  103.895;   -7.311;  760.383
304.706;  102.398;   -8.321;  801.664
305.304;   96.754;  -10.222;  796.707
305.902;  101.524;   -6.021;  784.484
306.500;   97.743;   -4.971;  728.200
307.098;   95.992;   -7.061;  746.560
307.696;   93.608;   -8.801;  780.432
308.294;   94.955;   -6.411;  731.359
308.892;   97.119;   -2.901;  759.769
309.490;   92.876;   -5.041;  712.161
310.088;   90.113;   -5.002;  788.444
310.686;   94.807;   -2.041;  821.749
311.284;   90.974;   -2.351;  766.040
311.882;   88.773;   -4.422;  731.225
312.480;   84.801;   -4.192;  697.167
313.078;   86.968;   -1.172;  808.331
313.675;   88.481;   -2.601;  691.600
314.273;   83.618;   -1.312;  797.837
314.871;   82.275;   -3.942;  589.829
315.468;   79.557;   -2.802;  652.090
316.066;   83.347;   -0.701;  694.427
316.664;   75.967;   -4.362;  656.351
317.261;   79.799;   -2.872;  910.128
317.859;   75.304;   -2.022;  768.735
318.456;   75.577;   -0.531;  830.096
319.054;   71.757;   -3.912;  787.828
319.651;   70.233;   -4.752;  759.928
320.249;   69.340;   -2.602;  810.188
320.846;   67.951;   -0.821;  714.286
321.443;   65.281;   -4.642;  832.135
322.041;   61.539;   -5.002;  812.315
322.638;   59.035;   -3.982;  701.456
323.235;   60.705;   -3.411;  665.683
323.833;   57.934;   -7.361;  740.354
324.430;   52.868;   -8.611;  615.900
325.027;   53.916;   -4.061;  876.855
325.624;   54.589;   -4.031;  644.532
326.221;   51.069;   -7.481;  689.717
326.818;   49.572;   -5.281;  818.332
327.415;   53.886;   -7.460;  748.828
328.012;   53.296;   -5.510;  690.585
328.609;   51.601;   -7.880;  731.389
329.206;   48.924;   -8.331;  778.621
329.803;   50.306;   -5.121;  737.841
330.400;   53.327;   -4.510;  704.260
330.997;   54.201;   -6.441;  817.147
331.594;   52.391;   -8.831;  788.185
332.191;   57.562;   -7.621;  728.722
332.787;   61.536;   -4.591;  844.463
333.384;   60.047;   -7.412;  763.093
333.981;   58.181;   -8.293;  815.687
334.578;   60.932;   -7.052;  708.378
335.174;   64.294;   -3.102;  731.469
335.771;   63.636;   -5.943;  836.456
336.367;   60.633;   -7.393;  710.631
336.964;   64.036;   -4.063;  793.266
337.561;   62.592;   -3.813;  731.112
338.157;   57.686;   -4.654;  911.916
338.754;   54.984;   -7.934;  796.589
339.350;   54.078;   -4.414;  722.493
339.946;   56.126;   -4.664;  773.135
340.543;   46.981;   -6.375;  846.136
341.139;   42.013;   -9.815;  720.836
341.735;   39.744;   -4.526;  772.593
342.332;   38.581;   -4.895;  691.472
342.928;   39.435;   -4.295;  795.394
343.524;   33.260;   -5.476;  761.684
344.120;   29.292;   -5.856;  738.562
344.716;   31.835;   -2.155;  723.717
345.313;   30.574;   -6.275;  795.342
345.909;   25.117;   -8.815;  627.336
346.505;   26.743;   -5.305;  740.247
347.101;   27.841;   -2.674;  827.864
347.697;   28.128;   -4.344;  785.398
348.293;   21.149;   -9.975;  627.244
348.889;   23.401;   -5.774;  745.914
349.485;   22.497;   -5.004;  688.205
350.081;   22.589;   -4.704;  772.592
350.676;   17.896;   -6.635;  691.606
351.272;   22.518;   -4.504;  809.530
351.868;   23.137;   -3.914;  780.497
352.464;   19.768;   -9.044;  723.932
353.059;   15.394;   -8.314;  646.017
353.655;   18.634;   -7.024;  777.063
354.251;   20.258;   -5.343;  759.845
354.846;   14.415;   -8.604;  740.646
355.442;   12.302;   -6.945;  753.071
356.038;   13.839;   -7.564;  751.708
356.633;   14.898;   -5.814;  728.594
357.229;   12.357;   -7.364;  724.757
357.824;    9.818;   -8.024;  703.600
358.420;   10.144;   -9.384;  679.726
359.015;   10.537;   -5.104;  695.357
359.610;   11.303;   -6.854;  763.920
360.206;    4.494;  -10.185;  603.240
360.801;    7.991;   -7.054;  646.503
361.396;   10.756;   -5.034;  725.975
361.992;    5.531;   -8.284;  668.220
362.587;    2.436;   -8.625;  670.160
363.182;    5.349;   -7.674;  689.631
363.777;    6.387;   -5.164;  738.242
364.372;    4.934;   -8.604;  737.314
364.967;    1.572;   -9.055;  680.744
365.563;    5.681;   -6.114;  815.567
366.158;    2.439;   -5.814;  685.161
366.753;    2.982;   -7.854;  649.263
367.348;    1.130;   -7.804;  746.056
367.942;    1.666;   -7.954;  697.298
368.537;    1.231;   -4.984;  754.245
369.132;    0.036;   -8.564;  703.428
369.727;   -3.520;   -8.855;  638.079
370.322;   -1.335;   -6.245;  580.186
370.917;   -1.521;   -6.425;  710.646
371.511;    1.247;   -6.294;  861.834
372.106;   -2.650;   -7.685;  776.964
372.701;   -5.740;   -7.335;  585.988
373.296;   -0.244;   -4.564;  863.135
373.890;   -5.033;  -10.235;  647.840
374.485;   -7.662;   -7.885;  691.199
375.079;   -2.603;   -7.324;  738.685
375.674;   -2.219;   -3.494;  812.970
376.268;   -6.699;   -8.525;  691.759
376.863;  -12.333;  -10.086;  580.327
377.457;   -5.831;   -7.025;  662.490
378.052;   -7.487;   -3.585;  764.884
378.646;   -8.544;   -7.595;  741.167
379.240;   -9.375;   -8.335;  721.176
379.835;   -8.493;   -5.785;  636.978
380.429;   -9.783;   -4.335;  562.557
381.023;  -10.145;   -6.805;  779.205
381.617;  -12.563;   -9.195;  680.106
382.212;   -8.187;   -6.905;  685.303
382.806;   -8.178;   -3.745;  760.690
383.400;  -12.516;   -7.745;  672.281
383.994;  -13.446;   -9.765;  664.870
384.588;  -10.085;   -6.564;  697.701
385.182;   -8.060;   -5.344;  726.624
385.776;   -9.686;   -8.514;  706.875
386.370;  -12.991;   -9.555;  681.968
386.964;  -11.538;   -8.715;  684.155
387.558;  -10.022;   -6.174;  598.360
388.152;  -13.332;   -8.725;  681.959
388.745;  -11.659;   -7.965;  814.707
389.339;   -9.509;   -5.924;  747.642
389.933;   -8.857;   -5.524;  695.370
390.527;  -10.105;   -7.114;  859.029
391.120;  -16.370;  -10.725;  595.318
391.714;  -12.736;   -8.035;  711.633
392.308;  -10.117;   -3.574;  780.253
392.901;  -13.861;   -7.245;  642.460
393.495;  -16.109;   -9.285;  595.414
394.089;  -13.756;   -5.895;  760.452
394.682;  -14.271;   -4.295;  697.188
395.275;  -14.369;   -9.875;  719.927
395.869;  -15.950;   -8.485;  667.314
396.462;  -14.088;   -7.455;  616.609
397.056;  -10.620;   -5.424;  776.621
397.649;  -14.514;   -6.605;  731.575
398.242;  -13.395;   -8.224;  712.645
398.836;  -12.363;   -7.474;  766.408
399.429;  -12.849;   -7.094;  631.041
400.022;  -16.701;   -9.475;  665.902
400.615;  -14.307;   -7.145;  805.609
401.208;  -11.891;   -7.174;  691.451
401.802;  -14.036;   -5.515;  699.329
402.395;  -15.454;   -9.875;  683.502
402.988;  -16.336;   -8.845;  696.627
403.581;  -13.266;   -8.874;  646.878
404.174;  -11.153;   -5.324;  686.568
404.767;  -13.380;   -9.575;  638.583
405.360;  -16.553;  -10.965;  621.445
405.953;  -11.532;   -8.764;  759.034
406.545;  -10.630;   -7.514;  725.342
407.138;  -14.875;  -10.025;  618.350
407.731;  -13.802;  -10.034;  613.303
408.324;   -9.763;   -9.374;  660.554
408.917;   -9.842;   -6.534;  681.864
409.509;  -12.904;   -8.004;  740.396
410.102;  -14.702;   -9.875;  643.948
410.695;   -8.675;   -8.604;  665.758
411.287;   -8.170;   -6.794;  599.821
411.880;  -10.409;   -9.334;  585.421
412.472;  -13.965;  -10.254;  613.092
413.065;  -10.897;   -6.714;  629.408
413.657;   -8.103;   -7.234;  576.678
414.250;   -9.329;  -10.544;  646.681
414.842;  -10.517;   -9.744;  676.353
415.434;   -7.847;   -6.994;  570.463
416.027;   -3.851;   -5.893;  652.196
416.619;   -5.756;   -7.264;  713.400
417.211;   -7.062;  -10.374;  599.352
417.804;   -2.817;   -7.993;  628.499
418.396;   -6.792;   -7.234;  607.643
418.988;   -4.729;   -9.443;  659.238
419.580;   -8.849;  -10.724;  568.276
420.172;   -6.261;  -10.323;  536.196
420.764;   -1.725;   -8.793;  672.482
421.356;   -2.915;  -11.143;  636.898
421.948;   -4.005;   -8.293;  677.661
422.540;    0.916;   -7.893;  680.027
423.132;    0.929;   -7.082;  600.641
423.724;   -2.753;   -8.653;  561.267
424.316;   -1.177;  -10.213;  621.345
424.908;    3.134;   -9.762;  591.517
425.500;    4.040;   -5.572;  647.978
426.092;    3.296;   -8.422;  648.268
426.683;    2.199;   -9.283;  684.836
427.275;    5.484;   -7.852;  641.471
427.867;    7.207;   -5.272;  668.948
428.458;    7.167;   -7.682;  732.344
429.050;    5.741;  -10.612;  680.749
429.642;    8.337;   -9.882;  743.124
430.233;    8.444;   -6.962;  569.356
430.825;    9.477;   -6.842;  724.809
431.416;    6.716;   -9.672;  698.241
432.008;   10.794;   -6.552;  651.723
432.599;   11.702;   -6.891;  656.073
433.190;    8.617;  -10.912;  637.670
433.782;    7.019;  -11.172;  590.395
434.373;   14.877;   -6.061;  884.765
434.964;   14.165;   -8.251;  602.920
435.556;   11.499;   -9.722;  634.537
436.147;   14.239;   -9.082;  758.490
436.738;   14.835;   -8.041;  701.099
437.329;   19.977;   -7.341;  721.723
437.920;   12.705;   -8.162;  666.688
438.511;   12.548;  -11.802;  564.526
439.103;   19.563;  -10.191;  623.998
439.694;   21.625;   -7.601;  681.583
440.285;   22.043;   -8.541;  764.432
440.876;   18.980;   -9.751;  845.738
441.466;   19.111;   -9.401;  575.162
442.057;   24.901;   -7.760;  665.814
442.648;   23.752;   -9.971;  746.255
443.239;   21.929;  -11.001;  620.477
443.830;   25.895;   -7.990;  704.958
444.421;   28.504;   -7.910;  655.474
445.011;   24.873;   -8.131;  693.619
445.602;   24.900;   -7.111;  743.126
446.193;   25.941;  -10.920;  488.117
446.783;   31.263;   -6.500;  640.397
447.374;   26.265;   -8.671;  692.759
447.964;   26.285;  -10.781;  713.770
448.555;   35.248;   -9.650;  822.742
449.145;   32.016;   -8.660;  662.853
449.736;   32.975;   -8.990;  803.179
450.326;   32.338;   -9.500;  713.626
450.917;   37.348;   -8.680;  675.324
451.507;   36.460;   -7.520;  600.661
452.097;   36.383;   -8.590;  746.267
452.688;   38.199;  -11.340;  742.160
453.278;   37.735;  -10.100;  566.840
453.868;   42.694;   -6.019;  793.550
454.458;   40.247;   -9.440;  651.141
455.048;   40.192;  -10.560;  711.783
455.639;   42.799;  -11.799;  567.096
456.229;   46.442;   -6.899;  710.694
456.819;   47.590;   -7.389;  751.158
457.409;   47.505;  -11.119;  773.993
457.999;   50.189;   -9.289;  737.505
458.589;   51.461;   -6.139;  686.606
459.179;   49.523;   -8.729;  717.658
459.769;   48.274;   -9.789;  627.099
460.358;   53.502;  -10.259;  797.262
460.948;   53.118;   -7.299;  689.503
461.538;   54.219;  -10.289;  660.677
462.128;   53.413;  -11.269;  664.934
462.717;   59.705;   -9.368;  710.326
463.307;   63.085;   -7.908;  705.846
463.897;   58.217;   -9.599;  656.942
464.486;   57.080;   -9.769;  837.128
465.076;   62.240;   -8.048;  733.776
465.666;   65.432;   -9.358;  652.900
466.255;   63.134;   -7.919;  785.651
466.845;   62.876;  -11.689;  666.749
467.434;   65.938;   -7.818;  725.873
468.023;   66.440;   -7.678;  658.357
468.613;   64.033;  -10.939;  713.946
469.202;   68.604;  -10.118;  646.507
469.791;   71.721;   -9.108;  737.811
470.381;   75.124;   -6.058;  742.813
470.970;   74.137;  -10.428;  711.099
471.559;   73.079;  -10.268;  733.291
472.148;   76.785;   -8.448;  675.737
472.738;   79.662;   -6.917;  765.466
473.327;   79.131;  -11.978;  637.529
473.916;   77.799;  -11.888;  737.446
474.505;   82.541;   -9.437;  751.703
475.094;   86.029;   -6.747;  806.570
475.683;   84.574;   -9.367;  797.699
476.272;   85.809;  -12.637;  730.632
476.861;   88.995;  -10.027;  706.754
477.449;   95.218;   -8.716;  728.487
478.038;   90.202;   -9.577;  692.513
478.627;   90.453;   -9.718;  714.852
479.216;   97.818;   -8.947;  769.441
479.805;  100.579;   -6.256;  783.375
480.393;  100.279;   -7.937; 1008.945
480.982;   99.091;   -7.717;  874.501
481.571;  105.135;   -9.266;  858.333
482.159;  106.740;   -7.636;  705.386
482.748;  106.203;   -9.667;  821.385
483.336;  111.020;  -10.376;  858.209
483.925;  111.244;   -7.147;  774.373
484.513;  118.697;   -7.996;  758.962
485.102;  115.357;  -10.027;  810.965
485.690;  123.171;  -10.446; 1011.050
486.278;  125.594;   -8.446;  979.329
486.867;  127.161;   -6.356;  809.662
487.455;  128.008;   -9.136;  898.229
488.043;  129.402;  -10.646;  748.361
488.631;  138.144;   -7.456; 1005.079
489.220;  143.704;   -6.636;  908.626
489.808;  143.976;  -11.036;  741.415
490.396;  151.488;  -10.246;  914.645
490.984;  158.493;   -8.556;  830.161
491.572;  169.238;   -5.886;  940.315
492.160;  175.621;   -9.486;  919.081
492.748;  188.355;  -10.976;  884.341
493.336;  213.749;   -8.776; 1019.693
493.924;  242.239;   -5.465;  958.077
494.512;  274.938;   -9.986; 1066.638
495.100;  316.667;  -10.636; 1103.280
495.687;  375.874;  -10.885; 1206.373
496.275;  440.026;   -8.126; 1150.796
496.863;  509.185;  -10.586; 1281.171
497.451;  613.438;  -11.926; 1386.805
498.038;  766.782;  -10.885; 1556.729
498.626;  899.654;   -6.315; 1741.407
499.214; 1054.891;   -7.326; 2016.609
499.801; 1269.138;  -11.906; 2220.633
500.389; 1534.363;  -10.466; 2312.494
500.976; 1901.944;   -5.236; 2744.849
501.564; 2335.441;   -8.936; 3148.565
502.151; 2721.897;  -13.176; 3515.999
502.738; 3247.637;  -10.646; 3971.274
503.326; 3658.017;   -9.525; 4403.796
503.913; 4106.424;  -10.856; 5161.749
504.500; 4445.876;  -11.586; 5986.420
505.088; 4873.914;  -10.336; 6381.201
505.675; 5453.132;   -6.355; 6925.547
506.262; 6077.037;   -9.046; 7619.060
506.849; 6813.542;  -10.416; 8733.969
507.436; 7302.346;  -10.305; 9790.121
508.023; 7697.804;   -5.496; 9985.472
508.610; 8000.558;   -7.856;10434.618
509.197; 8794.702;  -10.097;11198.435
509.784;10396.625;  -10.886;12391.194
510.371;11582.886;   -9.315;13603.713
510.958;12350.673;   -9.936;14426.586
511.545;12946.726;   -9.326;15243.775
512.132;13347.413;  -10.075;15945.876
512.719;13855.054;   -7.796;16340.369
513.305;15290.344;  -10.606;18011.766
513.892;16224.564;  -11.486;19754.971
514.479;17588.369;   -9.126;20967.805
515.066;18770.398;   -6.026;22299.793
515.652;19788.266;   -8.466;22908.660
516.239;21213.820;  -10.886;23798.875
516.825;21724.887;  -11.496;25567.275
517.412;22309.895;   -5.796;28154.959
517.998;23288.980;  -10.506;28344.111
518.585;23596.619;  -10.076;27134.219
519.171;23651.395;   -8.315;27268.576
519.758;25203.354;   -8.596;28964.129
520.344;26617.984;   -8.466;30664.494
520.930;26587.600;  -11.006;32550.605
521.516;28263.758;  -10.495;35422.895
522.103;30803.428;   -5.526;38280.004
522.689;31731.979;   -8.746;37835.117
523.275;30778.313;  -11.376;37288.613
523.861;30964.744;  -11.156;37281.395
524.447;32593.838;   -8.135;37846.949
525.033;32641.195;   -7.896;38321.949
525.619;33076.578;  -12.476;38579.285
526.205;34155.457;   -9.516;40622.875
526.791;36580.316;   -6.926;42258.836
527.377;36939.973;   -8.346;42966.902
527.963;38801.277;   -8.717;42018.949
528.549;38169.906;  -11.016;42476.828
529.135;35946.207;   -8.536;41854.852
529.721;35200.051;   -9.666;41237.711
530.306;34644.699;  -10.066;41259.445
530.892;34997.770;  -11.356;41506.047
531.478;36035.676;   -6.596;43559.613
532.063;37940.480;   -8.836;47695.563
532.649;38413.867;  -10.047;50808.324
533.235;40375.066;   -9.746;51787.500
533.820;41970.926;   -6.566;52145.035
534.406;41852.457;  -10.817;51133.488
534.991;40861.863;   -9.416;49996.805
535.576;39636.941;   -9.036;48882.852
536.162;40343.426;   -6.156;46942.285
536.747;41160.848;  -11.607;45711.746
537.333;43937.730;  -11.787;48510.180
537.918;46387.785;  -12.437;50439.891
538.503;45239.965;   -7.196;50863.711
539.088;42859.672;  -10.556;50906.922
539.673;44349.254;   -8.767;52621.965
540.259;44801.383;  -10.026;52368.094
540.844;41564.500;   -7.416;50879.109
541.429;41573.086;   -9.467;52077.777
542.014;44886.797;   -9.527;52716.695
542.599;45737.977;   -9.946;52363.281
543.184;42402.629;   -7.927;53187.137
543.769;42887.980;   -9.297;54697.605
544.354;43391.250;  -10.127;53913.914
544.938;42996.957;   -9.267;49680.164
545.523;45058.707;   -6.506;47386.277
546.108;46646.875;   -9.787;49151.949
546.693;48175.387;  -11.587;51384.637
547.278;48209.676;  -10.986;51853.254
547.862;44723.246;   -8.206;51173.750
548.447;40680.277;  -10.067;51691.395
549.031;40180.766;   -9.637;52456.703
549.616;44439.352;   -9.926;52714.516
550.201;44790.734;   -6.347;52414.598
550.785;44385.230;   -7.917;52355.059
551.370;44121.402;  -10.867;54589.453
551.954;44831.867;   -9.047;58267.348
552.538;46834.375;   -7.827;59062.176
553.123;45986.754;  -10.287;58115.285
553.707;43678.910;  -12.178;56556.285
554.291;43598.281;   -8.717;56201.668
554.876;43495.246;   -7.457;55335.762
555.460;44122.301;  -10.387;54155.703
556.044;46642.574;   -9.618;53721.484
556.628;44635.199;  -11.567;53731.016
557.212;44291.055;   -8.097;54312.531
557.796;42936.523;  -11.077;53797.773
558.380;43419.891;  -11.108;56145.984
558.964;43688.969;   -9.057;57277.930
559.548;43532.098;   -6.977;56459.641
560.132;41700.934;  -11.457;54434.543
560.716;41005.020;  -11.378;54800.617
561.300;40996.820;   -9.577;57606.945
561.884;42174.676;   -7.127;58972.445
562.467;41775.867;   -7.118;57327.570
563.051;41149.613;  -13.358;54962.434
563.635;41500.422;  -10.178;52594.473
564.219;42901.992;   -7.837;50610.410
564.802;43765.691;  -11.398;49551.180
565.386;43616.313;  -12.788;48370.953
565.969;42938.270;   -9.077;48178.871
566.553;42384.855;   -6.207;49957.305
567.136;42654.988;   -8.568;50369.594
567.720;39196.328;  -11.868;49492.004
568.303;37939.426;   -8.268;50616.352
568.887;37870.695;   -8.698;50727.148
569.470;38042.777;   -6.808;51698.379
570.053;36416.617;  -13.188;52122.078
570.637;35209.824;  -12.037;52536.438
571.220;34992.297;   -8.577;51186.098
571.803;35353.301;   -8.498;51032.762
572.386;37141.121;  -10.498;49609.887
572.969;40133.672;   -9.388;48285.926
573.552;38781.668;   -8.338;47624.285
574.135;37785.633;   -8.518;45498.641
574.718;34391.906;  -13.628;41970.434
575.301;32529.191;  -10.893;41447.137
575.884;30666.479;   -8.158;40923.836
576.467;31634.221;  -10.328;45267.723
577.050;35458.238;  -13.058;48175.543
577.633;38020.305;   -9.458;47729.328
578.216;37183.949;   -8.928;47579.793
578.799;36262.953;   -9.358;47820.996
579.381;34818.449;  -11.388;48115.551
579.964;33095.797;  -11.718;47333.766
580.547;34196.027;   -8.588;46668.969
581.129;34451.012;   -8.859;44466.141
581.712;34307.887;  -10.729;44164.922
582.294;34871.590;  -11.118;46477.855
582.877;36187.250;   -5.218;48244.254
583.459;35070.793;   -8.679;47437.895
584.042;33331.199;  -10.709;46943.219
584.624;33258.563;  -11.669;46792.227
585.206;32207.234;   -8.218;46557.250
585.789;32847.316;  -10.569;45793.773
586.371;35753.488;  -11.859;43836.391
586.953;36119.883;  -10.719;42972.492
587.536;36525.363;   -7.198;42487.211
588.118;36516.984;   -8.720;42086.414
588.700;33307.266;  -10.439;43389.930
589.282;32226.234;   -9.198;43646.039
589.864;32414.814;   -9.199;43438.109
590.446;33312.516;  -11.319;43151.926
591.028;32004.006;  -11.159;42781.867
591.610;29579.070;  -11.779;42839.098
592.192;25861.074;   -7.668;42820.402
592.774;25324.670;  -11.949;40724.277
593.356;26636.549;  -12.129;39874.789
593.937;28317.188;  -10.669;39980.648
594.519;31073.340;   -6.509;42069.633
595.101;32965.352;  -10.849;42976.031
595.683;33266.184;  -11.679;44084.441
596.264;34323.703;   -9.049;43478.797
596.846;32994.262;   -8.849;43803.672
597.427;31786.072;   -9.570;42986.934
598.009;33557.680;  -12.620;42832.219
598.591;34199.414;  -10.039;42580.086
599.172;33898.191;  -10.369;43061.805
599.753;34021.980;   -9.140;41691.469
600.335;35134.531;  -11.430;40692.520
600.916;33347.938;   -9.939;39982.422
601.498;31856.414;   -8.479;40318.617
602.079;30895.594;  -10.920;40670.609
602.660;30468.621;  -11.480;41450.898
603.241;30473.154;  -11.699;41137.738
603.823;28961.150;   -9.579;38868.797
604.404;29743.098;  -10.620;38182.785
604.985;31345.102;  -10.450;38078.047
605.566;30518.225;   -9.129;38056.633
606.147;30153.574;   -7.510;37020.418
606.728;32649.398;  -10.660;37883.359
607.309;31899.807;  -11.740;38748.273
607.890;31020.678;   -9.759;38850.230
608.471;30545.201;   -8.250;37457.918
609.051;30356.047;   -9.240;36066.457
609.632;29258.826;  -12.120;35991.074
610.213;29778.164;   -9.110;37402.641
610.794;30184.291;   -8.030;38383.363
611.374;28874.236;   -8.110;40562.387
611.955;28687.191;  -13.560;38533.727
612.536;30343.885;  -11.400;36951.789
613.116;30588.367;   -8.070;37197.891
613.697;31364.951;  -10.830;38411.125
614.277;29727.113;  -11.641;38673.938
614.858;30418.371;  -13.310;37075.863
615.438;30787.043;   -7.460;35092.906
616.019;28488.201;   -7.601;33666.301
616.599;28652.543;  -12.020;34189.023
617.179;30461.088;  -11.780;36952.047
617.760;30825.588;   -8.570;39582.574
618.340;32089.979;  -11.471;38943.977
618.920;33517.395;  -11.170;37594.156
619.500;32995.523;  -11.071;37866.938
620.080;32602.988;   -7.750;37869.043
620.660;33429.488;  -12.711;36868.617
621.241;33965.055;  -10.211;36352.309
621.821;33192.492;  -10.961;35459.520
622.401;32947.523;   -7.720;35207.414
622.980;32033.742;   -8.981;35980.422
623.560;30556.252;   -9.331;37351.328
624.140;30076.990;   -9.850;34388.582
624.720;26229.402;   -7.451;32368.764
625.300;22266.176;   -9.070;32638.629
625.880;24823.006;  -12.601;34599.035
626.459;28321.383;  -11.751;36831.738
627.039;30940.863;   -9.281;38299.098
627.619;30810.014;   -8.801;38289.574
628.198;29283.943;  -12.071;37220.695
628.778;29347.846;   -9.461;37632.563
629.357;30385.463;   -8.491;38003.012
629.937;30091.994;   -9.721;38402.039
630.516;29081.652;   -9.951;37868.801
631.096;29166.982;  -11.731;35760.410
631.675;32246.350;   -8.572;35225.219
632.254;37275.816;  -11.282;35130.289
632.834;36371.680;  -13.322;35794.570
633.413;35076.945;  -10.301;35788.922
633.992;32538.857;   -8.582;34532.863
634.571;33689.746;   -8.352;33590.113
635.151;35467.395;  -11.912;34943.863
635.730;33306.875;  -10.511;35352.523
636.309;30322.393;   -7.731;35366.605
636.888;27912.041;   -9.952;36165.637
637.467;28048.271;  -11.672;37515.902
638.046;30141.848;   -8.901;39288.695
638.625;33031.922;   -7.912;38279.699
639.204;33004.922;  -10.022;37741.598
639.782;31652.287;  -12.252;38364.551
640.361;28492.096;  -10.041;36740.621
640.940;25868.461;  -11.161;34950.082
641.519;25375.838;   -9.701;34137.398
642.097;27420.883;  -11.271;35654.258
642.676;30667.883;   -8.651;35637.957
643.255;32412.264;   -8.711;36567.074
643.833;31164.080;   -9.581;37809.434
644.412;31468.436;  -13.711;37337.293
644.990;31098.605;  -11.811;37018.531
645.569;31040.125;   -9.411;36518.469
646.147;29719.602;  -10.291;36186.430
646.726;28812.723;  -12.401;36267.688
647.304;30077.904;  -10.411;36647.625
647.882;31339.367;   -9.651;39286.742
648.461;32880.492;   -9.631;39157.703
649.039;32751.635;  -11.881;35412.883
649.617;32516.346;   -9.661;34744.918
650.195;32251.902;   -9.301;35403.098
650.773;31419.068;  -10.511;35053.797
651.352;29357.490;  -11.521;33756.816
651.930;26262.174;  -12.211;31868.773
652.508;23366.242;   -9.171;33121.551
653.086;26721.904;   -9.371;33564.793
653.663;30766.061;  -13.161;34054.668
654.241;29631.627;  -13.031;35693.309
654.819;30507.719;   -9.371;36422.906
655.397;29719.799;  -10.511;38213.484
655.975;29498.955;  -10.371;39507.625
656.553;30094.543;  -10.051;39498.223
657.130;29146.313;  -10.061;40395.480
657.708;28731.355;   -9.561;39242.020
658.286;28606.324;  -11.511;38920.020
658.863;29252.018;  -10.261;40202.898
659.441;31063.170;   -7.531;39677.938
660.018;30355.188;   -9.501;40413.355
660.596;29866.648;  -13.301;39931.414
661.173;31841.912;  -11.211;39604.531
661.750;31981.883;   -9.951;39700.070
662.328;30950.559;   -9.390;39292.809
662.905;30243.176;  -11.330;38235.648
663.482;26029.541;   -9.050;36212.305
664.060;23944.021;   -8.240;35944.945
664.637;26449.984;  -10.050;35170.785
665.214;28049.408;  -11.760;34197.523
665.791;29985.146;  -10.530;34549.520
666.368;29455.740;   -9.690;35118.578
666.945;30068.105;   -9.320;36019.418
667.522;31031.885;  -11.860;36048.438
668.099;31241.703;  -10.770;36243.914
668.676;30953.197;   -6.260;35958.875
669.253;29573.480;   -7.000;37384.730
669.830;29267.982;  -10.190;36779.629
670.407;28714.326;   -9.550;35231.289
670.984;29802.223;   -9.260;35544.270
671.560;29648.225;   -9.280;35466.867
672.137;28086.172;  -11.810;34280.863
672.714;29103.977;  -11.490;34632.863
673.290;29421.391;   -7.740;35135.422
673.867;29328.277;  -10.660;36114.480
674.443;29824.602;  -12.230;36152.859
675.020;28011.488;  -10.450;35327.238
675.596;29344.924;   -9.260;35795.176
676.173;30254.342;  -10.780;35430.355
676.749;29328.928;  -13.690;33549.516
677.326;29085.914;  -11.980;32210.012
677.902;29366.676;   -8.630;32068.871
678.478;28687.961;  -10.730;32583.891
679.054;28897.967;  -10.520;32088.928
679.631;30533.633;  -11.920;30978.848
680.207;31026.510;   -7.490;33160.887
680.783;31998.322;   -9.860;35570.363
681.359;31031.504;  -13.380;36125.184
681.935;29529.785;  -12.480;35240.922
682.511;28118.461;   -7.900;34429.961
683.087;27916.555;   -7.710;34463.680
683.663;28419.660;  -11.480;34648.898
684.239;28564.471;  -14.090;34546.457
684.815;28633.109;   -7.560;35586.375
685.390;28798.879;   -9.910;35821.895
685.966;29042.910;  -11.159;35085.871
686.542;31410.828;  -11.169;34198.230
687.118;33574.629;   -5.959;32847.707
687.693;33461.906;  -10.329;32794.027
688.269;32529.242;  -12.059;33072.367
688.844;29806.426;  -10.909;33141.664
689.420;28339.084;   -8.019;33965.742
689.995;27210.420;   -8.399;34655.523
690.571;26499.893;  -10.949;33576.742
691.146;26960.637;   -9.619;32657.219
691.722;25978.443;   -8.999;32526.979
692.297;25132.211;  -11.589;33014.617
692.872;26837.641;  -11.739;34012.254
693.448;27134.766;  -11.059;34237.434
694.023;25835.959;  -10.139;34142.672
694.598;27677.768;   -9.029;34132.031
695.173;27778.844;  -13.319;34205.250
695.748;27184.844;  -10.169;32882.488
696.323;26873.174;   -8.339;32864.906
696.898;26409.691;   -8.169;33170.004
697.473;26445.123;  -12.309;32432.984
698.048;26748.535;  -10.989;31649.303
698.623;27318.174;   -9.329;30778.141
699.198;28698.520;   -9.849;31140.119
699.773;29614.162;  -12.329;31764.299
700.348;28774.758;  -10.389;31780.816
700.922;29343.959;   -9.269;32046.375
701.497;29774.008;   -9.329;32603.574
702.072;29692.912;  -10.789;34799.871
702.646;29428.451;  -10.839;35793.172
703.221;28463.400;   -9.099;35201.590
703.795;30148.729;  -10.939;34764.527
704.370;29656.338;  -12.859;34307.367
704.944;29430.221;  -11.559;33509.887
705.519;30747.578;   -7.939;31388.584
706.093;31915.016;  -10.499;31340.104
706.668;31743.293;  -11.289;32630.281
707.242;30186.127;  -11.509;32728.779
707.816;29050.070;   -9.639;32947.238
708.390;27392.086;  -11.429;33277.855
708.965;27844.996;  -11.869;33834.336
709.539;28605.947;  -11.689;33709.273
710.113;28971.539;  -10.478;33044.313
710.687;28114.074;  -10.228;31953.992
711.261;25633.855;  -13.698;30505.949
711.835;25475.590;  -13.378;30262.369
712.409;26665.824;   -9.698;31254.447
712.983;28045.438;  -11.898;32754.986
713.557;29202.461;  -15.138;34018.824
714.131;29126.742;  -14.098;34579.625
714.704;27954.191;   -9.958;33890.262
715.278;25372.936;  -10.028;33531.102
715.852;25531.580;  -11.148;33601.660
716.425;26998.104;   -9.068;33515.117
716.999;27428.826;  -10.038;33185.555
717.573;28057.613;   -9.798;33905.996
718.146;29033.510;  -12.378;35199.293
718.720;28961.424;  -11.918;35060.551
719.293;28945.090;   -8.088;34973.230
719.867;31523.305;  -10.888;36394.449
720.440;31770.221;  -11.938;36663.008
721.013;30822.527;  -12.818;35102.426
721.587;29577.061;  -10.298;33985.266
722.160;27110.490;  -10.048;33524.965
722.733;25754.520;  -12.108;32987.043
723.306;26560.801;  -10.818;33066.301
723.880;28177.850;   -8.908;33399.500
724.453;30162.779;   -9.878;33468.297
725.026;29297.395;  -11.188;33816.637
725.599;26137.086;  -11.678;32797.996
726.172;26321.393;   -9.618;33187.434
726.745;28051.449;   -8.258;35136.613
727.318;29886.033;  -12.978;35751.730
727.891;30714.133;  -12.148;35890.430
728.463;30542.551;   -8.968;34822.090
729.036;29095.719;  -10.188;32895.086
729.609;29120.758;  -11.788;31823.225
730.182;25490.949;  -11.788;31445.283
730.754;23226.217;  -10.268;32373.223
731.327;23644.354;   -9.998;33676.820
731.900;23503.230;  -12.228;33417.000
732.472;24740.811;  -13.848;31978.498
733.045;27499.049;   -8.698;30368.777
733.617;27738.508;  -10.607;30574.215
734.190;27020.105;  -11.507;31280.975
734.762;24082.512;  -13.647;31674.412
735.334;22644.322;   -9.767;31247.291
735.907;23227.477;   -9.897;29876.211
736.479;23067.314;  -11.637;29808.488
737.051;22516.090;   -9.567;30233.547
737.623;23628.385;   -8.187;31469.086
738.195;24583.010;  -11.187;31784.225
738.768;26152.813;  -12.337;32120.523
739.340;26038.756;  -12.227;32094.342
739.912;24592.771;  -11.057;31312.680
740.484;23938.990;  -10.207;31946.238
741.056;23074.814;  -10.047;32984.059
741.628;24334.141;  -13.627;33897.715
742.199;26737.979;   -7.177;33213.016
742.771;25717.373;  -10.797;31369.113
743.343;23422.379;  -11.997;31865.473
743.915;21867.992;  -12.867;32388.631
744.487;21752.766;   -7.617;31079.568
745.058;22309.707;   -9.557;30570.107
745.630;23527.533;   -9.877;29970.127
746.201;25055.393;  -14.177;29186.766
746.773;25401.254;   -9.237;28805.723
747.344;24814.617;   -9.847;29591.223
747.916;23012.547;  -11.657;31412.201
748.487;22247.008;  -10.587;32194.898
749.059;23587.391;   -8.707;32533.719
749.630;24862.824;  -10.537;32158.518
750.201;24253.736;  -11.687;30855.395
750.773;23057.643;  -11.647;28622.555
751.344;23118.938;   -7.147;28405.732
751.915;23952.037;   -9.757;28461.551
752.486;22881.914;  -12.427;27842.850
753.057;20530.650;  -12.227;27845.008
753.628;19510.162;  -10.417;27728.107
754.199;20166.236;  -11.767;27381.086
754.770;21128.486;  -11.187;25882.203
755.341;21332.447;  -10.507;25886.184
755.912;21466.146;   -9.387;26050.861
756.483;21011.578;  -10.647;26798.779
757.054;19285.561;  -11.837;27048.238
757.625;18029.102;  -12.716;26294.838
758.195;17761.613;   -9.666;26142.076
758.766;17481.143;   -8.656;26392.234
759.337;18431.980;  -12.856;26334.594
759.907;20072.430;  -13.366;27579.652
760.478;21172.623;   -8.576;28352.770
761.048;21229.881;  -10.526;27325.088
761.619;20611.730;  -11.116;26460.428
762.189;20097.654;  -12.136;26029.826
762.760;20450.584;   -9.456;26430.145
763.330;21383.881;   -7.136;26670.902
763.900;20682.199;  -11.786;26603.021
764.471;17779.648;  -11.546;25542.740
765.041;16646.670;   -8.096;24358.459
765.611;17388.404;   -8.876;23991.297
766.181;18023.020;  -12.196;24470.236
766.751;18756.938;  -11.636;24845.975
767.321;18538.277;  -10.156;24533.633
767.891;16311.771;  -11.766;24916.492
768.461;15510.271;  -14.936;24776.771
769.031;15859.241;  -12.356;24757.988
769.601;17637.340;   -7.526;24181.088
770.171;17923.627;  -10.766;23670.387
770.741;17280.857;  -13.176;22960.045
771.311;17327.139;  -10.616;22917.523
771.880;17496.652;   -9.576;23562.941
772.450;17108.670;  -10.336;24216.500
773.020;17142.236;  -13.516;24140.398
773.589;16800.016;  -13.466;24414.857
774.159;16519.273;   -8.686;23858.717
774.729;16191.670;   -9.476;22942.135
775.298;15451.631;  -13.666;22324.033
775.867;14858.107;  -11.716;21140.313
776.437;14941.472;   -9.906;20838.092
777.006;14789.271;  -12.166;20599.510
777.576;14779.593;  -12.356;20508.809
778.145;15008.969;  -11.646;20732.947
778.714;14839.026;   -8.226;21062.465
779.283;13799.914;   -9.556;20949.664
779.853;13509.935;  -14.116;20508.623
780.422;14026.791;  -11.506;20649.082
780.991;13465.707;   -9.556;21527.520
781.560;12530.582;   -9.095;22632.658
782.129;12462.837;  -12.135;23048.277
782.698;12224.571;  -10.865;23438.555
783.267;11813.827;   -9.335;23267.734
783.836;11788.359;  -11.045;22415.133
784.404;12553.616;  -13.865;20443.152
784.973;12629.386;  -13.095;19699.150
785.542;12395.676;  -11.575;19763.828
786.111;12357.056;   -9.705;20341.408
786.679;12218.157;  -12.105;20207.967
787.248;12209.321;  -12.455;19516.465
787.817;11793.032;  -11.535;18900.363
788.385;11172.597;   -9.765;17879.121
788.954;10393.140;  -14.005;17658.301
789.522;10086.552;  -11.955;17788.879
790.090;10760.271;  -10.135;18118.277
790.659;11195.899;  -10.975;18338.736
791.227;10659.237;  -13.375;18508.615
791.795;11079.885;  -12.375;17898.254
792.364;11449.911;  -10.725;17295.133
792.932;11674.710;   -9.715;16822.051
793.500;11736.857;  -12.675;17040.148
794.068;11936.236;  -13.495;17179.787
794.636;12141.666;  -10.885;16664.246
795.204;11632.242;  -11.045;16524.545
795.772;11384.854;  -13.175;17274.564
796.340;10829.354;  -12.445;17891.002
796.908;10669.438;   -9.735;17648.561
797.476;10606.138;   -9.815;17064.080
798.044;10121.033;  -13.985;16672.777
798.612; 9412.372;  -13.115;17023.996
799.180; 9200.953;  -10.185;16561.615
799.747; 9170.248;   -9.055;15962.773
800.315; 8906.804;  -12.385;15296.992
800.883; 8606.407;  -15.035;14801.771
801.450; 8531.237;  -10.365;14534.430
802.018; 8510.616;   -9.855;14173.248
802.585; 8498.671;  -11.905;14029.547
803.153; 8568.950;  -11.585;13836.846
803.720; 8523.338;   -9.095;13567.324
804.287; 8118.953;   -9.135;13360.622
804.855; 7661.413;  -11.604;13681.981
805.422; 7525.933;  -11.794;13536.560
805.989; 7394.837;  -10.734;13355.958
806.556; 7536.701;  -10.444;13747.896
807.124; 7979.685;  -12.764;13987.376
807.691; 8039.584;  -12.964;14038.674
808.258; 7857.567;  -11.134;14120.152
808.825; 7510.383;   -9.854;13860.111
809.392; 7516.884;  -10.504;13268.790
809.959; 7107.676;  -13.054;12680.389
810.526; 6689.228;   -8.294;12427.308
811.093; 6669.123;   -8.394;12030.105
811.659; 7268.500;  -12.304;11653.664
812.226; 7748.007;  -13.944;11637.183
812.793; 7481.892;  -10.484;11611.521
813.360; 6872.692;  -10.144;11885.181
813.926; 6352.226;  -11.684;12770.539
814.493; 6056.847;  -13.644;12677.638
815.060; 5676.325;   -9.724;11974.336
815.626; 5657.591;   -9.854;11594.715
816.193; 6094.893;  -13.254;11579.474
816.759; 6253.792;  -13.204;11666.972
817.325; 6472.440;   -9.434;11325.530
817.892; 6820.625;  -10.134;11105.369
818.458; 7197.609;  -13.474;10843.928
819.024; 6895.279;  -11.854;10714.406
819.591; 6593.618;  -10.244;10469.165
820.157; 6354.237;  -10.704;10235.523
820.723; 5968.265;  -12.324;10847.563
821.289; 5805.648;   -9.444;11040.980
821.855; 5797.478;   -8.374;10357.100
822.421; 5889.837;  -10.234; 9978.918
822.987; 5803.389;  -13.294; 9754.177
823.553; 5425.877;  -10.884;10065.755
824.119; 5272.376;   -8.884;10036.294
824.685; 5404.548;   -6.784;10029.192
825.251; 5469.743;  -12.004;10199.230
825.816; 5410.446;  -11.474; 9820.189
826.382; 5286.985;   -9.174; 9297.248
826.948; 5534.741;   -9.214; 9381.347
827.513; 5953.012;  -10.774; 9450.726
828.079; 5807.065;  -11.924; 9472.444
828.645; 5261.736;  -10.543; 9292.643
829.210; 5167.645;  -10.533; 9065.341
829.776; 5132.177;  -10.753; 9132.620
830.341; 5049.279;  -10.173; 9092.878
830.906; 5250.284;  -10.743; 9078.557
831.472; 5637.562;  -11.113; 8534.535
832.037; 5511.344;  -10.603; 8677.874
832.602; 4997.020;  -13.323; 8628.692
833.167; 4591.614;  -10.823; 8879.031
833.733; 4494.043;  -10.113; 9189.790
834.298; 4605.014;  -13.583; 9052.608
834.863; 4595.179;  -12.703; 8895.087
835.428; 4612.886;  -10.523; 8824.266
835.993; 4698.671;   -6.963; 8845.385
836.558; 4641.632;  -10.763; 8888.563
837.123; 4681.287;   -9.903; 8966.582
837.688; 4823.802;   -9.913; 8617.860
838.253; 5006.589;  -10.283; 8590.699
838.817; 5199.246;  -12.963; 8443.797
839.382; 5187.270;  -14.243; 8799.356
839.947; 4914.258;  -10.733; 8810.595
840.511; 4615.524;   -9.383; 8796.394
841.076; 4217.563;  -12.563; 8347.231
841.641; 4199.393;  -12.953; 8224.330
842.205; 4239.663;   -7.043; 8223.349
842.770; 4366.801;   -8.163; 8622.107
843.334; 4721.666;  -12.503; 8410.386
843.898; 4757.527;  -11.693; 8337.465
844.463; 4720.177;  -10.203; 8506.283
845.027; 4426.399;   -9.533; 8280.962
845.591; 4218.898;  -13.443; 8231.141
846.156; 4254.056;  -13.143; 7969.179
846.720; 4148.292;   -9.433; 7768.278
847.284; 4042.539;  -11.033; 7630.957
847.848; 3818.959;  -10.403; 7472.395
848.412; 3635.424;  -11.553; 7437.394
848.976; 3654.392;   -8.393; 7674.592
849.540; 3601.160;   -8.713; 7836.011
850.104; 3659.785;  -12.463; 7913.669
850.668; 3970.695;  -12.973; 7694.508
851.232; 4082.504;  -10.793; 7756.887
851.796; 3916.681;  -10.662; 7926.545
852.359; 3588.034;  -13.082; 7827.844
852.923; 3445.262;  -12.192; 7641.163
853.487; 3322.731;  -11.912; 7342.501
854.050; 3267.501;  -10.892; 7042.820
854.614; 3407.651;  -13.992; 7151.338
855.177; 3532.136;  -11.732; 7105.077
855.741; 3558.103;   -8.962; 6989.675
856.304; 3389.438;   -9.442; 6596.634
856.868; 3336.543;  -14.192; 6356.272
857.431; 3477.177;  -12.702; 6468.571
857.995; 3581.015;   -9.942; 6373.210
858.558; 3628.594;   -9.112; 6324.448
859.121; 3371.088;  -12.932; 6408.327
859.684; 3214.328;  -13.442; 6347.886
860.247; 3296.177;  -10.632; 6321.264
860.810; 3245.859;  -11.272; 6301.903
861.374; 2938.335;   -9.832; 6607.881
861.937; 2640.089;  -11.762; 6408.200
862.500; 2570.726;   -9.722; 6572.639
863.062; 2676.113;  -10.512; 6387.297
863.625; 2796.570;  -11.232; 6190.836
864.188; 2936.119;  -14.112; 5807.254
864.751; 3029.689;  -11.302; 5682.413
865.314; 2949.921;  -10.112; 5547.492
865.876; 2788.737;  -12.182; 5500.150
866.439; 2797.669;  -10.722; 5415.909
867.002; 2712.612;   -9.252; 5501.567
867.564; 2480.531;   -9.572; 5413.946
868.127; 2270.740;  -13.142; 5160.325
868.689; 2217.601;  -12.902; 5133.183
869.252; 2177.780;   -9.732; 5252.382
869.814; 2083.611;   -9.432; 5297.141
870.377; 2073.582;  -11.552; 5390.919
870.939; 2152.455;   -9.052; 5599.898
871.501; 2215.695;  -10.982; 5248.336
872.063; 2228.497;  -12.292; 4854.235
872.626; 2196.444;  -14.912; 4817.074
873.188; 2162.662;  -13.112; 4987.732
873.750; 2103.750;  -13.442; 4868.651
874.312; 2017.943;   -9.402; 4779.330
874.874; 1953.463;  -11.062; 4866.348
875.436; 1902.962;  -13.931; 4718.887
875.998; 1900.088;   -9.561; 4660.005
876.560; 1894.703;  -11.321; 4462.964
877.122; 1835.183;  -12.221; 4145.042
877.683; 1743.065;  -12.191; 4056.481
878.245; 1671.912;  -12.101; 3950.740
878.807; 1686.582;   -8.971; 4058.958
879.369; 1675.131;  -12.071; 3954.677
879.930; 1576.257;  -14.621; 3941.495
880.492; 1532.092;  -10.311; 4067.014
881.053; 1508.991;  -10.901; 3859.633
881.615; 1407.990;  -14.411; 3776.071
882.176; 1345.391;  -13.761; 3734.750
882.738; 1338.808;   -9.181; 3678.489
883.299; 1337.473;  -11.791; 3405.407
883.860; 1336.774;  -13.121; 3351.106
884.422; 1327.846;  -11.211; 3394.044
884.983; 1283.757;  -10.091; 3166.443
885.544; 1189.740;   -8.461; 3189.802
886.105; 1114.894;  -12.361; 3160.360
886.666; 1073.789;  -14.141; 3093.059
887.227; 1024.772;  -11.361; 2941.957
887.788;  944.880;  -11.401; 2974.836
888.349;  872.317;  -13.791; 2721.214
888.910;  878.700;  -13.191; 2696.493
889.471;  892.567;   -9.881; 2560.172
890.032;  867.478;   -9.881; 2558.190
890.593;  831.674;  -10.371; 2567.669
891.153;  808.263;  -13.301; 2460.307
891.714;  767.543;  -11.431; 2372.046
892.275;  734.237;  -11.291; 2309.505
892.835;  696.247;  -11.471; 2382.543
893.396;  641.955;  -11.541; 2295.502
893.956;  587.137;  -11.181; 2162.420
894.517;  546.614;  -11.741; 2125.439
895.077;  540.079;  -11.671; 2086.978
895.638;  545.466;  -11.311; 2126.316
896.198;  519.094;   -9.831; 1838.275
896.758;  470.600;   -8.421; 1892.813
897.319;  434.941;  -12.351; 1792.232
897.879;  421.760;  -13.511; 1762.751
898.439;  397.986;  -12.001; 1661.149
898.999;  368.258;  -10.180; 1781.468
899.559;  355.794;  -12.030; 1703.347
900.119;  352.383;  -15.710; 1537.525
900.679;  350.623;   -8.900; 1638.384
901.239;  337.180;   -8.340; 1527.902
901.799;  327.344;  -13.910; 1456.441
902.359;  317.919;  -13.460; 1357.140
902.919;  308.035;  -11.490; 1331.118
903.479;  291.913;  -12.110; 1317.257
904.038;  269.019;  -11.720; 1262.595
904.598;  252.282;  -13.610; 1152.034
905.158;  248.678;  -11.040; 1240.893
905.717;  238.734;  -10.900; 1233.691
906.277;  227.445;  -15.080; 1217.330
906.836;  218.279;  -13.380; 1222.408
907.396;  210.207;  -10.780; 1193.047
907.955;  202.711;   -8.500; 1182.526
908.515;  196.778;  -12.760; 1099.364
909.074;  189.934;  -11.900; 1092.863
909.633;  184.621;   -8.950; 1069.121
910.192;  180.911;   -8.770; 1196.460
910.752;  175.896;  -12.390; 1029.960
911.311;  171.399;  -13.680; 1009.780
911.870;  169.585;  -12.370;  971.460
912.429;  168.558;  -10.900; 1094.080
912.988;  165.558;  -11.690; 1081.060
913.547;  161.768;  -13.240;  940.380
914.106;  157.332;  -11.990;  999.420
914.665;  153.885;   -9.990;  984.020
915.224;  151.238;  -12.880; 1035.760
915.782;  152.253;  -12.350;  922.560
916.341;  151.789;   -9.110; 1049.840
916.900;  148.024;   -9.270;  925.260
917.458;  145.782;  -13.240;  884.220
918.017;  145.851;  -13.550;  942.600
918.576;  145.941;  -12.320;  904.440
919.134;  142.570;  -11.490;  837.980
919.693;  141.014;  -13.670;  893.060
920.251;  138.781;  -15.470;  876.500
920.809;  137.001;  -11.290;  839.580
921.368;  137.644;  -10.210;  885.360
921.926;  136.693;  -12.140;  842.940
922.484;  134.318;  -13.080;  903.360
923.042;  134.975;  -11.720;  880.340
923.601;  137.916;   -7.480;  998.680
924.159;  135.541;  -11.570;  935.560
924.717;  131.805;  -13.840;  841.080
925.275;  132.432;  -10.640;  903.240
925.833;  132.570;  -11.540;  779.320
926.391;  132.683;  -12.960;  938.380
926.949;  130.900;  -14.130;  857.680
927.506;  130.939;  -11.750;  903.500
928.064;  131.032;  -10.250;  877.580
928.622;  130.005;  -13.030;  880.100
929.180;  129.837;  -13.400;  814.180
929.737;  132.136;  -10.700;  808.540
930.295;  135.119;  -10.070;  928.480
930.853;  137.058;  -11.960;  849.100
931.410;  137.967;  -13.120;  821.120
931.968;  137.496;  -10.770;  940.660
932.525;  136.735;  -10.680;  909.380
933.082;  136.538;  -13.130;  811.440
933.640;  137.269;  -13.210;  925.900
934.197;  136.103;  -11.060;  886.360
934.754;  137.672;   -9.580;  897.780
935.312;  140.108;  -14.000;  863.340
935.869;  144.460;  -10.710; 1012.980
936.426;  144.936;   -9.860;  872.800
936.983;  145.857;   -9.710;  889.020
937.540;  144.507;  -13.990;  838.280
938.097;  143.666;  -14.040;  940.120
938.654;  144.901;  -10.310;  898.860
939.211;  146.333;  -10.560;  952.480
939.768;  150.082;  -13.900;  915.420
940.324;  153.940;  -14.760;  904.200
940.881;  155.382;  -10.370;  878.500
941.438;  156.251;   -8.260; 1021.200
941.995;  152.571;  -12.540;  992.560
942.551;  148.307;  -14.670;  875.620
943.108;  148.666;  -10.450;  937.920
943.664;  151.230;  -10.750;  869.340
944.221;  155.102;  -11.550; 1088.140
944.777;  153.538;  -14.770;  869.680
945.334;  156.318;  -12.820;  884.840
945.890;  158.648;  -10.130;  946.480
946.446;  158.395;  -13.470;  947.020
947.003;  160.015;  -12.120;  964.940
947.559;  162.500;   -9.980; 1063.040
948.115;  160.606;   -9.080; 1026.540
948.671;  157.173;  -10.830;  967.300
949.227;  154.558;  -12.440;  859.560
949.783;  152.222;  -12.910;  858.900
950.339;  153.791;  -10.270;  991.000
950.895;  154.495;  -13.630; 1023.840
951.451;  153.823;  -15.100;  925.280
952.007;  156.207;  -11.330;  998.540
952.563;  157.630;  -10.580;  937.780
953.118;  156.434;  -13.440;  904.940
953.674;  155.716;  -12.710;  935.780
954.230;  155.616;  -10.350;  949.640
954.785;  154.342;   -9.190;  936.640
955.341;  152.972;  -11.200;  998.160
955.897;  151.134;  -16.560;  834.660
956.452;  152.298;  -12.570;  953.840
957.008;  149.815;   -7.970; 1083.640
957.563;  147.709;  -11.940; 1009.540
958.118;  143.423;  -13.450;  877.700
958.674;  144.622;  -12.030;  946.780
959.229;  145.880;   -9.410; 1013.980
959.784;  142.757;  -12.000;  832.400
960.339;  141.116;  -14.780; 1001.280
960.894;  136.955;   -9.860;  963.760
961.449;  132.355;   -9.970;  859.960
962.004;  133.715;  -10.900; 1212.840
962.559;  129.557;  -13.150;  860.140
963.114;  127.058;  -13.740;  742.480
963.669;  126.014;   -9.820;  915.500
964.224;  123.855;  -13.890;  874.340
964.779;  123.826;  -12.600;  828.420
965.334;  126.504;  -10.950; 1017.860
965.888;  127.684;  -11.170;  875.360
966.443;  131.043;  -12.540;  972.380
966.998;  127.733;  -15.780;  819.460
967.552;  119.537;   -9.760;  908.380
968.107;  107.163;   -9.060;  868.300
968.661;   98.053;  -11.950;  922.440
969.216;   91.590;  -12.800;  856.280
969.770;   89.100;  -11.210;  917.200
970.324;   89.662;  -11.610;  923.140
970.879;   91.296;  -11.370;  947.180
971.433;   93.196;  -12.540;  952.720
971.987;   92.385;  -11.320;  895.340
972.541;   91.143;  -10.720;  917.100
973.095;   92.368;   -9.680; 1009.460
973.649;   91.959;  -11.440;  809.480
974.203;   92.242;  -11.210;  829.040
974.757;   93.135;  -10.240;  855.220
975.311;   94.938;  -13.720;  872.600
975.865;   93.430;  -13.770;  881.820
976.419;   93.415;  -11.690;  857.400
976.973;   93.053;   -9.510;  849.620
977.526;   94.923;  -12.620;  949.920
978.080;   94.450;  -12.010;  796.780
978.634;   97.398;  -10.170;  921.320
979.187;   94.882;   -9.020;  905.400
979.741;   93.044;   -9.820; 1018.380
980.294;   88.557;  -14.870;  789.160
980.848;   87.045;  -12.380;  717.220
981.401;   88.562;  -10.350;  816.540
981.955;   89.618;  -13.720;  844.300
982.508;   89.314;  -11.490;  746.340
983.061;   90.749;  -10.000;  915.260
983.615;   87.841;  -11.480;  798.800
984.168;   84.932;  -13.220;  770.080
984.721;   84.036;  -13.960;  880.760
985.274;   83.299;  -10.870;  867.500
985.827;   81.643;   -9.790;  834.220
986.380;   79.986;  -13.120;  721.340
986.933;   79.606;  -12.450;  864.800
987.486;   77.518;  -10.210;  861.920
988.039;   76.833;   -8.430;  863.100
988.591;   74.287;  -10.520;  893.260
989.144;   72.508;  -14.860;  737.260
989.697;   71.560;  -13.080;  758.740
990.250;   72.248;  -10.150;  858.100
990.802;   70.534;  -13.430;  755.860
991.355;   72.196;  -12.750;  974.880
991.907;   69.771;  -12.040;  864.320
992.460;   67.346;  -11.330;  753.760
993.012;   66.798;  -13.610;  749.540
993.565;   65.857;  -13.460;  711.360
994.117;   67.726;   -9.360;  950.780
994.669;   64.056;  -11.300;  701.320
995.221;   62.040;  -13.540;  791.920
995.774;   60.894;  -13.430;  787.580
996.326;   59.667;  -12.520;  740.220
996.878;   58.570;  -10.950;  838.420
997.430;   56.165;  -14.300;  699.860
997.982;   55.740;  -13.760;  750.140
998.534;   55.943;  -11.530;  739.060
999.086;   54.292;  -10.310;  738.220
999.638;   52.518;  -12.530;  661.380
1000.190;   52.206;  -11.840;  699.320
1000.741;   52.048;  -10.260;  742.700
1001.293;   52.283;   -8.860;  686.020
1001.845;   50.158;  -13.700;  676.640
1002.396;   50.154;  -12.100;  743.400
1002.948;   48.721;  -12.760;  737.400
1003.500;   46.813;  -10.380;  723.780
1004.051;   46.780;  -11.900;  907.580
1004.603;   44.547;  -12.250;  791.820
1005.154;   41.761;  -13.210;  608.980
1005.705;   40.633;  -10.950;  723.960
1006.257;   40.635;  -13.880;  707.220
1006.808;   40.081;  -12.840;  685.460
1007.359;   40.326;  -10.570;  763.240
1007.910;   39.089;   -9.620;  646.640
1008.461;   38.772;  -13.630;  732.940
1009.013;   37.901;  -17.200;  588.340
1009.564;   39.526;  -10.200;  793.520
1010.115;   36.764;  -12.570;  597.040
1010.665;   36.112;  -15.150;  602.160
1011.216;   36.156;  -14.480;  667.920
1011.767;   36.277;  -11.340;  697.920
1012.318;   36.192;   -9.780;  736.980
1012.869;   34.939;  -12.380;  679.000
1013.419;   34.682;  -15.560;  603.120
1013.970;   34.619;  -11.010;  666.640
1014.521;   33.857;  -11.610;  620.620
1015.071;   34.303;  -13.450;  670.380
1015.622;   34.310;  -13.870;  635.460
1016.172;   33.867;  -11.610;  596.820
1016.723;   33.423;  -12.120;  614.380
1017.273;   33.103;  -13.620;  604.160
1017.823;   33.448;  -14.140;  650.340
1018.374;   32.487;  -12.800;  611.760
1018.924;   32.057;  -12.340;  716.880
1019.474;   32.426;  -11.410;  718.880
1020.024;   31.063;  -14.770;  657.580
1020.574;   32.502;   -9.780;  726.160
1021.124;   32.138;   -8.560;  673.580
1021.674;   29.958;  -15.190;  559.120
1022.224;   31.621;  -13.530;  708.940
1022.774;   31.578;  -13.280;  668.820
1023.324;   31.669;  -10.690;  753.520
1023.874;   32.128;  -10.240;  875.760
1024.423;   30.183;  -12.540;  613.700
1024.973;   30.264;  -10.010;  610.760
1025.523;   28.744;  -10.550;  620.960
1026.072;   29.002;  -13.560;  606.420
1026.622;   29.343;  -15.120;  675.740
1027.172;   30.384;  -11.260;  715.660
1027.721;   28.798;  -11.410;  601.220
1028.270;   29.233;  -13.530;  663.400
1028.820;   29.379;  -13.680;  638.080
1029.369;   28.886;  -13.520;  612.700
1029.918;   28.774;  -10.980;  649.840
1030.468;   27.799;  -13.530;  564.780
1031.017;   28.397;  -13.170;  634.800
1031.566;   27.111;  -12.200;  608.900
1032.115;   27.801;   -9.960;  694.500
1032.664;   26.984;  -13.210;  596.480
1033.213;   27.367;  -12.500;  735.420
1033.762;   27.414;  -11.910;  635.620
1034.311;   26.316;   -9.640;  677.220
1034.860;   27.263;  -13.310;  691.000
1035.408;   26.476;  -11.830;  722.720
1035.957;   27.044;  -12.000;  719.540
1036.506;   25.078;  -11.690;  530.800
1037.055;   27.334;  -10.990;  844.320
1037.603;   25.699;  -15.120;  664.000
1038.152;   24.314;  -12.450;  534.760
1038.700;   24.894;  -10.560;  585.740
1039.249;   24.725;  -11.080;  681.220
1039.797;   25.009;  -12.540;  633.360
1040.345;   24.859;  -11.920;  705.420
1040.894;   24.652;  -11.410;  625.300
1041.442;   24.191;  -14.320;  632.200
1041.990;   23.532;  -16.240;  559.160
1042.538;   23.809;  -11.680;  536.180
1043.087;   22.996;  -10.760;  570.860
1043.635;   24.154;  -11.850;  670.500
1044.183;   23.201;  -15.480;  586.400
1044.731;   22.876;  -11.770;  576.000
1045.279;   22.995;  -13.090;  674.920
1045.827;   24.578;  -12.440;  892.400
1046.374;   22.369;  -13.840;  515.420
1046.922;   22.129;  -13.220;  590.580
1047.470;   22.473;  -10.230;  691.300
1048.018;   22.233;  -14.590;  647.960
1048.565;   23.652;  -12.050;  708.600
1049.113;   21.547;  -11.650;  557.000
1049.660;   21.746;  -10.510;  629.660
1050.208;   21.921;  -13.310;  675.640
1050.755;   21.079;  -15.900;  606.580
1051.303;   21.869;  -11.430;  686.820
1051.850;   20.406;   -8.480;  635.120
1052.397;   18.980;  -15.010;  473.960
1052.945;   20.472;  -13.960;  617.760
1053.492;   22.027;  -13.150;  741.840
1054.039;   21.070;   -9.630;  720.180
1054.586;   20.440;  -13.680;  557.240
1055.133;   21.098;  -14.570;  693.140
1055.680;   20.743;  -13.820;  646.620
1056.227;   19.431;  -11.730;  542.780
1056.774;   20.673;  -12.480;  794.980
1057.321;   18.756;  -13.930;  523.260
1057.868;   20.088;  -11.690;  651.320
1058.415;   19.420;   -9.520;  651.980
1058.961;   19.547;  -13.160;  678.940
1059.508;   19.694;  -12.920;  643.820
1060.055;   18.897;  -11.920;  581.780
1060.601;   19.544;  -11.500;  624.300
1061.148;   19.175;  -14.330;  616.820
1061.694;   18.590;  -16.870;  592.580
1062.241;   18.786;  -10.330;  596.320
1062.787;   18.629;  -10.620;  663.140
1063.334;   19.772;  -10.110;  808.560
1063.880;   19.160;  -13.400;  668.360
1064.426;   18.576;  -10.680;  706.820
1064.972;   17.374;   -9.920;  601.340
1065.518;   16.570;  -10.980;  566.640
1066.065;   17.807;  -14.890;  624.460
1066.611;   17.155;  -12.870;  598.800
1067.157;   16.900;  -12.950;  641.860
1067.703;   17.424;  -13.540;  668.480
1068.249;   17.660;  -13.540;  605.220
1068.794;   17.114;  -12.600;  626.880
1069.340;   16.246;  -10.620;  578.960
1069.886;   16.416;  -12.830;  590.700
1070.432;   15.958;  -14.870;  541.720
1070.977;   16.044;  -11.980;  601.080
1071.523;   15.685;   -8.200;  573.060
1072.068;   16.256;  -12.330;  582.000
1072.614;   15.942;  -16.370;  527.760
1073.160;   16.574;  -11.100;  687.040
1073.705;   15.112;  -10.480;  572.520
1074.250;   15.035;  -14.520;  559.900
1074.796;   16.263;  -11.460;  655.160
1075.341;   15.799;  -11.950;  664.100
1075.886;   15.155;  -11.460;  594.240
1076.431;   14.702;  -13.770;  649.880
1076.976;   14.991;  -12.680;  639.220
1077.521;   14.781;  -13.170;  583.080
1078.067;   13.572;  -10.860;  579.400
1078.612;   14.716;  -13.920;  661.620
1079.156;   14.785;  -13.880;  601.540
1079.701;   15.006;  -13.120;  693.260
1080.246;   14.700;   -9.940;  696.300
1080.791;   14.299;  -14.740;  625.020
1081.336;   13.903;  -13.750;  659.320
1081.880;   14.757;  -13.400;  649.680
1082.425;   13.153;  -12.220;  573.480
1082.970;   15.109;  -11.610;  717.040
1083.514;   13.752;  -13.580;  597.000
1084.059;   12.913;  -12.810;  586.720
1084.603;   12.563;  -12.320;  565.840
1085.147;   12.972;  -13.190;  645.220
1085.692;   14.011;  -12.480;  716.800
1086.236;   12.316;  -13.020;  503.140
1086.780;   13.868;   -9.190;  751.440
1087.325;   13.042;  -12.480;  654.620
1087.869;   12.493;  -12.450;  610.700
1088.413;   13.952;  -12.240;  705.040
1088.957;   11.161;   -9.020;  543.400
1089.501;   13.193;  -10.320;  766.640
1090.045;   12.469;  -12.720;  726.480
1090.589;   11.232;  -13.690;  569.920
1091.133;   11.181;  -10.020;  673.340
1091.676;   12.135;  -12.330;  591.940
1092.220;   11.659;  -14.970;  600.920
1092.764;   12.577;  -12.430;  706.960
1093.307;   12.184;   -9.800;  673.780
1093.851;   10.512;  -14.970;  556.540
1094.395;   11.713;  -15.310;  683.140
1094.938;   11.679;  -10.370;  632.520
1095.482;   10.428;  -11.050;  559.800
1096.025;   11.329;  -11.840;  710.880
1096.568;   12.053;  -12.840;  779.280
1097.112;    9.573;  -14.700;  508.180
1097.655;   10.617;   -8.720;  603.000
1098.198;    9.126;  -13.610;  600.180
1098.741;   10.025;  -13.350;  612.860
1099.285;   11.116;  -11.230;  657.300
1099.828;    8.312;  -11.840;  439.400
1100.371;    9.985;  -10.840;  608.160
1100.914;    9.596;  -14.190;  682.660
1101.457;   10.165;  -11.240;  679.900
1101.999;    8.420;  -11.270;  584.680
1102.542;    9.092;  -11.480;  641.440
1103.085;    9.235;  -11.750;  658.500
1103.628;   10.627;  -11.400;  762.060
1104.170;    8.474;  -10.490;  588.280
1104.713;    9.397;  -10.600;  646.700
1105.256;    8.556;  -14.360;  557.440
1105.798;    8.400;  -13.210;  499.980
1106.341;    9.687;  -10.270;  728.900
1106.883;    8.256;  -12.200;  521.340
1107.425;    8.543;  -13.110;  668.180
1107.968;    8.417;  -12.840;  612.380
1108.510;    9.061;   -6.480;  684.960
1109.052;    7.650;  -13.940;  612.620
1109.594;    7.679;  -13.690;  554.440
1110.136;    8.772;  -11.880;  643.220
1110.679;    7.349;   -9.500;  633.080
1111.221;    7.500;  -14.160;  604.460
1111.763;    7.381;  -13.980;  559.220
1112.304;    7.567;  -13.880;  547.140
1112.846;    7.899;  -12.210;  666.240
1113.388;   10.058;  -11.390;  942.180
1113.930;    7.574;  -14.540;  694.200
1114.472;    6.843;  -12.640;  606.540
1115.013;    6.139;  -11.620;  551.280
1115.555;    5.730;  -13.640;  587.100
1116.097;    5.451;  -15.380;  579.480
1116.638;    6.915;  -12.640;  684.600
1117.180;    6.940;   -9.850;  667.740
1117.721;    6.305;  -13.690;  568.580
1118.262;    6.685;  -12.680;  677.960
1118.804;    6.825;  -12.530;  637.340
1119.345;    5.414;  -11.690;  578.400
1119.886;    6.467;  -13.380;  704.040
1120.427;    6.148;  -14.070;  589.020
1120.969;    5.108;  -13.500;  597.920
1121.510;    5.069;  -11.480;  563.060
1122.051;    5.864;  -12.830;  723.580
1122.592;    5.090;  -14.290;  655.420
1123.133;    4.456;  -12.400;  547.940
1123.673;    7.030;  -10.130;  706.480
1124.214;    4.787;  -12.930;  612.460
1124.755;    6.090;  -14.380;  639.460
1125.296;    5.580;  -14.000;  627.320
1125.836;    6.516;  -10.070;  691.500
1126.377;    4.707;  -12.640;  599.660
1126.918;    5.632;  -12.960;  614.980
1127.458;    4.805;  -13.350;  622.220
1127.999;    4.697;  -10.750;  656.980
1128.539;    5.515;  -12.350;  694.240
1129.079;    3.995;  -14.860;  632.720
1129.620;    3.685;  -13.840;  558.100
1130.160;    3.711;  -12.330;  539.480
1130.700;    5.130;  -14.530;  640.840
1131.240;    4.788;  -12.530;  643.700
1131.781;    3.813;  -14.450;  619.680
1132.321;    4.410;   -9.790;  599.120
1132.861;    2.787;  -14.860;  564.200
1133.401;    3.267;  -14.290;  593.940
1133.941;    3.945;  -11.750;  626.280
1134.481;    2.915;   -9.920;  597.580
1135.020;    3.262;  -12.290;  609.160
1135.560;    4.239;  -11.650;  674.940
1136.100;    3.534;  -16.270;  501.160
1136.640;    2.879;  -10.890;  510.480
1137.179;    3.051;  -14.180;  537.960
1137.719;    3.108;  -16.250;  605.400
1138.258;    3.268;  -14.230;  587.360
1138.798;    3.207;   -9.090;  663.780
1139.337;    1.574;  -15.130;  482.840
1139.877;    2.811;  -13.680;  642.360
1140.416;    5.532;  -11.320;  878.060
1140.955;    1.761;  -10.860;  535.380
1141.494;    2.189;  -12.920;  669.280
1142.034;    1.667;  -13.930;  583.520
1142.573;    3.320;  -11.440;  646.280
1143.112;    1.802;  -12.000;  553.480
1143.651;    2.347;  -13.670;  536.480
1144.190;    3.103;  -12.730;  691.640
1144.729;    2.730;  -14.560;  607.420
1145.267;    1.551;  -11.830;  584.900
1145.806;    3.118;  -12.230;  637.040
1146.345;    1.517;  -14.130;  635.020
1146.884;    1.828;  -11.590;  622.500
1147.422;    0.977;  -12.550;  533.060
1147.961;    2.676;  -11.180;  708.460
1148.500;    2.930;  -11.510;  669.720
1149.038;    2.477;  -11.640;  632.500
1149.577;    1.921;  -10.130;  698.640
1150.115;   -0.168;  -13.970;  452.280
1150.653;    1.603;  -14.520;  607.340
1151.192;    1.337;  -12.810;  552.920
1151.730;    1.528;   -9.100;  652.560
1152.268;    0.884;  -12.220;  589.520
1152.806;    0.324;  -14.140;  571.180
1153.344;   -0.399;  -12.350;  577.640
1153.882;    1.150;   -8.980;  600.060
1154.421;   -0.786;  -15.190;  470.620
1154.958;    0.442;  -15.210;  595.240
1155.496;    1.801;  -12.850;  645.280
1156.034;    0.538;   -9.940;  721.880
1156.572;    1.533;  -13.570;  667.060
1157.110;   -0.435;  -14.590;  473.940
1157.647;    1.568;  -13.030;  676.960
1158.185;   -0.116;  -12.140;  564.320
1158.723;   -1.142;  -14.390;  509.200
1159.260;    0.552;  -14.090;  701.700
1159.798;    0.312;  -11.920;  658.160
1160.335;   -0.275;  -11.110;  631.820

