
Integration time [ms]:   3.276
Averaging Nr. [scans]: 1000
Smoothing Nr. [pixels]: 0
Data measured with spectrometer [name]: 7414430SP
Wave   ;Sample   ;Dark     ;Reference
[nm]   ;[counts] ;[counts] ;[counts] 

288.544;  155.349;    7.793;  793.890
289.143;  158.304;    7.462;  681.602
289.742;  158.363;    8.602;  828.814
290.341;  145.646;    1.321;  789.841
290.940;  135.822;   -0.709;  730.702
291.538;  138.188;    0.881;  881.108
292.137;  135.799;    0.122;  792.581
292.736;  140.375;   -1.929;  975.101
293.335;  136.338;   -8.229;  735.086
293.934;  136.339;   -5.279;  781.677
294.532;  135.881;   -1.369; 1031.958
295.131;  121.939;   -7.641;  834.394
295.730;  123.024;   -8.420;  809.588
296.328;  122.287;   -5.611;  783.442
296.927;  120.334;   -5.781;  779.652
297.525;  120.507;   -6.361;  781.236
298.124;  111.922;  -11.382;  654.009
298.722;  116.562;   -7.641;  761.933
299.321;  113.934;   -6.811;  708.597
299.919;  111.955;   -6.991;  751.918
300.518;  108.561;  -10.362;  689.338
301.116;  109.722;   -9.581;  691.381
301.715;  108.251;   -4.891;  730.222
302.313;  107.846;   -8.801;  704.943
302.911;  104.378;   -8.522;  733.830
303.509;  108.753;   -6.171;  925.627
304.108;  106.249;   -7.311;  760.383
304.706;  105.801;   -8.321;  801.664
305.304;  101.162;  -10.222;  796.707
305.902;  105.958;   -6.021;  784.484
306.500;  101.348;   -4.971;  728.200
307.098;   99.293;   -7.061;  746.560
307.696;   97.365;   -8.801;  780.432
308.294;   99.450;   -6.411;  731.359
308.892;   99.206;   -2.901;  759.769
309.490;   95.101;   -5.041;  712.161
310.088;   93.513;   -5.002;  788.444
310.686;   98.048;   -2.041;  821.749
311.284;   94.313;   -2.351;  766.040
311.882;   91.214;   -4.422;  731.225
312.480;   88.313;   -4.192;  697.167
313.078;   89.979;   -1.172;  808.331
313.675;   90.502;   -2.601;  691.600
314.273;   85.114;   -1.312;  797.837
314.871;   83.885;   -3.942;  589.829
315.468;   82.750;   -2.802;  652.090
316.066;   86.086;   -0.701;  694.427
316.664;   78.031;   -4.362;  656.351
317.261;   82.565;   -2.872;  910.128
317.859;   78.415;   -2.022;  768.735
318.456;   78.399;   -0.531;  830.096
319.054;   74.611;   -3.912;  787.828
319.651;   72.967;   -4.752;  759.928
320.249;   72.722;   -2.602;  810.188
320.846;   70.666;   -0.821;  714.286
321.443;   67.385;   -4.642;  832.135
322.041;   63.576;   -5.002;  812.315
322.638;   62.396;   -3.982;  701.456
323.235;   62.715;   -3.411;  665.683
323.833;   60.461;   -7.361;  740.354
324.430;   55.007;   -8.611;  615.900
325.027;   56.281;   -4.061;  876.855
325.624;   55.981;   -4.031;  644.532
326.221;   52.857;   -7.481;  689.717
326.818;   52.430;   -5.281;  818.332
327.415;   55.681;   -7.460;  748.828
328.012;   54.921;   -5.510;  690.585
328.609;   53.394;   -7.880;  731.389
329.206;   51.559;   -8.331;  778.621
329.803;   52.040;   -5.121;  737.841
330.400;   54.007;   -4.510;  704.260
330.997;   56.569;   -6.441;  817.147
331.594;   54.981;   -8.831;  788.185
332.191;   59.787;   -7.621;  728.722
332.787;   62.794;   -4.591;  844.463
333.384;   61.642;   -7.412;  763.093
333.981;   60.475;   -8.293;  815.687
334.578;   63.282;   -7.052;  708.378
335.174;   65.713;   -3.102;  731.469
335.771;   64.798;   -5.943;  836.456
336.367;   62.214;   -7.393;  710.631
336.964;   65.701;   -4.063;  793.266
337.561;   63.537;   -3.813;  731.112
338.157;   59.299;   -4.654;  911.916
338.754;   58.333;   -7.934;  796.589
339.350;   56.595;   -4.414;  722.493
339.946;   58.090;   -4.664;  773.135
340.543;   50.384;   -6.375;  846.136
341.139;   44.701;   -9.815;  720.836
341.735;   42.064;   -4.526;  772.593
342.332;   40.585;   -4.895;  691.472
342.928;   41.463;   -4.295;  795.394
343.524;   35.244;   -5.476;  761.684
344.120;   31.031;   -5.856;  738.562
344.716;   34.022;   -2.155;  723.717
345.313;   32.232;   -6.275;  795.342
345.909;   26.335;   -8.815;  627.336
346.505;   28.815;   -5.305;  740.247
347.101;   28.122;   -2.674;  827.864
347.697;   28.586;   -4.344;  785.398
348.293;   23.546;   -9.975;  627.244
348.889;   24.811;   -5.774;  745.914
349.485;   23.672;   -5.004;  688.205
350.081;   24.277;   -4.704;  772.592
350.676;   19.339;   -6.635;  691.606
351.272;   23.872;   -4.504;  809.530
351.868;   23.114;   -3.914;  780.497
352.464;   20.788;   -9.044;  723.932
353.059;   17.479;   -8.314;  646.017
353.655;   20.507;   -7.024;  777.063
354.251;   21.603;   -5.343;  759.845
354.846;   15.734;   -8.604;  740.646
355.442;   13.551;   -6.945;  753.071
356.038;   15.787;   -7.564;  751.708
356.633;   15.478;   -5.814;  728.594
357.229;   13.838;   -7.364;  724.757
357.824;   11.526;   -8.024;  703.600
358.420;   11.527;   -9.384;  679.726
359.015;   11.144;   -5.104;  695.357
359.610;   13.014;   -6.854;  763.920
360.206;    6.115;  -10.185;  603.240
360.801;    9.750;   -7.054;  646.503
361.396;   11.056;   -5.034;  725.975
361.992;    6.806;   -8.284;  668.220
362.587;    4.388;   -8.625;  670.160
363.182;    5.978;   -7.674;  689.631
363.777;    6.911;   -5.164;  738.242
364.372;    6.254;   -8.604;  737.314
364.967;    2.713;   -9.055;  680.744
365.563;    7.814;   -6.114;  815.567
366.158;    3.759;   -5.814;  685.161
366.753;    3.982;   -7.854;  649.263
367.348;    2.531;   -7.804;  746.056
367.942;    2.378;   -7.954;  697.298
368.537;    1.816;   -4.984;  754.245
369.132;    1.471;   -8.564;  703.428
369.727;   -2.497;   -8.855;  638.079
370.322;   -0.386;   -6.245;  580.186
370.917;   -1.496;   -6.425;  710.646
371.511;    1.523;   -6.294;  861.834
372.106;   -2.263;   -7.685;  776.964
372.701;   -4.697;   -7.335;  585.988
373.296;    0.368;   -4.564;  863.135
373.890;   -4.542;  -10.235;  647.840
374.485;   -6.453;   -7.885;  691.199
375.079;   -1.672;   -7.324;  738.685
375.674;   -1.215;   -3.494;  812.970
376.268;   -5.545;   -8.525;  691.759
376.863;  -11.008;  -10.086;  580.327
377.457;   -5.166;   -7.025;  662.490
378.052;   -6.937;   -3.585;  764.884
378.646;   -7.340;   -7.595;  741.167
379.240;   -8.956;   -8.335;  721.176
379.835;   -6.462;   -5.785;  636.978
380.429;   -9.483;   -4.335;  562.557
381.023;   -9.591;   -6.805;  779.205
381.617;  -11.084;   -9.195;  680.106
382.212;   -8.103;   -6.905;  685.303
382.806;   -7.590;   -3.745;  760.690
383.400;  -11.227;   -7.745;  672.281
383.994;  -13.545;   -9.765;  664.870
384.588;   -8.800;   -6.564;  697.701
385.182;   -7.564;   -5.344;  726.624
385.776;   -9.719;   -8.514;  706.875
386.370;  -12.330;   -9.555;  681.968
386.964;  -10.524;   -8.715;  684.155
387.558;   -9.101;   -6.174;  598.360
388.152;  -12.946;   -8.725;  681.959
388.745;  -11.291;   -7.965;  814.707
389.339;   -9.655;   -5.924;  747.642
389.933;   -9.441;   -5.524;  695.370
390.527;   -9.934;   -7.114;  859.029
391.120;  -16.186;  -10.725;  595.318
391.714;  -12.806;   -8.035;  711.633
392.308;   -9.889;   -3.574;  780.253
392.901;  -13.575;   -7.245;  642.460
393.495;  -15.456;   -9.285;  595.414
394.089;  -12.753;   -5.895;  760.452
394.682;  -13.794;   -4.295;  697.188
395.275;  -14.359;   -9.875;  719.927
395.869;  -15.491;   -8.485;  667.314
396.462;  -13.599;   -7.455;  616.609
397.056;  -10.402;   -5.424;  776.621
397.649;  -14.907;   -6.605;  731.575
398.242;  -12.603;   -8.224;  712.645
398.836;  -11.887;   -7.474;  766.408
399.429;  -12.994;   -7.094;  631.041
400.022;  -16.756;   -9.475;  665.902
400.615;  -13.632;   -7.145;  805.609
401.208;  -11.531;   -7.174;  691.451
401.802;  -14.251;   -5.515;  699.329
402.395;  -14.700;   -9.875;  683.502
402.988;  -16.921;   -8.845;  696.627
403.581;  -12.730;   -8.874;  646.878
404.174;  -11.020;   -5.324;  686.568
404.767;  -14.479;   -9.575;  638.583
405.360;  -16.291;  -10.965;  621.445
405.953;  -10.730;   -8.764;  759.034
406.545;  -10.483;   -7.514;  725.342
407.138;  -14.294;  -10.025;  618.350
407.731;  -13.683;  -10.034;  613.303
408.324;   -9.266;   -9.374;  660.554
408.917;  -10.105;   -6.534;  681.864
409.509;  -13.006;   -8.004;  740.396
410.102;  -14.016;   -9.875;  643.948
410.695;   -8.645;   -8.604;  665.758
411.287;   -9.614;   -6.794;  599.821
411.880;  -10.704;   -9.334;  585.421
412.472;  -13.684;  -10.254;  613.092
413.065;  -10.352;   -6.714;  629.408
413.657;   -8.630;   -7.234;  576.678
414.250;   -9.099;  -10.544;  646.681
414.842;  -10.140;   -9.744;  676.353
415.434;   -8.337;   -6.994;  570.463
416.027;   -4.092;   -5.893;  652.196
416.619;   -6.687;   -7.264;  713.400
417.211;   -7.384;  -10.374;  599.352
417.804;   -2.754;   -7.993;  628.499
418.396;   -7.119;   -7.234;  607.643
418.988;   -4.498;   -9.443;  659.238
419.580;   -8.330;  -10.724;  568.276
420.172;   -6.108;  -10.323;  536.196
420.764;   -1.768;   -8.793;  672.482
421.356;   -3.579;  -11.143;  636.898
421.948;   -3.837;   -8.293;  677.661
422.540;    0.774;   -7.893;  680.027
423.132;    0.577;   -7.082;  600.641
423.724;   -3.246;   -8.653;  561.267
424.316;   -1.319;  -10.213;  621.345
424.908;    2.540;   -9.762;  591.517
425.500;    2.690;   -5.572;  647.978
426.092;    3.274;   -8.422;  648.268
426.683;    2.492;   -9.283;  684.836
427.275;    5.743;   -7.852;  641.471
427.867;    7.494;   -5.272;  668.948
428.458;    7.058;   -7.682;  732.344
429.050;    5.524;  -10.612;  680.749
429.642;    8.297;   -9.882;  743.124
430.233;    7.798;   -6.962;  569.356
430.825;    9.595;   -6.842;  724.809
431.416;    6.625;   -9.672;  698.241
432.008;   10.697;   -6.552;  651.723
432.599;   11.115;   -6.891;  656.073
433.190;    8.641;  -10.912;  637.670
433.782;    7.162;  -11.172;  590.395
434.373;   14.932;   -6.061;  884.765
434.964;   12.687;   -8.251;  602.920
435.556;   11.335;   -9.722;  634.537
436.147;   13.302;   -9.082;  758.490
436.738;   13.396;   -8.041;  701.099
437.329;   18.853;   -7.341;  721.723
437.920;   11.978;   -8.162;  666.688
438.511;   11.179;  -11.802;  564.526
439.103;   19.033;  -10.191;  623.998
439.694;   20.228;   -7.601;  681.583
440.285;   21.546;   -8.541;  764.432
440.876;   19.392;   -9.751;  845.738
441.466;   18.863;   -9.401;  575.162
442.057;   24.006;   -7.760;  665.814
442.648;   22.105;   -9.971;  746.255
443.239;   20.215;  -11.001;  620.477
443.830;   26.220;   -7.990;  704.958
444.421;   27.628;   -7.910;  655.474
445.011;   23.083;   -8.131;  693.619
445.602;   23.180;   -7.111;  743.126
446.193;   25.855;  -10.920;  488.117
446.783;   29.731;   -6.500;  640.397
447.374;   24.880;   -8.671;  692.759
447.964;   26.180;  -10.781;  713.770
448.555;   34.471;   -9.650;  822.742
449.145;   31.050;   -8.660;  662.853
449.736;   31.544;   -8.990;  803.179
450.326;   31.117;   -9.500;  713.626
450.917;   36.248;   -8.680;  675.324
451.507;   35.635;   -7.520;  600.661
452.097;   35.524;   -8.590;  746.267
452.688;   36.564;  -11.340;  742.160
453.278;   36.291;  -10.100;  566.840
453.868;   41.499;   -6.019;  793.550
454.458;   38.560;   -9.440;  651.141
455.048;   39.721;  -10.560;  711.783
455.639;   41.451;  -11.799;  567.096
456.229;   44.376;   -6.899;  710.694
456.819;   46.389;   -7.389;  751.158
457.409;   46.418;  -11.119;  773.993
457.999;   49.624;   -9.289;  737.505
458.589;   48.279;   -6.139;  686.606
459.179;   48.778;   -8.729;  717.658
459.769;   46.794;   -9.789;  627.099
460.358;   52.111;  -10.259;  797.262
460.948;   51.977;   -7.299;  689.503
461.538;   52.891;  -10.289;  660.677
462.128;   51.291;  -11.269;  664.934
462.717;   57.780;   -9.368;  710.326
463.307;   61.319;   -7.908;  705.846
463.897;   56.284;   -9.599;  656.942
464.486;   56.020;   -9.769;  837.128
465.076;   60.460;   -8.048;  733.776
465.666;   63.878;   -9.358;  652.900
466.255;   61.096;   -7.919;  785.651
466.845;   60.163;  -11.689;  666.749
467.434;   64.372;   -7.818;  725.873
468.023;   64.794;   -7.678;  658.357
468.613;   62.655;  -10.939;  713.946
469.202;   66.847;  -10.118;  646.507
469.791;   71.091;   -9.108;  737.811
470.381;   73.185;   -6.058;  742.813
470.970;   72.234;  -10.428;  711.099
471.559;   72.532;  -10.268;  733.291
472.148;   75.177;   -8.448;  675.737
472.738;   78.121;   -6.917;  765.466
473.327;   77.211;  -11.978;  637.529
473.916;   76.725;  -11.888;  737.446
474.505;   81.033;   -9.437;  751.703
475.094;   84.126;   -6.747;  806.570
475.683;   83.815;   -9.367;  797.699
476.272;   84.552;  -12.637;  730.632
476.861;   86.836;  -10.027;  706.754
477.449;   93.926;   -8.716;  728.487
478.038;   87.406;   -9.577;  692.513
478.627;   89.680;   -9.718;  714.852
479.216;   96.755;   -8.947;  769.441
479.805;   99.540;   -6.256;  783.375
480.393;   98.953;   -7.937; 1008.945
480.982;   97.842;   -7.717;  874.501
481.571;  104.616;   -9.266;  858.333
482.159;  105.324;   -7.636;  705.386
482.748;  104.146;   -9.667;  821.385
483.336;  108.461;  -10.376;  858.209
483.925;  110.904;   -7.147;  774.373
484.513;  117.675;   -7.996;  758.962
485.102;  114.294;  -10.027;  810.965
485.690;  123.104;  -10.446; 1011.050
486.278;  123.794;   -8.446;  979.329
486.867;  125.902;   -6.356;  809.662
487.455;  127.395;   -9.136;  898.229
488.043;  128.929;  -10.646;  748.361
488.631;  138.488;   -7.456; 1005.079
489.220;  142.181;   -6.636;  908.626
489.808;  142.640;  -11.036;  741.415
490.396;  151.744;  -10.246;  914.645
490.984;  159.191;   -8.556;  830.161
491.572;  173.329;   -5.886;  940.315
492.160;  181.340;   -9.486;  919.081
492.748;  193.292;  -10.976;  884.341
493.336;  219.523;   -8.776; 1019.693
493.924;  254.409;   -5.465;  958.077
494.512;  299.292;   -9.986; 1066.638
495.100;  351.323;  -10.636; 1103.280
495.687;  426.333;  -10.885; 1206.373
496.275;  522.204;   -8.126; 1150.796
496.863;  615.247;  -10.586; 1281.171
497.451;  736.531;  -11.926; 1386.805
498.038;  857.972;  -10.885; 1556.729
498.626; 1007.737;   -6.315; 1741.407
499.214; 1244.312;   -7.326; 2016.609
499.801; 1512.066;  -11.906; 2220.633
500.389; 1869.324;  -10.466; 2312.494
500.976; 2189.662;   -5.236; 2744.849
501.564; 2713.704;   -8.936; 3148.565
502.151; 3421.221;  -13.176; 3515.999
502.738; 3838.506;  -10.646; 3971.274
503.326; 4306.329;   -9.525; 4403.796
503.913; 4759.971;  -10.856; 5161.749
504.500; 5220.906;  -11.586; 5986.420
505.088; 5843.830;  -10.336; 6381.201
505.675; 6819.734;   -6.355; 6925.547
506.262; 7468.379;   -9.046; 7619.060
506.849; 7863.805;  -10.416; 8733.969
507.436; 8443.453;  -10.305; 9790.121
508.023; 8880.037;   -5.496; 9985.472
508.610; 8851.345;   -7.856;10434.618
509.197; 9830.101;  -10.097;11198.435
509.784;11239.407;  -10.886;12391.194
510.371;12654.583;   -9.315;13603.713
510.958;13822.325;   -9.936;14426.586
511.545;14357.256;   -9.326;15243.775
512.132;14558.816;  -10.075;15945.876
512.719;15050.662;   -7.796;16340.369
513.305;16263.099;  -10.606;18011.766
513.892;17866.912;  -11.486;19754.971
514.479;19130.488;   -9.126;20967.805
515.066;20401.951;   -6.026;22299.793
515.652;20510.836;   -8.466;22908.660
516.239;20958.844;  -10.886;23798.875
516.825;22361.334;  -11.496;25567.275
517.412;23829.873;   -5.796;28154.959
517.998;25006.643;  -10.506;28344.111
518.585;25808.020;  -10.076;27134.219
519.171;25142.246;   -8.315;27268.576
519.758;25789.121;   -8.596;28964.129
520.344;28407.500;   -8.466;30664.494
520.930;27304.486;  -11.006;32550.605
521.516;25402.061;  -10.495;35422.895
522.103;26942.527;   -5.526;38280.004
522.689;29033.582;   -8.746;37835.117
523.275;29924.738;  -11.376;37288.613
523.861;31510.939;  -11.156;37281.395
524.447;30333.256;   -8.135;37846.949
525.033;28267.051;   -7.896;38321.949
525.619;26738.934;  -12.476;38579.285
526.205;27909.484;   -9.516;40622.875
526.791;30748.279;   -6.926;42258.836
527.377;32709.520;   -8.346;42966.902
527.963;35158.820;   -8.717;42018.949
528.549;36999.797;  -11.016;42476.828
529.135;35591.867;   -8.536;41854.852
529.721;35445.633;   -9.666;41237.711
530.306;34139.695;  -10.066;41259.445
530.892;34942.137;  -11.356;41506.047
531.478;36995.738;   -6.596;43559.613
532.063;38632.375;   -8.836;47695.563
532.649;36573.211;  -10.047;50808.324
533.235;36602.688;   -9.746;51787.500
533.820;38774.988;   -6.566;52145.035
534.406;40247.215;  -10.817;51133.488
534.991;42063.570;   -9.416;49996.805
535.576;40645.039;   -9.036;48882.852
536.162;37973.074;   -6.156;46942.285
536.747;38227.090;  -11.607;45711.746
537.333;40634.195;  -11.787;48510.180
537.918;40946.371;  -12.437;50439.891
538.503;40059.441;   -7.196;50863.711
539.088;40057.418;  -10.556;50906.922
539.673;40277.051;   -8.767;52621.965
540.259;36228.555;  -10.026;52368.094
540.844;33036.602;   -7.416;50879.109
541.429;30619.373;   -9.467;52077.777
542.014;30286.236;   -9.527;52716.695
542.599;35939.461;   -9.946;52363.281
543.184;41578.074;   -7.927;53187.137
543.769;43887.121;   -9.297;54697.605
544.354;44553.477;  -10.127;53913.914
544.938;42668.996;   -9.267;49680.164
545.523;40700.348;   -6.506;47386.277
546.108;42009.348;   -9.787;49151.949
546.693;42640.227;  -11.587;51384.637
547.278;43143.996;  -10.986;51853.254
547.862;43645.180;   -8.206;51173.750
548.447;41709.730;  -10.067;51691.395
549.031;41330.246;   -9.637;52456.703
549.616;42007.055;   -9.926;52714.516
550.201;41436.414;   -6.347;52414.598
550.785;42443.289;   -7.917;52355.059
551.370;43450.406;  -10.867;54589.453
551.954;45773.809;   -9.047;58267.348
552.538;44938.594;   -7.827;59062.176
553.123;42868.754;  -10.287;58115.285
553.707;41815.297;  -12.178;56556.285
554.291;39567.391;   -8.717;56201.668
554.876;40632.898;   -7.457;55335.762
555.460;42486.344;  -10.387;54155.703
556.044;44152.512;   -9.618;53721.484
556.628;44716.996;  -11.567;53731.016
557.212;45203.656;   -8.097;54312.531
557.796;46836.184;  -11.077;53797.773
558.380;44987.941;  -11.108;56145.984
558.964;43684.188;   -9.057;57277.930
559.548;41304.941;   -6.977;56459.641
560.132;38016.105;  -11.457;54434.543
560.716;39565.367;  -11.378;54800.617
561.300;41943.281;   -9.577;57606.945
561.884;40686.223;   -7.127;58972.445
562.467;39140.500;   -7.118;57327.570
563.051;37886.516;  -13.358;54962.434
563.635;36163.746;  -10.178;52594.473
564.219;38030.336;   -7.837;50610.410
564.802;41454.027;  -11.398;49551.180
565.386;41915.129;  -12.788;48370.953
565.969;43021.617;   -9.077;48178.871
566.553;41834.891;   -6.207;49957.305
567.136;40130.063;   -8.568;50369.594
567.720;41029.984;  -11.868;49492.004
568.303;42318.676;   -8.268;50616.352
568.887;41961.820;   -8.698;50727.148
569.470;40028.574;   -6.808;51698.379
570.053;37860.219;  -13.188;52122.078
570.637;35573.828;  -12.037;52536.438
571.220;35719.320;   -8.577;51186.098
571.803;35902.852;   -8.498;51032.762
572.386;37762.117;  -10.498;49609.887
572.969;38712.254;   -9.388;48285.926
573.552;39078.824;   -8.338;47624.285
574.135;38616.191;   -8.518;45498.641
574.718;35772.246;  -13.628;41970.434
575.301;36196.480;  -10.893;41447.137
575.884;36620.711;   -8.158;40923.836
576.467;40458.742;  -10.328;45267.723
577.050;40318.426;  -13.058;48175.543
577.633;38861.094;   -9.458;47729.328
578.216;35579.203;   -8.928;47579.793
578.799;33157.285;   -9.358;47820.996
579.381;34423.035;  -11.388;48115.551
579.964;35074.340;  -11.718;47333.766
580.547;33980.559;   -8.588;46668.969
581.129;34412.910;   -8.859;44466.141
581.712;36111.285;  -10.729;44164.922
582.294;35969.043;  -11.118;46477.855
582.877;36637.160;   -5.218;48244.254
583.459;36656.113;   -8.679;47437.895
584.042;38142.039;  -10.709;46943.219
584.624;36415.875;  -11.669;46792.227
585.206;35408.098;   -8.218;46557.250
585.789;36637.348;  -10.569;45793.773
586.371;36939.867;  -11.859;43836.391
586.953;37537.152;  -10.719;42972.492
587.536;39013.734;   -7.198;42487.211
588.118;38610.457;   -8.720;42086.414
588.700;37816.227;  -10.439;43389.930
589.282;34868.590;   -9.198;43646.039
589.864;32607.670;   -9.199;43438.109
590.446;32621.117;  -11.319;43151.926
591.028;32383.354;  -11.159;42781.867
591.610;32745.369;  -11.779;42839.098
592.192;33832.293;   -7.668;42820.402
592.774;32868.918;  -11.949;40724.277
593.356;30783.076;  -12.129;39874.789
593.937;30624.504;  -10.669;39980.648
594.519;33260.914;   -6.509;42069.633
595.101;33478.340;  -10.849;42976.031
595.683;32249.023;  -11.679;44084.441
596.264;31442.449;   -9.049;43478.797
596.846;31161.242;   -8.849;43803.672
597.427;31074.848;   -9.570;42986.934
598.009;32779.273;  -12.620;42832.219
598.591;32799.633;  -10.039;42580.086
599.172;34722.109;  -10.369;43061.805
599.753;37036.668;   -9.140;41691.469
600.335;36487.215;  -11.430;40692.520
600.916;34135.801;   -9.939;39982.422
601.498;30946.107;   -8.479;40318.617
602.079;30403.342;  -10.920;40670.609
602.660;30098.541;  -11.480;41450.898
603.241;30780.615;  -11.699;41137.738
603.823;31164.797;   -9.579;38868.797
604.404;30805.764;  -10.620;38182.785
604.985;33638.602;  -10.450;38078.047
605.566;34725.367;   -9.129;38056.633
606.147;35480.910;   -7.510;37020.418
606.728;34243.367;  -10.660;37883.359
607.309;32457.354;  -11.740;38748.273
607.890;32539.102;   -9.759;38850.230
608.471;31103.666;   -8.250;37457.918
609.051;31052.432;   -9.240;36066.457
609.632;31088.092;  -12.120;35991.074
610.213;30628.088;   -9.110;37402.641
610.794;31631.250;   -8.030;38383.363
611.374;30328.449;   -8.110;40562.387
611.955;30095.305;  -13.560;38533.727
612.536;31036.051;  -11.400;36951.789
613.116;30542.855;   -8.070;37197.891
613.697;31328.959;  -10.830;38411.125
614.277;31092.369;  -11.641;38673.938
614.858;30478.426;  -13.310;37075.863
615.438;30491.398;   -7.460;35092.906
616.019;28516.432;   -7.601;33666.301
616.599;29200.871;  -12.020;34189.023
617.179;29112.816;  -11.780;36952.047
617.760;28111.016;   -8.570;39582.574
618.340;28344.340;  -11.471;38943.977
618.920;28753.322;  -11.170;37594.156
619.500;29791.361;  -11.071;37866.938
620.080;30215.441;   -7.750;37869.043
620.660;30526.813;  -12.711;36868.617
621.241;31388.357;  -10.211;36352.309
621.821;30802.729;  -10.961;35459.520
622.401;30960.063;   -7.720;35207.414
622.980;33046.293;   -8.981;35980.422
623.560;31768.701;   -9.331;37351.328
624.140;27506.504;   -9.850;34388.582
624.720;23456.377;   -7.451;32368.764
625.300;22967.627;   -9.070;32638.629
625.880;27189.307;  -12.601;34599.035
626.459;30314.363;  -11.751;36831.738
627.039;30120.979;   -9.281;38299.098
627.619;29330.119;   -8.801;38289.574
628.198;29639.600;  -12.071;37220.695
628.778;30475.443;   -9.461;37632.563
629.357;31070.012;   -8.491;38003.012
629.937;30561.119;   -9.721;38402.039
630.516;31249.689;   -9.951;37868.801
631.096;32497.744;  -11.731;35760.410
631.675;34908.938;   -8.572;35225.219
632.254;34669.074;  -11.282;35130.289
632.834;33348.219;  -13.322;35794.570
633.413;34152.219;  -10.301;35788.922
633.992;34258.645;   -8.582;34532.863
634.571;35263.402;   -8.352;33590.113
635.151;34501.578;  -11.912;34943.863
635.730;32538.855;  -10.511;35352.523
636.309;32424.867;   -7.731;35366.605
636.888;31816.525;   -9.952;36165.637
637.467;30934.027;  -11.672;37515.902
638.046;29534.180;   -8.901;39288.695
638.625;28954.250;   -7.912;38279.699
639.204;28416.344;  -10.022;37741.598
639.782;29724.088;  -12.252;38364.551
640.361;31802.875;  -10.041;36740.621
640.940;31818.928;  -11.161;34950.082
641.519;31199.350;   -9.701;34137.398
642.097;32105.838;  -11.271;35654.258
642.676;32072.221;   -8.651;35637.957
643.255;31221.799;   -8.711;36567.074
643.833;30729.109;   -9.581;37809.434
644.412;31289.174;  -13.711;37337.293
644.990;32732.063;  -11.811;37018.531
645.569;35569.852;   -9.411;36518.469
646.147;36236.133;  -10.291;36186.430
646.726;34502.105;  -12.401;36267.688
647.304;32785.410;  -10.411;36647.625
647.882;33410.633;   -9.651;39286.742
648.461;33312.055;   -9.631;39157.703
649.039;30944.656;  -11.881;35412.883
649.617;30795.479;   -9.661;34744.918
650.195;31353.891;   -9.301;35403.098
650.773;30548.922;  -10.511;35053.797
651.352;30458.457;  -11.521;33756.816
651.930;29283.123;  -12.211;31868.773
652.508;28249.857;   -9.171;33121.551
653.086;29627.383;   -9.371;33564.793
653.663;31731.486;  -13.161;34054.668
654.241;30590.955;  -13.031;35693.309
654.819;28823.002;   -9.371;36422.906
655.397;29396.811;  -10.511;38213.484
655.975;29716.490;  -10.371;39507.625
656.553;30641.664;  -10.051;39498.223
657.130;31308.611;  -10.061;40395.480
657.708;28305.029;   -9.561;39242.020
658.286;25680.682;  -11.511;38920.020
658.863;25824.881;  -10.261;40202.898
659.441;28458.156;   -7.531;39677.938
660.018;31236.391;   -9.501;40413.355
660.596;31778.639;  -13.301;39931.414
661.173;34246.320;  -11.211;39604.531
661.750;33666.691;   -9.951;39700.070
662.328;31187.951;   -9.390;39292.809
662.905;29835.768;  -11.330;38235.648
663.482;27020.006;   -9.050;36212.305
664.060;24756.635;   -8.240;35944.945
664.637;28704.797;  -10.050;35170.785
665.214;33377.098;  -11.760;34197.523
665.791;32285.479;  -10.530;34549.520
666.368;31887.406;   -9.690;35118.578
666.945;32141.477;   -9.320;36019.418
667.522;32978.410;  -11.860;36048.438
668.099;31950.387;  -10.770;36243.914
668.676;31916.836;   -6.260;35958.875
669.253;33948.277;   -7.000;37384.730
669.830;34202.902;  -10.190;36779.629
670.407;33194.340;   -9.550;35231.289
670.984;32629.986;   -9.260;35544.270
671.560;31179.840;   -9.280;35466.867
672.137;29462.188;  -11.810;34280.863
672.714;29460.361;  -11.490;34632.863
673.290;30276.365;   -7.740;35135.422
673.867;30685.016;  -10.660;36114.480
674.443;29897.875;  -12.230;36152.859
675.020;28240.381;  -10.450;35327.238
675.596;26717.707;   -9.260;35795.176
676.173;27559.035;  -10.780;35430.355
676.749;28315.420;  -13.690;33549.516
677.326;29511.174;  -11.980;32210.012
677.902;27852.508;   -8.630;32068.871
678.478;26129.400;  -10.730;32583.891
679.054;27553.988;  -10.520;32088.928
679.631;28985.824;  -11.920;30978.848
680.207;30153.193;   -7.490;33160.887
680.783;31239.711;   -9.860;35570.363
681.359;31840.113;  -13.380;36125.184
681.935;30754.152;  -12.480;35240.922
682.511;31257.316;   -7.900;34429.961
683.087;31765.477;   -7.710;34463.680
683.663;32328.105;  -11.480;34648.898
684.239;31921.797;  -14.090;34546.457
684.815;33042.746;   -7.560;35586.375
685.390;33287.441;   -9.910;35821.895
685.966;32972.711;  -11.159;35085.871
686.542;33319.156;  -11.169;34198.230
687.118;31668.637;   -5.959;32847.707
687.693;31874.719;  -10.329;32794.027
688.269;31471.398;  -12.059;33072.367
688.844;32023.824;  -10.909;33141.664
689.420;32900.496;   -8.019;33965.742
689.995;29748.559;   -8.399;34655.523
690.571;29107.383;  -10.949;33576.742
691.146;28487.143;   -9.619;32657.219
691.722;26522.047;   -8.999;32526.979
692.297;25418.934;  -11.589;33014.617
692.872;25923.607;  -11.739;34012.254
693.448;26213.213;  -11.059;34237.434
694.023;28205.111;  -10.139;34142.672
694.598;30467.043;   -9.029;34132.031
695.173;30269.520;  -13.319;34205.250
695.748;27709.449;  -10.169;32882.488
696.323;25399.070;   -8.339;32864.906
696.898;24874.232;   -8.169;33170.004
697.473;27873.678;  -12.309;32432.984
698.048;27818.424;  -10.989;31649.303
698.623;26964.600;   -9.329;30778.141
699.198;28435.566;   -9.849;31140.119
699.773;29555.381;  -12.329;31764.299
700.348;29283.426;  -10.389;31780.816
700.922;27464.086;   -9.269;32046.375
701.497;25987.416;   -9.329;32603.574
702.072;27666.883;  -10.789;34799.871
702.646;27476.600;  -10.839;35793.172
703.221;28085.639;   -9.099;35201.590
703.795;28756.727;  -10.939;34764.527
704.370;27432.895;  -12.859;34307.367
704.944;28679.197;  -11.559;33509.887
705.519;29795.557;   -7.939;31388.584
706.093;31948.146;  -10.499;31340.104
706.668;33089.836;  -11.289;32630.281
707.242;32223.816;  -11.509;32728.779
707.816;30860.070;   -9.639;32947.238
708.390;30178.627;  -11.429;33277.855
708.965;31253.211;  -11.869;33834.336
709.539;31423.752;  -11.689;33709.273
710.113;30928.896;  -10.478;33044.313
710.687;28153.678;  -10.228;31953.992
711.261;27287.018;  -13.698;30505.949
711.835;27138.455;  -13.378;30262.369
712.409;27017.371;   -9.698;31254.447
712.983;26730.393;  -11.898;32754.986
713.557;25654.740;  -15.138;34018.824
714.131;26919.430;  -14.098;34579.625
714.704;26735.502;   -9.958;33890.262
715.278;25924.234;  -10.028;33531.102
715.852;25139.818;  -11.148;33601.660
716.425;24724.059;   -9.068;33515.117
716.999;26272.639;  -10.038;33185.555
717.573;26761.166;   -9.798;33905.996
718.146;27582.406;  -12.378;35199.293
718.720;28074.816;  -11.918;35060.551
719.293;27092.801;   -8.088;34973.230
719.867;26217.652;  -10.888;36394.449
720.440;27290.621;  -11.938;36663.008
721.013;29606.174;  -12.818;35102.426
721.587;31046.539;  -10.298;33985.266
722.160;30617.221;  -10.048;33524.965
722.733;28774.004;  -12.108;32987.043
723.306;26781.025;  -10.818;33066.301
723.880;27318.859;   -8.908;33399.500
724.453;26364.762;   -9.878;33468.297
725.026;25955.258;  -11.188;33816.637
725.599;26184.287;  -11.678;32797.996
726.172;25892.207;   -9.618;33187.434
726.745;26882.260;   -8.258;35136.613
727.318;29686.307;  -12.978;35751.730
727.891;31691.248;  -12.148;35890.430
728.463;33050.086;   -8.968;34822.090
729.036;33289.840;  -10.188;32895.086
729.609;31001.924;  -11.788;31823.225
730.182;29216.045;  -11.788;31445.283
730.754;28407.438;  -10.268;32373.223
731.327;28060.486;   -9.998;33676.820
731.900;27132.191;  -12.228;33417.000
732.472;26150.412;  -13.848;31978.498
733.045;26027.160;   -8.698;30368.777
733.617;25465.574;  -10.607;30574.215
734.190;23954.529;  -11.507;31280.975
734.762;24221.430;  -13.647;31674.412
735.334;25662.566;   -9.767;31247.291
735.907;26022.156;   -9.897;29876.211
736.479;23974.283;  -11.637;29808.488
737.051;23323.469;   -9.567;30233.547
737.623;24305.361;   -8.187;31469.086
738.195;26305.445;  -11.187;31784.225
738.768;26644.109;  -12.337;32120.523
739.340;26044.803;  -12.227;32094.342
739.912;25629.951;  -11.057;31312.680
740.484;26459.320;  -10.207;31946.238
741.056;27648.855;  -10.047;32984.059
741.628;27194.027;  -13.627;33897.715
742.199;27616.818;   -7.177;33213.016
742.771;25735.342;  -10.797;31369.113
743.343;23993.852;  -11.997;31865.473
743.915;24060.523;  -12.867;32388.631
744.487;24724.326;   -7.617;31079.568
745.058;26236.998;   -9.557;30570.107
745.630;26105.414;   -9.877;29970.127
746.201;24837.648;  -14.177;29186.766
746.773;24389.813;   -9.237;28805.723
747.344;24538.102;   -9.847;29591.223
747.916;24631.459;  -11.657;31412.201
748.487;24163.176;  -10.587;32194.898
749.059;23922.568;   -8.707;32533.719
749.630;22922.371;  -10.537;32158.518
750.201;23187.613;  -11.687;30855.395
750.773;23258.918;  -11.647;28622.555
751.344;24533.549;   -7.147;28405.732
751.915;24490.627;   -9.757;28461.551
752.486;23971.559;  -12.427;27842.850
753.057;22360.527;  -12.227;27845.008
753.628;21890.570;  -10.417;27728.107
754.199;22042.566;  -11.767;27381.086
754.770;21466.301;  -11.187;25882.203
755.341;20878.266;  -10.507;25886.184
755.912;21001.902;   -9.387;26050.861
756.483;21358.777;  -10.647;26798.779
757.054;20932.338;  -11.837;27048.238
757.625;19136.121;  -12.716;26294.838
758.195;18459.486;   -9.666;26142.076
758.766;19398.982;   -8.656;26392.234
759.337;19257.273;  -12.856;26334.594
759.907;18447.186;  -13.366;27579.652
760.478;17508.469;   -8.576;28352.770
761.048;18053.873;  -10.526;27325.088
761.619;18716.281;  -11.116;26460.428
762.189;18333.875;  -12.136;26029.826
762.760;18279.221;   -9.456;26430.145
763.330;18396.813;   -7.136;26670.902
763.900;18392.508;  -11.786;26603.021
764.471;17747.371;  -11.546;25542.740
765.041;17442.566;   -8.096;24358.459
765.611;17365.377;   -8.876;23991.297
766.181;17262.781;  -12.196;24470.236
766.751;17761.496;  -11.636;24845.975
767.321;17681.098;  -10.156;24533.633
767.891;17417.121;  -11.766;24916.492
768.461;17154.500;  -14.936;24776.771
769.031;16407.740;  -12.356;24757.988
769.601;16142.427;   -7.526;24181.088
770.171;16413.084;  -10.766;23670.387
770.741;16914.096;  -13.176;22960.045
771.311;16469.574;  -10.616;22917.523
771.880;15294.083;   -9.576;23562.941
772.450;14832.045;  -10.336;24216.500
773.020;14991.330;  -13.516;24140.398
773.589;14791.750;  -13.466;24414.857
774.159;14275.461;   -8.686;23858.717
774.729;13736.932;   -9.476;22942.135
775.298;13731.995;  -13.666;22324.033
775.867;13734.409;  -11.716;21140.313
776.437;13202.316;   -9.906;20838.092
777.006;13034.855;  -12.166;20599.510
777.576;14107.165;  -12.356;20508.809
778.145;13419.093;  -11.646;20732.947
778.714;12107.830;   -8.226;21062.465
779.283;11681.366;   -9.556;20949.664
779.853;11546.190;  -14.116;20508.623
780.422;11753.158;  -11.506;20649.082
780.991;12136.782;   -9.556;21527.520
781.560;12684.642;   -9.095;22632.658
782.129;11719.768;  -12.135;23048.277
782.698;10589.446;  -10.865;23438.555
783.267;10036.728;   -9.335;23267.734
783.836;10335.736;  -11.045;22415.133
784.404;10971.803;  -13.865;20443.152
784.973;11136.514;  -13.095;19699.150
785.542;11048.379;  -11.575;19763.828
786.111;10916.276;   -9.705;20341.408
786.679;10841.344;  -12.105;20207.967
787.248;10642.225;  -12.455;19516.465
787.817;10528.473;  -11.535;18900.363
788.385;10386.099;   -9.765;17879.121
788.954;10260.238;  -14.005;17658.301
789.522;10146.303;  -11.955;17788.879
790.090; 9422.036;  -10.135;18118.277
790.659; 8693.876;  -10.975;18338.736
791.227; 8757.097;  -13.375;18508.615
791.795; 9090.190;  -12.375;17898.254
792.364; 9251.640;  -10.725;17295.133
792.932; 9588.824;   -9.715;16822.051
793.500; 9479.498;  -12.675;17040.148
794.068; 9787.938;  -13.495;17179.787
794.636; 9945.800;  -10.885;16664.246
795.204; 9710.447;  -11.045;16524.545
795.772; 9761.869;  -13.175;17274.564
796.340; 9634.379;  -12.445;17891.002
796.908; 9914.087;   -9.735;17648.561
797.476;10309.575;   -9.815;17064.080
798.044; 9999.023;  -13.985;16672.777
798.612; 9609.608;  -13.115;17023.996
799.180; 8979.472;  -10.185;16561.615
799.747; 8713.303;   -9.055;15962.773
800.315; 8986.024;  -12.385;15296.992
800.883; 8489.338;  -15.035;14801.771
801.450; 7855.931;  -10.365;14534.430
802.018; 7656.744;   -9.855;14173.248
802.585; 7668.617;  -11.905;14029.547
803.153; 7886.329;  -11.585;13836.846
803.720; 7709.647;   -9.095;13567.324
804.287; 7658.293;   -9.135;13360.622
804.855; 7888.383;  -11.604;13681.981
805.422; 8264.123;  -11.794;13536.560
805.989; 8544.106;  -10.734;13355.958
806.556; 8590.023;  -10.444;13747.896
807.124; 8994.346;  -12.764;13987.376
807.691; 9572.645;  -12.964;14038.674
808.258; 9641.151;  -11.134;14120.152
808.825; 9668.974;   -9.854;13860.111
809.392; 9346.536;  -10.504;13268.790
809.959; 8661.541;  -13.054;12680.389
810.526; 7942.196;   -8.294;12427.308
811.093; 7305.388;   -8.394;12030.105
811.659; 7117.439;  -12.304;11653.664
812.226; 7288.108;  -13.944;11637.183
812.793; 7680.879;  -10.484;11611.521
813.360; 7811.538;  -10.144;11885.181
813.926; 7841.772;  -11.684;12770.539
814.493; 7742.708;  -13.644;12677.638
815.060; 7569.898;   -9.724;11974.336
815.626; 7727.268;   -9.854;11594.715
816.193; 7856.469;  -13.254;11579.474
816.759; 7235.176;  -13.204;11666.972
817.325; 6749.796;   -9.434;11325.530
817.892; 6575.013;  -10.134;11105.369
818.458; 6720.252;  -13.474;10843.928
819.024; 7191.974;  -11.854;10714.406
819.591; 7294.716;  -10.244;10469.165
820.157; 7067.667;  -10.704;10235.523
820.723; 7070.753;  -12.324;10847.563
821.289; 6971.809;   -9.444;11040.980
821.855; 7012.735;   -8.374;10357.100
822.421; 7350.096;  -10.234; 9978.918
822.987; 7300.844;  -13.294; 9754.177
823.553; 6921.097;  -10.884;10065.755
824.119; 6633.781;   -8.884;10036.294
824.685; 6093.300;   -6.784;10029.192
825.251; 5962.389;  -12.004;10199.230
825.816; 5675.707;  -11.474; 9820.189
826.382; 5441.073;   -9.174; 9297.248
826.948; 5735.703;   -9.214; 9381.347
827.513; 6155.926;  -10.774; 9450.726
828.079; 6209.957;  -11.924; 9472.444
828.645; 5982.557;  -10.543; 9292.643
829.210; 5842.843;  -10.533; 9065.341
829.776; 5742.640;  -10.753; 9132.620
830.341; 5888.625;  -10.173; 9092.878
830.906; 5893.750;  -10.743; 9078.557
831.472; 5613.011;  -11.113; 8534.535
832.037; 5209.070;  -10.603; 8677.874
832.602; 5064.977;  -13.323; 8628.692
833.167; 4833.703;  -10.823; 8879.031
833.733; 4677.533;  -10.113; 9189.790
834.298; 4511.366;  -13.583; 9052.608
834.863; 4678.944;  -12.703; 8895.087
835.428; 4900.474;  -10.523; 8824.266
835.993; 4854.089;   -6.963; 8845.385
836.558; 4813.079;  -10.763; 8888.563
837.123; 4930.883;   -9.903; 8966.582
837.688; 5274.219;   -9.913; 8617.860
838.253; 5325.538;  -10.283; 8590.699
838.817; 4955.196;  -12.963; 8443.797
839.382; 4807.602;  -14.243; 8799.356
839.947; 4955.065;  -10.733; 8810.595
840.511; 5000.119;   -9.383; 8796.394
841.076; 4840.483;  -12.563; 8347.231
841.641; 4649.868;  -12.953; 8224.330
842.205; 4504.195;   -7.043; 8223.349
842.770; 4295.564;   -8.163; 8622.107
843.334; 4444.394;  -12.503; 8410.386
843.898; 4595.354;  -11.693; 8337.465
844.463; 4180.869;  -10.203; 8506.283
845.027; 3877.603;   -9.533; 8280.962
845.591; 3897.881;  -13.443; 8231.141
846.156; 3978.495;  -13.143; 7969.179
846.720; 3834.456;   -9.433; 7768.278
847.284; 3758.136;  -11.033; 7630.957
847.848; 3762.981;  -10.403; 7472.395
848.412; 3601.543;  -11.553; 7437.394
848.976; 3505.063;   -8.393; 7674.592
849.540; 3459.150;   -8.713; 7836.011
850.104; 3447.984;  -12.463; 7913.669
850.668; 3527.601;  -12.973; 7694.508
851.232; 3512.641;  -10.793; 7756.887
851.796; 3531.990;  -10.662; 7926.545
852.359; 3619.064;  -13.082; 7827.844
852.923; 3598.717;  -12.192; 7641.163
853.487; 3601.648;  -11.912; 7342.501
854.050; 3447.351;  -10.892; 7042.820
854.614; 3504.340;  -13.992; 7151.338
855.177; 3600.896;  -11.732; 7105.077
855.741; 3486.236;   -8.962; 6989.675
856.304; 3337.313;   -9.442; 6596.634
856.868; 3206.209;  -14.192; 6356.272
857.431; 3147.007;  -12.702; 6468.571
857.995; 3147.884;   -9.942; 6373.210
858.558; 3241.061;   -9.112; 6324.448
859.121; 3164.378;  -12.932; 6408.327
859.684; 3058.969;  -13.442; 6347.886
860.247; 3021.045;  -10.632; 6321.264
860.810; 2964.820;  -11.272; 6301.903
861.374; 2886.788;   -9.832; 6607.881
861.937; 2808.630;  -11.762; 6408.200
862.500; 2806.175;   -9.722; 6572.639
863.062; 2795.467;  -10.512; 6387.297
863.625; 2803.330;  -11.232; 6190.836
864.188; 2849.548;  -14.112; 5807.254
864.751; 2860.958;  -11.302; 5682.413
865.314; 2733.478;  -10.112; 5547.492
865.876; 2548.481;  -12.182; 5500.150
866.439; 2399.345;  -10.722; 5415.909
867.002; 2312.918;   -9.252; 5501.567
867.564; 2377.176;   -9.572; 5413.946
868.127; 2427.517;  -13.142; 5160.325
868.689; 2528.854;  -12.902; 5133.183
869.252; 2668.879;   -9.732; 5252.382
869.814; 2611.462;   -9.432; 5297.141
870.377; 2502.274;  -11.552; 5390.919
870.939; 2484.694;   -9.052; 5599.898
871.501; 2424.099;  -10.982; 5248.336
872.063; 2312.550;  -12.292; 4854.235
872.626; 2251.431;  -14.912; 4817.074
873.188; 2156.406;  -13.112; 4987.732
873.750; 2132.597;  -13.442; 4868.651
874.312; 2110.381;   -9.402; 4779.330
874.874; 2113.503;  -11.062; 4866.348
875.436; 2087.674;  -13.931; 4718.887
875.998; 2065.254;   -9.561; 4660.005
876.560; 2123.668;  -11.321; 4462.964
877.122; 2128.055;  -12.221; 4145.042
877.683; 1995.042;  -12.191; 4056.481
878.245; 1637.402;  -12.101; 3950.740
878.807; 1294.620;   -8.971; 4058.958
879.369; 1083.068;  -12.071; 3954.677
879.930; 1044.445;  -14.621; 3941.495
880.492; 1117.421;  -10.311; 4067.014
881.053; 1227.623;  -10.901; 3859.633
881.615; 1291.154;  -14.411; 3776.071
882.176; 1284.918;  -13.761; 3734.750
882.738; 1260.002;   -9.181; 3678.489
883.299; 1281.112;  -11.791; 3405.407
883.860; 1322.072;  -13.121; 3351.106
884.422; 1295.776;  -11.211; 3394.044
884.983; 1238.970;  -10.091; 3166.443
885.544; 1208.351;   -8.461; 3189.802
886.105; 1155.001;  -12.361; 3160.360
886.666; 1101.435;  -14.141; 3093.059
887.227; 1082.826;  -11.361; 2941.957
887.788; 1038.942;  -11.401; 2974.836
888.349;  953.905;  -13.791; 2721.214
888.910;  917.227;  -13.191; 2696.493
889.471;  886.678;   -9.881; 2560.172
890.032;  896.581;   -9.881; 2558.190
890.593;  891.056;  -10.371; 2567.669
891.153;  807.881;  -13.301; 2460.307
891.714;  698.523;  -11.431; 2372.046
892.275;  653.247;  -11.291; 2309.505
892.835;  666.060;  -11.471; 2382.543
893.396;  661.380;  -11.541; 2295.502
893.956;  635.537;  -11.181; 2162.420
894.517;  594.109;  -11.741; 2125.439
895.077;  540.625;  -11.671; 2086.978
895.638;  500.713;  -11.311; 2126.316
896.198;  490.538;   -9.831; 1838.275
896.758;  476.088;   -8.421; 1892.813
897.319;  451.568;  -12.351; 1792.232
897.879;  433.203;  -13.511; 1762.751
898.439;  402.580;  -12.001; 1661.149
898.999;  380.609;  -10.180; 1781.468
899.559;  376.443;  -12.030; 1703.347
900.119;  367.127;  -15.710; 1537.525
900.679;  353.716;   -8.900; 1638.384
901.239;  332.774;   -8.340; 1527.902
901.799;  304.880;  -13.910; 1456.441
902.359;  283.518;  -13.460; 1357.140
902.919;  275.353;  -11.490; 1331.118
903.479;  274.923;  -12.110; 1317.257
904.038;  269.209;  -11.720; 1262.595
904.598;  261.582;  -13.610; 1152.034
905.158;  251.272;  -11.040; 1240.893
905.717;  234.957;  -10.900; 1233.691
906.277;  224.789;  -15.080; 1217.330
906.836;  222.730;  -13.380; 1222.408
907.396;  219.228;  -10.780; 1193.047
907.955;  211.661;   -8.500; 1182.526
908.515;  207.331;  -12.760; 1099.364
909.074;  206.048;  -11.900; 1092.863
909.633;  206.574;   -8.950; 1069.121
910.192;  203.634;   -8.770; 1196.460
910.752;  192.953;  -12.390; 1029.960
911.311;  184.280;  -13.680; 1009.780
911.870;  174.856;  -12.370;  971.460
912.429;  168.848;  -10.900; 1094.080
912.988;  165.418;  -11.690; 1081.060
913.547;  162.894;  -13.240;  940.380
914.106;  161.758;  -11.990;  999.420
914.665;  158.632;   -9.990;  984.020
915.224;  154.086;  -12.880; 1035.760
915.782;  150.468;  -12.350;  922.560
916.341;  148.236;   -9.110; 1049.840
916.900;  145.264;   -9.270;  925.260
917.458;  144.976;  -13.240;  884.220
918.017;  144.149;  -13.550;  942.600
918.576;  143.824;  -12.320;  904.440
919.134;  142.754;  -11.490;  837.980
919.693;  140.938;  -13.670;  893.060
920.251;  140.509;  -15.470;  876.500
920.809;  140.754;  -11.290;  839.580
921.368;  140.421;  -10.210;  885.360
921.926;  138.669;  -12.140;  842.940
922.484;  135.570;  -13.080;  903.360
923.042;  135.062;  -11.720;  880.340
923.601;  135.026;   -7.480;  998.680
924.159;  132.512;  -11.570;  935.560
924.717;  131.255;  -13.840;  841.080
925.275;  131.448;  -10.640;  903.240
925.833;  129.734;  -11.540;  779.320
926.391;  132.594;  -12.960;  938.380
926.949;  131.126;  -14.130;  857.680
927.506;  131.630;  -11.750;  903.500
928.064;  130.818;  -10.250;  877.580
928.622;  131.396;  -13.030;  880.100
929.180;  133.382;  -13.400;  814.180
929.737;  136.142;  -10.700;  808.540
930.295;  138.827;  -10.070;  928.480
930.853;  137.406;  -11.960;  849.100
931.410;  138.396;  -13.120;  821.120
931.968;  141.493;  -10.770;  940.660
932.525;  140.821;  -10.680;  909.380
933.082;  139.600;  -13.130;  811.440
933.640;  140.993;  -13.210;  925.900
934.197;  140.824;  -11.060;  886.360
934.754;  140.796;   -9.580;  897.780
935.312;  142.387;  -14.000;  863.340
935.869;  143.675;  -10.710; 1012.980
936.426;  141.228;   -9.860;  872.800
936.983;  141.303;   -9.710;  889.020
937.540;  142.942;  -13.990;  838.280
938.097;  147.418;  -14.040;  940.120
938.654;  150.295;  -10.310;  898.860
939.211;  150.444;  -10.560;  952.480
939.768;  150.970;  -13.900;  915.420
940.324;  153.632;  -14.760;  904.200
940.881;  157.856;  -10.370;  878.500
941.438;  161.092;   -8.260; 1021.200
941.995;  159.372;  -12.540;  992.560
942.551;  159.533;  -14.670;  875.620
943.108;  161.302;  -10.450;  937.920
943.664;  160.056;  -10.750;  869.340
944.221;  164.974;  -11.550; 1088.140
944.777;  164.477;  -14.770;  869.680
945.334;  162.558;  -12.820;  884.840
945.890;  157.002;  -10.130;  946.480
946.446;  154.463;  -13.470;  947.020
947.003;  156.216;  -12.120;  964.940
947.559;  156.932;   -9.980; 1063.040
948.115;  153.325;   -9.080; 1026.540
948.671;  151.050;  -10.830;  967.300
949.227;  150.590;  -12.440;  859.560
949.783;  150.639;  -12.910;  858.900
950.339;  154.496;  -10.270;  991.000
950.895;  155.092;  -13.630; 1023.840
951.451;  154.368;  -15.100;  925.280
952.007;  152.812;  -11.330;  998.540
952.563;  148.921;  -10.580;  937.780
953.118;  145.712;  -13.440;  904.940
953.674;  145.096;  -12.710;  935.780
954.230;  148.138;  -10.350;  949.640
954.785;  150.431;   -9.190;  936.640
955.341;  151.978;  -11.200;  998.160
955.897;  147.222;  -16.560;  834.660
956.452;  145.897;  -12.570;  953.840
957.008;  143.657;   -7.970; 1083.640
957.563;  139.404;  -11.940; 1009.540
958.118;  135.652;  -13.450;  877.700
958.674;  133.790;  -12.030;  946.780
959.229;  134.856;   -9.410; 1013.980
959.784;  134.728;  -12.000;  832.400
960.339;  135.182;  -14.780; 1001.280
960.894;  132.750;   -9.860;  963.760
961.449;  129.860;   -9.970;  859.960
962.004;  130.146;  -10.900; 1212.840
962.559;  127.258;  -13.150;  860.140
963.114;  126.278;  -13.740;  742.480
963.669;  124.835;   -9.820;  915.500
964.224;  122.998;  -13.890;  874.340
964.779;  123.421;  -12.600;  828.420
965.334;  125.264;  -10.950; 1017.860
965.888;  123.508;  -11.170;  875.360
966.443;  123.439;  -12.540;  972.380
966.998;  120.317;  -15.780;  819.460
967.552;  119.172;   -9.760;  908.380
968.107;  116.616;   -9.060;  868.300
968.661;  116.926;  -11.950;  922.440
969.216;  114.385;  -12.800;  856.280
969.770;  112.160;  -11.210;  917.200
970.324;  111.389;  -11.610;  923.140
970.879;  112.417;  -11.370;  947.180
971.433;  113.978;  -12.540;  952.720
971.987;  113.432;  -11.320;  895.340
972.541;  111.734;  -10.720;  917.100
973.095;  110.996;   -9.680; 1009.460
973.649;  108.132;  -11.440;  809.480
974.203;  106.604;  -11.210;  829.040
974.757;  105.802;  -10.240;  855.220
975.311;  104.742;  -13.720;  872.600
975.865;  104.433;  -13.770;  881.820
976.419;  101.996;  -11.690;  857.400
976.973;   98.891;   -9.510;  849.620
977.526;   98.273;  -12.620;  949.920
978.080;   96.000;  -12.010;  796.780
978.634;   95.544;  -10.170;  921.320
979.187;   94.995;   -9.020;  905.400
979.741;   96.796;   -9.820; 1018.380
980.294;   95.233;  -14.870;  789.160
980.848;   93.683;  -12.380;  717.220
981.401;   94.197;  -10.350;  816.540
981.955;   92.724;  -13.720;  844.300
982.508;   88.087;  -11.490;  746.340
983.061;   89.214;  -10.000;  915.260
983.615;   86.402;  -11.480;  798.800
984.168;   85.313;  -13.220;  770.080
984.721;   84.699;  -13.960;  880.760
985.274;   82.494;  -10.870;  867.500
985.827;   80.212;   -9.790;  834.220
986.380;   78.208;  -13.120;  721.340
986.933;   77.564;  -12.450;  864.800
987.486;   77.754;  -10.210;  861.920
988.039;   77.267;   -8.430;  863.100
988.591;   76.288;  -10.520;  893.260
989.144;   74.741;  -14.860;  737.260
989.697;   72.502;  -13.080;  758.740
990.250;   72.658;  -10.150;  858.100
990.802;   70.473;  -13.430;  755.860
991.355;   69.824;  -12.750;  974.880
991.907;   67.646;  -12.040;  864.320
992.460;   65.469;  -11.330;  753.760
993.012;   65.404;  -13.610;  749.540
993.565;   63.599;  -13.460;  711.360
994.117;   64.701;   -9.360;  950.780
994.669;   61.426;  -11.300;  701.320
995.221;   60.197;  -13.540;  791.920
995.774;   59.590;  -13.430;  787.580
996.326;   58.356;  -12.520;  740.220
996.878;   57.599;  -10.950;  838.420
997.430;   55.396;  -14.300;  699.860
997.982;   53.249;  -13.760;  750.140
998.534;   53.953;  -11.530;  739.060
999.086;   52.670;  -10.310;  738.220
999.638;   51.850;  -12.530;  661.380
1000.190;   50.439;  -11.840;  699.320
1000.741;   50.334;  -10.260;  742.700
1001.293;   50.207;   -8.860;  686.020
1001.845;   48.949;  -13.700;  676.640
1002.396;   48.898;  -12.100;  743.400
1002.948;   47.894;  -12.760;  737.400
1003.500;   47.088;  -10.380;  723.780
1004.051;   46.590;  -11.900;  907.580
1004.603;   45.490;  -12.250;  791.820
1005.154;   42.614;  -13.210;  608.980
1005.705;   41.837;  -10.950;  723.960
1006.257;   41.010;  -13.880;  707.220
1006.808;   40.186;  -12.840;  685.460
1007.359;   41.186;  -10.570;  763.240
1007.910;   39.777;   -9.620;  646.640
1008.461;   39.084;  -13.630;  732.940
1009.013;   37.614;  -17.200;  588.340
1009.564;   39.256;  -10.200;  793.520
1010.115;   36.601;  -12.570;  597.040
1010.665;   36.016;  -15.150;  602.160
1011.216;   36.186;  -14.480;  667.920
1011.767;   36.977;  -11.340;  697.920
1012.318;   36.416;   -9.780;  736.980
1012.869;   36.252;  -12.380;  679.000
1013.419;   35.395;  -15.560;  603.120
1013.970;   35.530;  -11.010;  666.640
1014.521;   34.878;  -11.610;  620.620
1015.071;   35.385;  -13.450;  670.380
1015.622;   34.713;  -13.870;  635.460
1016.172;   34.234;  -11.610;  596.820
1016.723;   33.668;  -12.120;  614.380
1017.273;   32.582;  -13.620;  604.160
1017.823;   33.187;  -14.140;  650.340
1018.374;   32.928;  -12.800;  611.760
1018.924;   32.106;  -12.340;  716.880
1019.474;   32.359;  -11.410;  718.880
1020.024;   30.929;  -14.770;  657.580
1020.574;   32.458;   -9.780;  726.160
1021.124;   32.370;   -8.560;  673.580
1021.674;   31.327;  -15.190;  559.120
1022.224;   31.955;  -13.530;  708.940
1022.774;   32.548;  -13.280;  668.820
1023.324;   31.942;  -10.690;  753.520
1023.874;   33.684;  -10.240;  875.760
1024.423;   30.858;  -12.540;  613.700
1024.973;   30.742;  -10.010;  610.760
1025.523;   30.256;  -10.550;  620.960
1026.072;   29.626;  -13.560;  606.420
1026.622;   29.286;  -15.120;  675.740
1027.172;   31.386;  -11.260;  715.660
1027.721;   29.119;  -11.410;  601.220
1028.270;   28.790;  -13.530;  663.400
1028.820;   28.815;  -13.680;  638.080
1029.369;   29.445;  -13.520;  612.700
1029.918;   28.829;  -10.980;  649.840
1030.468;   27.792;  -13.530;  564.780
1031.017;   28.362;  -13.170;  634.800
1031.566;   27.718;  -12.200;  608.900
1032.115;   28.691;   -9.960;  694.500
1032.664;   26.594;  -13.210;  596.480
1033.213;   27.801;  -12.500;  735.420
1033.762;   27.322;  -11.910;  635.620
1034.311;   27.033;   -9.640;  677.220
1034.860;   26.842;  -13.310;  691.000
1035.408;   26.557;  -11.830;  722.720
1035.957;   27.299;  -12.000;  719.540
1036.506;   25.084;  -11.690;  530.800
1037.055;   27.678;  -10.990;  844.320
1037.603;   25.650;  -15.120;  664.000
1038.152;   24.542;  -12.450;  534.760
1038.700;   25.304;  -10.560;  585.740
1039.249;   25.218;  -11.080;  681.220
1039.797;   25.333;  -12.540;  633.360
1040.345;   25.730;  -11.920;  705.420
1040.894;   24.645;  -11.410;  625.300
1041.442;   24.412;  -14.320;  632.200
1041.990;   23.447;  -16.240;  559.160
1042.538;   22.757;  -11.680;  536.180
1043.087;   23.089;  -10.760;  570.860
1043.635;   24.635;  -11.850;  670.500
1044.183;   23.297;  -15.480;  586.400
1044.731;   23.068;  -11.770;  576.000
1045.279;   23.189;  -13.090;  674.920
1045.827;   24.637;  -12.440;  892.400
1046.374;   21.637;  -13.840;  515.420
1046.922;   22.643;  -13.220;  590.580
1047.470;   23.007;  -10.230;  691.300
1048.018;   22.960;  -14.590;  647.960
1048.565;   22.714;  -12.050;  708.600
1049.113;   21.995;  -11.650;  557.000
1049.660;   21.315;  -10.510;  629.660
1050.208;   21.978;  -13.310;  675.640
1050.755;   20.730;  -15.900;  606.580
1051.303;   22.476;  -11.430;  686.820
1051.850;   21.143;   -8.480;  635.120
1052.397;   19.326;  -15.010;  473.960
1052.945;   20.615;  -13.960;  617.760
1053.492;   22.289;  -13.150;  741.840
1054.039;   22.033;   -9.630;  720.180
1054.586;   19.618;  -13.680;  557.240
1055.133;   21.313;  -14.570;  693.140
1055.680;   21.456;  -13.820;  646.620
1056.227;   19.362;  -11.730;  542.780
1056.774;   21.287;  -12.480;  794.980
1057.321;   19.696;  -13.930;  523.260
1057.868;   20.414;  -11.690;  651.320
1058.415;   19.371;   -9.520;  651.980
1058.961;   20.154;  -13.160;  678.940
1059.508;   19.090;  -12.920;  643.820
1060.055;   19.441;  -11.920;  581.780
1060.601;   19.097;  -11.500;  624.300
1061.148;   18.642;  -14.330;  616.820
1061.694;   17.661;  -16.870;  592.580
1062.241;   18.568;  -10.330;  596.320
1062.787;   18.549;  -10.620;  663.140
1063.334;   19.903;  -10.110;  808.560
1063.880;   18.861;  -13.400;  668.360
1064.426;   18.898;  -10.680;  706.820
1064.972;   17.617;   -9.920;  601.340
1065.518;   16.474;  -10.980;  566.640
1066.065;   17.743;  -14.890;  624.460
1066.611;   17.759;  -12.870;  598.800
1067.157;   17.842;  -12.950;  641.860
1067.703;   17.255;  -13.540;  668.480
1068.249;   16.630;  -13.540;  605.220
1068.794;   17.212;  -12.600;  626.880
1069.340;   15.492;  -10.620;  578.960
1069.886;   16.478;  -12.830;  590.700
1070.432;   15.670;  -14.870;  541.720
1070.977;   16.116;  -11.980;  601.080
1071.523;   16.212;   -8.200;  573.060
1072.068;   16.044;  -12.330;  582.000
1072.614;   15.125;  -16.370;  527.760
1073.160;   16.808;  -11.100;  687.040
1073.705;   15.134;  -10.480;  572.520
1074.250;   15.725;  -14.520;  559.900
1074.796;   16.317;  -11.460;  655.160
1075.341;   15.964;  -11.950;  664.100
1075.886;   15.343;  -11.460;  594.240
1076.431;   14.803;  -13.770;  649.880
1076.976;   14.668;  -12.680;  639.220
1077.521;   14.729;  -13.170;  583.080
1078.067;   13.937;  -10.860;  579.400
1078.612;   14.830;  -13.920;  661.620
1079.156;   14.132;  -13.880;  601.540
1079.701;   15.392;  -13.120;  693.260
1080.246;   14.559;   -9.940;  696.300
1080.791;   14.050;  -14.740;  625.020
1081.336;   14.287;  -13.750;  659.320
1081.880;   13.986;  -13.400;  649.680
1082.425;   12.778;  -12.220;  573.480
1082.970;   14.378;  -11.610;  717.040
1083.514;   13.162;  -13.580;  597.000
1084.059;   13.194;  -12.810;  586.720
1084.603;   13.169;  -12.320;  565.840
1085.147;   13.212;  -13.190;  645.220
1085.692;   13.510;  -12.480;  716.800
1086.236;   12.146;  -13.020;  503.140
1086.780;   13.553;   -9.190;  751.440
1087.325;   13.230;  -12.480;  654.620
1087.869;   12.046;  -12.450;  610.700
1088.413;   13.620;  -12.240;  705.040
1088.957;   10.914;   -9.020;  543.400
1089.501;   13.522;  -10.320;  766.640
1090.045;   12.388;  -12.720;  726.480
1090.589;   11.428;  -13.690;  569.920
1091.133;   12.165;  -10.020;  673.340
1091.676;   11.395;  -12.330;  591.940
1092.220;   11.323;  -14.970;  600.920
1092.764;   12.322;  -12.430;  706.960
1093.307;   11.873;   -9.800;  673.780
1093.851;   10.739;  -14.970;  556.540
1094.395;   10.804;  -15.310;  683.140
1094.938;   11.247;  -10.370;  632.520
1095.482;   10.620;  -11.050;  559.800
1096.025;   11.650;  -11.840;  710.880
1096.568;   11.393;  -12.840;  779.280
1097.112;   10.116;  -14.700;  508.180
1097.655;   11.080;   -8.720;  603.000
1098.198;    9.387;  -13.610;  600.180
1098.741;    9.357;  -13.350;  612.860
1099.285;   10.636;  -11.230;  657.300
1099.828;    8.312;  -11.840;  439.400
1100.371;    9.713;  -10.840;  608.160
1100.914;    9.598;  -14.190;  682.660
1101.457;    9.688;  -11.240;  679.900
1101.999;    8.532;  -11.270;  584.680
1102.542;    9.382;  -11.480;  641.440
1103.085;    9.115;  -11.750;  658.500
1103.628;   10.711;  -11.400;  762.060
1104.170;    8.661;  -10.490;  588.280
1104.713;    9.211;  -10.600;  646.700
1105.256;    8.692;  -14.360;  557.440
1105.798;    7.814;  -13.210;  499.980
1106.341;    9.956;  -10.270;  728.900
1106.883;    7.774;  -12.200;  521.340
1107.425;    8.293;  -13.110;  668.180
1107.968;    8.358;  -12.840;  612.380
1108.510;    9.170;   -6.480;  684.960
1109.052;    7.486;  -13.940;  612.620
1109.594;    7.644;  -13.690;  554.440
1110.136;    8.662;  -11.880;  643.220
1110.679;    7.383;   -9.500;  633.080
1111.221;    7.716;  -14.160;  604.460
1111.763;    6.761;  -13.980;  559.220
1112.304;    6.952;  -13.880;  547.140
1112.846;    7.658;  -12.210;  666.240
1113.388;    9.876;  -11.390;  942.180
1113.930;    7.115;  -14.540;  694.200
1114.472;    7.032;  -12.640;  606.540
1115.013;    5.199;  -11.620;  551.280
1115.555;    5.803;  -13.640;  587.100
1116.097;    5.545;  -15.380;  579.480
1116.638;    7.290;  -12.640;  684.600
1117.180;    6.973;   -9.850;  667.740
1117.721;    6.859;  -13.690;  568.580
1118.262;    5.959;  -12.680;  677.960
1118.804;    7.466;  -12.530;  637.340
1119.345;    5.301;  -11.690;  578.400
1119.886;    6.342;  -13.380;  704.040
1120.427;    5.440;  -14.070;  589.020
1120.969;    5.133;  -13.500;  597.920
1121.510;    4.864;  -11.480;  563.060
1122.051;    5.498;  -12.830;  723.580
1122.592;    4.905;  -14.290;  655.420
1123.133;    4.338;  -12.400;  547.940
1123.673;    6.375;  -10.130;  706.480
1124.214;    4.573;  -12.930;  612.460
1124.755;    5.224;  -14.380;  639.460
1125.296;    5.911;  -14.000;  627.320
1125.836;    5.059;  -10.070;  691.500
1126.377;    4.974;  -12.640;  599.660
1126.918;    5.009;  -12.960;  614.980
1127.458;    4.850;  -13.350;  622.220
1127.999;    4.917;  -10.750;  656.980
1128.539;    4.743;  -12.350;  694.240
1129.079;    4.350;  -14.860;  632.720
1129.620;    3.726;  -13.840;  558.100
1130.160;    3.253;  -12.330;  539.480
1130.700;    4.541;  -14.530;  640.840
1131.240;    4.408;  -12.530;  643.700
1131.781;    3.663;  -14.450;  619.680
1132.321;    4.078;   -9.790;  599.120
1132.861;    2.548;  -14.860;  564.200
1133.401;    2.192;  -14.290;  593.940
1133.941;    3.832;  -11.750;  626.280
1134.481;    3.556;   -9.920;  597.580
1135.020;    2.892;  -12.290;  609.160
1135.560;    3.583;  -11.650;  674.940
1136.100;    3.182;  -16.270;  501.160
1136.640;    2.472;  -10.890;  510.480
1137.179;    3.006;  -14.180;  537.960
1137.719;    2.464;  -16.250;  605.400
1138.258;    3.116;  -14.230;  587.360
1138.798;    3.334;   -9.090;  663.780
1139.337;    1.549;  -15.130;  482.840
1139.877;    2.481;  -13.680;  642.360
1140.416;    4.494;  -11.320;  878.060
1140.955;    2.126;  -10.860;  535.380
1141.494;    3.235;  -12.920;  669.280
1142.034;    1.978;  -13.930;  583.520
1142.573;    3.941;  -11.440;  646.280
1143.112;    1.488;  -12.000;  553.480
1143.651;    1.784;  -13.670;  536.480
1144.190;    1.807;  -12.730;  691.640
1144.729;    2.020;  -14.560;  607.420
1145.267;    1.745;  -11.830;  584.900
1145.806;    2.756;  -12.230;  637.040
1146.345;    1.660;  -14.130;  635.020
1146.884;    2.056;  -11.590;  622.500
1147.422;    1.433;  -12.550;  533.060
1147.961;    2.984;  -11.180;  708.460
1148.500;    1.980;  -11.510;  669.720
1149.038;    2.577;  -11.640;  632.500
1149.577;    2.116;  -10.130;  698.640
1150.115;   -0.242;  -13.970;  452.280
1150.653;    0.406;  -14.520;  607.340
1151.192;    1.877;  -12.810;  552.920
1151.730;    1.245;   -9.100;  652.560
1152.268;    0.398;  -12.220;  589.520
1152.806;    0.251;  -14.140;  571.180
1153.344;   -0.536;  -12.350;  577.640
1153.882;    0.788;   -8.980;  600.060
1154.421;   -0.769;  -15.190;  470.620
1154.958;   -0.229;  -15.210;  595.240
1155.496;    2.052;  -12.850;  645.280
1156.034;    0.794;   -9.940;  721.880
1156.572;    0.666;  -13.570;  667.060
1157.110;   -0.555;  -14.590;  473.940
1157.647;    1.047;  -13.030;  676.960
1158.185;   -0.168;  -12.140;  564.320
1158.723;   -1.431;  -14.390;  509.200
1159.260;   -0.161;  -14.090;  701.700
1159.798;    1.102;  -11.920;  658.160
1160.335;    0.050;  -11.110;  631.820

