
Integration time [ms]:   3.276
Averaging Nr. [scans]: 1000
Smoothing Nr. [pixels]: 0
Data measured with spectrometer [name]: 7414430SP
Wave   ;Sample   ;Dark     ;Reference
[nm]   ;[counts] ;[counts] ;[counts] 

288.544;  153.133;    7.793;  793.890
289.143;  156.902;    7.462;  681.602
289.742;  157.189;    8.602;  828.814
290.341;  144.260;    1.321;  789.841
290.940;  134.364;   -0.709;  730.702
291.538;  134.776;    0.881;  881.108
292.137;  134.419;    0.122;  792.581
292.736;  138.093;   -1.929;  975.101
293.335;  135.438;   -8.229;  735.086
293.934;  135.052;   -5.279;  781.677
294.532;  134.368;   -1.369; 1031.958
295.131;  120.443;   -7.641;  834.394
295.730;  121.846;   -8.420;  809.588
296.328;  119.918;   -5.611;  783.442
296.927;  119.829;   -5.781;  779.652
297.525;  118.631;   -6.361;  781.236
298.124;  109.257;  -11.382;  654.009
298.722;  114.074;   -7.641;  761.933
299.321;  113.186;   -6.811;  708.597
299.919;  110.437;   -6.991;  751.918
300.518;  106.984;  -10.362;  689.338
301.116;  107.178;   -9.581;  691.381
301.715;  108.288;   -4.891;  730.222
302.313;  107.233;   -8.801;  704.943
302.911;  103.145;   -8.522;  733.830
303.509;  107.726;   -6.171;  925.627
304.108;  104.697;   -7.311;  760.383
304.706;  104.745;   -8.321;  801.664
305.304;   99.421;  -10.222;  796.707
305.902;  104.879;   -6.021;  784.484
306.500;  100.297;   -4.971;  728.200
307.098;   97.729;   -7.061;  746.560
307.696;   96.271;   -8.801;  780.432
308.294;   97.413;   -6.411;  731.359
308.892;   98.056;   -2.901;  759.769
309.490;   94.637;   -5.041;  712.161
310.088;   92.493;   -5.002;  788.444
310.686;   97.552;   -2.041;  821.749
311.284;   93.315;   -2.351;  766.040
311.882;   90.169;   -4.422;  731.225
312.480;   87.767;   -4.192;  697.167
313.078;   88.609;   -1.172;  808.331
313.675;   90.562;   -2.601;  691.600
314.273;   84.578;   -1.312;  797.837
314.871;   84.027;   -3.942;  589.829
315.468;   82.114;   -2.802;  652.090
316.066;   85.542;   -0.701;  694.427
316.664;   77.201;   -4.362;  656.351
317.261;   81.720;   -2.872;  910.128
317.859;   77.573;   -2.022;  768.735
318.456;   77.575;   -0.531;  830.096
319.054;   73.095;   -3.912;  787.828
319.651;   73.130;   -4.752;  759.928
320.249;   71.795;   -2.602;  810.188
320.846;   69.259;   -0.821;  714.286
321.443;   66.542;   -4.642;  832.135
322.041;   63.609;   -5.002;  812.315
322.638;   61.952;   -3.982;  701.456
323.235;   62.109;   -3.411;  665.683
323.833;   59.503;   -7.361;  740.354
324.430;   54.766;   -8.611;  615.900
325.027;   55.271;   -4.061;  876.855
325.624;   55.138;   -4.031;  644.532
326.221;   52.325;   -7.481;  689.717
326.818;   51.813;   -5.281;  818.332
327.415;   55.042;   -7.460;  748.828
328.012;   54.319;   -5.510;  690.585
328.609;   52.273;   -7.880;  731.389
329.206;   50.641;   -8.331;  778.621
329.803;   50.261;   -5.121;  737.841
330.400;   54.016;   -4.510;  704.260
330.997;   55.473;   -6.441;  817.147
331.594;   54.048;   -8.831;  788.185
332.191;   58.436;   -7.621;  728.722
332.787;   61.544;   -4.591;  844.463
333.384;   61.455;   -7.412;  763.093
333.981;   58.558;   -8.293;  815.687
334.578;   61.630;   -7.052;  708.378
335.174;   64.660;   -3.102;  731.469
335.771;   63.457;   -5.943;  836.456
336.367;   60.612;   -7.393;  710.631
336.964;   64.165;   -4.063;  793.266
337.561;   63.538;   -3.813;  731.112
338.157;   59.006;   -4.654;  911.916
338.754;   57.361;   -7.934;  796.589
339.350;   55.911;   -4.414;  722.493
339.946;   57.211;   -4.664;  773.135
340.543;   50.011;   -6.375;  846.136
341.139;   44.048;   -9.815;  720.836
341.735;   41.539;   -4.526;  772.593
342.332;   40.392;   -4.895;  691.472
342.928;   40.830;   -4.295;  795.394
343.524;   34.974;   -5.476;  761.684
344.120;   29.879;   -5.856;  738.562
344.716;   34.102;   -2.155;  723.717
345.313;   31.320;   -6.275;  795.342
345.909;   26.672;   -8.815;  627.336
346.505;   27.289;   -5.305;  740.247
347.101;   28.582;   -2.674;  827.864
347.697;   28.658;   -4.344;  785.398
348.293;   23.480;   -9.975;  627.244
348.889;   23.985;   -5.774;  745.914
349.485;   23.275;   -5.004;  688.205
350.081;   23.430;   -4.704;  772.592
350.676;   18.707;   -6.635;  691.606
351.272;   23.556;   -4.504;  809.530
351.868;   22.927;   -3.914;  780.497
352.464;   20.952;   -9.044;  723.932
353.059;   17.384;   -8.314;  646.017
353.655;   20.246;   -7.024;  777.063
354.251;   21.309;   -5.343;  759.845
354.846;   15.392;   -8.604;  740.646
355.442;   13.561;   -6.945;  753.071
356.038;   15.598;   -7.564;  751.708
356.633;   15.441;   -5.814;  728.594
357.229;   13.873;   -7.364;  724.757
357.824;   11.124;   -8.024;  703.600
358.420;   10.851;   -9.384;  679.726
359.015;   11.142;   -5.104;  695.357
359.610;   12.378;   -6.854;  763.920
360.206;    7.062;  -10.185;  603.240
360.801;    9.194;   -7.054;  646.503
361.396;   11.130;   -5.034;  725.975
361.992;    6.614;   -8.284;  668.220
362.587;    3.858;   -8.625;  670.160
363.182;    5.688;   -7.674;  689.631
363.777;    6.350;   -5.164;  738.242
364.372;    6.375;   -8.604;  737.314
364.967;    2.420;   -9.055;  680.744
365.563;    7.301;   -6.114;  815.567
366.158;    3.745;   -5.814;  685.161
366.753;    4.281;   -7.854;  649.263
367.348;    2.300;   -7.804;  746.056
367.942;    2.271;   -7.954;  697.298
368.537;    1.596;   -4.984;  754.245
369.132;    1.599;   -8.564;  703.428
369.727;   -2.502;   -8.855;  638.079
370.322;   -0.564;   -6.245;  580.186
370.917;   -1.524;   -6.425;  710.646
371.511;    1.732;   -6.294;  861.834
372.106;   -2.493;   -7.685;  776.964
372.701;   -4.707;   -7.335;  585.988
373.296;    0.124;   -4.564;  863.135
373.890;   -4.530;  -10.235;  647.840
374.485;   -6.495;   -7.885;  691.199
375.079;   -2.536;   -7.324;  738.685
375.674;   -1.882;   -3.494;  812.970
376.268;   -5.096;   -8.525;  691.759
376.863;  -11.446;  -10.086;  580.327
377.457;   -4.888;   -7.025;  662.490
378.052;   -7.068;   -3.585;  764.884
378.646;   -8.662;   -7.595;  741.167
379.240;   -7.940;   -8.335;  721.176
379.835;   -7.163;   -5.785;  636.978
380.429;   -9.680;   -4.335;  562.557
381.023;   -8.967;   -6.805;  779.205
381.617;  -11.448;   -9.195;  680.106
382.212;   -8.704;   -6.905;  685.303
382.806;   -8.021;   -3.745;  760.690
383.400;  -11.569;   -7.745;  672.281
383.994;  -13.148;   -9.765;  664.870
384.588;   -9.045;   -6.564;  697.701
385.182;   -6.869;   -5.344;  726.624
385.776;   -9.174;   -8.514;  706.875
386.370;  -12.059;   -9.555;  681.968
386.964;  -11.014;   -8.715;  684.155
387.558;   -9.352;   -6.174;  598.360
388.152;  -12.983;   -8.725;  681.959
388.745;  -11.643;   -7.965;  814.707
389.339;   -9.693;   -5.924;  747.642
389.933;   -8.722;   -5.524;  695.370
390.527;  -10.331;   -7.114;  859.029
391.120;  -16.151;  -10.725;  595.318
391.714;  -12.583;   -8.035;  711.633
392.308;   -9.891;   -3.574;  780.253
392.901;  -13.301;   -7.245;  642.460
393.495;  -15.518;   -9.285;  595.414
394.089;  -13.616;   -5.895;  760.452
394.682;  -13.649;   -4.295;  697.188
395.275;  -14.289;   -9.875;  719.927
395.869;  -15.676;   -8.485;  667.314
396.462;  -14.483;   -7.455;  616.609
397.056;  -11.044;   -5.424;  776.621
397.649;  -14.647;   -6.605;  731.575
398.242;  -12.118;   -8.224;  712.645
398.836;  -11.801;   -7.474;  766.408
399.429;  -12.403;   -7.094;  631.041
400.022;  -16.136;   -9.475;  665.902
400.615;  -14.311;   -7.145;  805.609
401.208;  -11.908;   -7.174;  691.451
401.802;  -13.952;   -5.515;  699.329
402.395;  -15.916;   -9.875;  683.502
402.988;  -16.462;   -8.845;  696.627
403.581;  -13.040;   -8.874;  646.878
404.174;  -11.033;   -5.324;  686.568
404.767;  -14.409;   -9.575;  638.583
405.360;  -16.913;  -10.965;  621.445
405.953;  -10.935;   -8.764;  759.034
406.545;  -10.758;   -7.514;  725.342
407.138;  -14.930;  -10.025;  618.350
407.731;  -13.854;  -10.034;  613.303
408.324;   -9.237;   -9.374;  660.554
408.917;  -11.090;   -6.534;  681.864
409.509;  -12.962;   -8.004;  740.396
410.102;  -14.697;   -9.875;  643.948
410.695;   -9.091;   -8.604;  665.758
411.287;   -9.968;   -6.794;  599.821
411.880;  -11.691;   -9.334;  585.421
412.472;  -14.394;  -10.254;  613.092
413.065;  -10.356;   -6.714;  629.408
413.657;   -8.286;   -7.234;  576.678
414.250;   -8.621;  -10.544;  646.681
414.842;  -10.443;   -9.744;  676.353
415.434;   -8.818;   -6.994;  570.463
416.027;   -4.686;   -5.893;  652.196
416.619;   -6.486;   -7.264;  713.400
417.211;   -6.570;  -10.374;  599.352
417.804;   -3.137;   -7.993;  628.499
418.396;   -7.224;   -7.234;  607.643
418.988;   -5.140;   -9.443;  659.238
419.580;   -9.042;  -10.724;  568.276
420.172;   -6.053;  -10.323;  536.196
420.764;   -2.321;   -8.793;  672.482
421.356;   -3.388;  -11.143;  636.898
421.948;   -3.979;   -8.293;  677.661
422.540;    0.968;   -7.893;  680.027
423.132;   -0.034;   -7.082;  600.641
423.724;   -3.633;   -8.653;  561.267
424.316;   -1.181;  -10.213;  621.345
424.908;    1.685;   -9.762;  591.517
425.500;    2.506;   -5.572;  647.978
426.092;    2.427;   -8.422;  648.268
426.683;    2.271;   -9.283;  684.836
427.275;    4.917;   -7.852;  641.471
427.867;    6.354;   -5.272;  668.948
428.458;    6.434;   -7.682;  732.344
429.050;    4.768;  -10.612;  680.749
429.642;    7.451;   -9.882;  743.124
430.233;    7.619;   -6.962;  569.356
430.825;    8.910;   -6.842;  724.809
431.416;    6.098;   -9.672;  698.241
432.008;    9.932;   -6.552;  651.723
432.599;   11.041;   -6.891;  656.073
433.190;    7.629;  -10.912;  637.670
433.782;    7.172;  -11.172;  590.395
434.373;   14.458;   -6.061;  884.765
434.964;   12.845;   -8.251;  602.920
435.556;   11.040;   -9.722;  634.537
436.147;   13.329;   -9.082;  758.490
436.738;   14.105;   -8.041;  701.099
437.329;   18.103;   -7.341;  721.723
437.920;   11.503;   -8.162;  666.688
438.511;   11.776;  -11.802;  564.526
439.103;   17.543;  -10.191;  623.998
439.694;   19.573;   -7.601;  681.583
440.285;   19.876;   -8.541;  764.432
440.876;   18.101;   -9.751;  845.738
441.466;   18.021;   -9.401;  575.162
442.057;   23.549;   -7.760;  665.814
442.648;   22.197;   -9.971;  746.255
443.239;   20.304;  -11.001;  620.477
443.830;   24.990;   -7.990;  704.958
444.421;   26.786;   -7.910;  655.474
445.011;   23.136;   -8.131;  693.619
445.602;   23.016;   -7.111;  743.126
446.193;   25.027;  -10.920;  488.117
446.783;   29.704;   -6.500;  640.397
447.374;   24.891;   -8.671;  692.759
447.964;   25.226;  -10.781;  713.770
448.555;   33.707;   -9.650;  822.742
449.145;   30.306;   -8.660;  662.853
449.736;   31.275;   -8.990;  803.179
450.326;   30.512;   -9.500;  713.626
450.917;   36.100;   -8.680;  675.324
451.507;   33.635;   -7.520;  600.661
452.097;   35.106;   -8.590;  746.267
452.688;   36.528;  -11.340;  742.160
453.278;   36.158;  -10.100;  566.840
453.868;   41.057;   -6.019;  793.550
454.458;   37.891;   -9.440;  651.141
455.048;   39.243;  -10.560;  711.783
455.639;   40.816;  -11.799;  567.096
456.229;   43.976;   -6.899;  710.694
456.819;   46.121;   -7.389;  751.158
457.409;   45.617;  -11.119;  773.993
457.999;   47.844;   -9.289;  737.505
458.589;   48.043;   -6.139;  686.606
459.179;   47.624;   -8.729;  717.658
459.769;   47.029;   -9.789;  627.099
460.358;   51.079;  -10.259;  797.262
460.948;   51.156;   -7.299;  689.503
461.538;   52.891;  -10.289;  660.677
462.128;   50.231;  -11.269;  664.934
462.717;   57.538;   -9.368;  710.326
463.307;   60.462;   -7.908;  705.846
463.897;   55.964;   -9.599;  656.942
464.486;   54.896;   -9.769;  837.128
465.076;   58.947;   -8.048;  733.776
465.666;   62.789;   -9.358;  652.900
466.255;   60.245;   -7.919;  785.651
466.845;   59.565;  -11.689;  666.749
467.434;   63.012;   -7.818;  725.873
468.023;   63.935;   -7.678;  658.357
468.613;   61.018;  -10.939;  713.946
469.202;   66.150;  -10.118;  646.507
469.791;   70.342;   -9.108;  737.811
470.381;   71.583;   -6.058;  742.813
470.970;   71.266;  -10.428;  711.099
471.559;   70.852;  -10.268;  733.291
472.148;   73.895;   -8.448;  675.737
472.738;   76.539;   -6.917;  765.466
473.327;   76.253;  -11.978;  637.529
473.916;   75.284;  -11.888;  737.446
474.505;   80.263;   -9.437;  751.703
475.094;   83.313;   -6.747;  806.570
475.683;   81.914;   -9.367;  797.699
476.272;   82.918;  -12.637;  730.632
476.861;   85.842;  -10.027;  706.754
477.449;   92.329;   -8.716;  728.487
478.038;   86.351;   -9.577;  692.513
478.627;   88.160;   -9.718;  714.852
479.216;   94.420;   -8.947;  769.441
479.805;   97.307;   -6.256;  783.375
480.393;   97.377;   -7.937; 1008.945
480.982;   96.551;   -7.717;  874.501
481.571;  103.723;   -9.266;  858.333
482.159;  103.519;   -7.636;  705.386
482.748;  103.125;   -9.667;  821.385
483.336;  107.902;  -10.376;  858.209
483.925;  109.367;   -7.147;  774.373
484.513;  115.908;   -7.996;  758.962
485.102;  112.472;  -10.027;  810.965
485.690;  121.072;  -10.446; 1011.050
486.278;  122.488;   -8.446;  979.329
486.867;  123.910;   -6.356;  809.662
487.455;  126.102;   -9.136;  898.229
488.043;  127.874;  -10.646;  748.361
488.631;  137.210;   -7.456; 1005.079
489.220;  140.693;   -6.636;  908.626
489.808;  142.277;  -11.036;  741.415
490.396;  150.914;  -10.246;  914.645
490.984;  159.301;   -8.556;  830.161
491.572;  171.992;   -5.886;  940.315
492.160;  181.083;   -9.486;  919.081
492.748;  192.686;  -10.976;  884.341
493.336;  216.823;   -8.776; 1019.693
493.924;  252.579;   -5.465;  958.077
494.512;  298.492;   -9.986; 1066.638
495.100;  351.765;  -10.636; 1103.280
495.687;  428.385;  -10.885; 1206.373
496.275;  526.470;   -8.126; 1150.796
496.863;  619.645;  -10.586; 1281.171
497.451;  741.129;  -11.926; 1386.805
498.038;  860.653;  -10.885; 1556.729
498.626; 1014.414;   -6.315; 1741.407
499.214; 1257.696;   -7.326; 2016.609
499.801; 1512.412;  -11.906; 2220.633
500.389; 1850.872;  -10.466; 2312.494
500.976; 2172.862;   -5.236; 2744.849
501.564; 2706.854;   -8.936; 3148.565
502.151; 3417.935;  -13.176; 3515.999
502.738; 3849.522;  -10.646; 3971.274
503.326; 4300.781;   -9.525; 4403.796
503.913; 4704.702;  -10.856; 5161.749
504.500; 5209.000;  -11.586; 5986.420
505.088; 5843.462;  -10.336; 6381.201
505.675; 6826.089;   -6.355; 6925.547
506.262; 7479.729;   -9.046; 7619.060
506.849; 7805.154;  -10.416; 8733.969
507.436; 8313.522;  -10.305; 9790.121
508.023; 8832.724;   -5.496; 9985.472
508.610; 8847.049;   -7.856;10434.618
509.197; 9814.982;  -10.097;11198.435
509.784;11151.625;  -10.886;12391.194
510.371;12519.651;   -9.315;13603.713
510.958;13773.943;   -9.936;14426.586
511.545;14332.669;   -9.326;15243.775
512.132;14489.531;  -10.075;15945.876
512.719;14890.750;   -7.796;16340.369
513.305;16072.152;  -10.606;18011.766
513.892;17658.857;  -11.486;19754.971
514.479;18875.693;   -9.126;20967.805
515.066;20120.955;   -6.026;22299.793
515.652;20233.799;   -8.466;22908.660
516.239;20769.277;  -10.886;23798.875
516.825;22462.119;  -11.496;25567.275
517.412;23880.658;   -5.796;28154.959
517.998;24918.684;  -10.506;28344.111
518.585;25508.875;  -10.076;27134.219
519.171;24850.023;   -8.315;27268.576
519.758;25665.871;   -8.596;28964.129
520.344;28301.393;   -8.466;30664.494
520.930;27276.670;  -11.006;32550.605
521.516;25289.354;  -10.495;35422.895
522.103;26933.023;   -5.526;38280.004
522.689;29276.602;   -8.746;37835.117
523.275;30109.070;  -11.376;37288.613
523.861;32197.355;  -11.156;37281.395
524.447;32423.854;   -8.135;37846.949
525.033;32474.656;   -7.896;38321.949
525.619;32914.770;  -12.476;38579.285
526.205;32987.070;   -9.516;40622.875
526.791;32515.457;   -6.926;42258.836
527.377;32461.959;   -8.346;42966.902
527.963;33716.285;   -8.717;42018.949
528.549;35526.039;  -11.016;42476.828
529.135;34140.383;   -8.536;41854.852
529.721;33747.754;   -9.666;41237.711
530.306;32712.266;  -10.066;41259.445
530.892;33729.098;  -11.356;41506.047
531.478;35596.859;   -6.596;43559.613
532.063;36944.391;   -8.836;47695.563
532.649;35517.352;  -10.047;50808.324
533.235;35904.688;   -9.746;51787.500
533.820;37786.293;   -6.566;52145.035
534.406;39639.371;  -10.817;51133.488
534.991;41414.328;   -9.416;49996.805
535.576;40259.785;   -9.036;48882.852
536.162;37515.266;   -6.156;46942.285
536.747;37730.832;  -11.607;45711.746
537.333;40505.387;  -11.787;48510.180
537.918;41187.117;  -12.437;50439.891
538.503;40806.660;   -7.196;50863.711
539.088;41053.828;  -10.556;50906.922
539.673;41885.277;   -8.767;52621.965
540.259;39382.328;  -10.026;52368.094
540.844;38520.484;   -7.416;50879.109
541.429;38115.148;   -9.467;52077.777
542.014;37500.188;   -9.527;52716.695
542.599;40123.574;   -9.946;52363.281
543.184;41957.426;   -7.927;53187.137
543.769;41938.813;   -9.297;54697.605
544.354;41950.457;  -10.127;53913.914
544.938;40242.109;   -9.267;49680.164
545.523;38495.238;   -6.506;47386.277
546.108;39868.305;   -9.787;49151.949
546.693;40339.930;  -11.587;51384.637
547.278;41230.262;  -10.986;51853.254
547.862;42037.727;   -8.206;51173.750
548.447;40177.836;  -10.067;51691.395
549.031;39643.707;   -9.637;52456.703
549.616;40341.539;   -9.926;52714.516
550.201;39746.363;   -6.347;52414.598
550.785;40441.070;   -7.917;52355.059
551.370;41510.148;  -10.867;54589.453
551.954;44258.672;   -9.047;58267.348
552.538;43592.457;   -7.827;59062.176
553.123;41280.340;  -10.287;58115.285
553.707;40363.598;  -12.178;56556.285
554.291;38164.105;   -8.717;56201.668
554.876;38700.363;   -7.457;55335.762
555.460;40622.297;  -10.387;54155.703
556.044;43077.090;   -9.618;53721.484
556.628;43909.852;  -11.567;53731.016
557.212;44059.000;   -8.097;54312.531
557.796;45936.379;  -11.077;53797.773
558.380;43986.734;  -11.108;56145.984
558.964;42161.367;   -9.057;57277.930
559.548;39410.699;   -6.977;56459.641
560.132;36389.836;  -11.457;54434.543
560.716;38386.387;  -11.378;54800.617
561.300;40762.234;   -9.577;57606.945
561.884;39313.547;   -7.127;58972.445
562.467;37903.180;   -7.118;57327.570
563.051;36847.961;  -13.358;54962.434
563.635;35394.176;  -10.178;52594.473
564.219;37217.680;   -7.837;50610.410
564.802;40350.469;  -11.398;49551.180
565.386;41229.727;  -12.788;48370.953
565.969;42402.012;   -9.077;48178.871
566.553;40874.258;   -6.207;49957.305
567.136;39010.715;   -8.568;50369.594
567.720;39474.063;  -11.868;49492.004
568.303;40413.102;   -8.268;50616.352
568.887;40617.648;   -8.698;50727.148
569.470;38969.332;   -6.808;51698.379
570.053;36901.895;  -13.188;52122.078
570.637;34341.563;  -12.037;52536.438
571.220;33949.484;   -8.577;51186.098
571.803;34443.777;   -8.498;51032.762
572.386;36381.461;  -10.498;49609.887
572.969;36707.184;   -9.388;48285.926
573.552;36292.930;   -8.338;47624.285
574.135;34689.379;   -8.518;45498.641
574.718;31540.951;  -13.628;41970.434
575.301;33283.473;  -10.893;41447.137
575.884;35026.000;   -8.158;40923.836
576.467;39819.754;  -10.328;45267.723
577.050;39941.680;  -13.058;48175.543
577.633;38222.449;   -9.458;47729.328
578.216;35123.941;   -8.928;47579.793
578.799;32868.461;   -9.358;47820.996
579.381;33770.309;  -11.388;48115.551
579.964;34273.594;  -11.718;47333.766
580.547;33377.367;   -8.588;46668.969
581.129;33952.160;   -8.859;44466.141
581.712;35289.391;  -10.729;44164.922
582.294;34989.852;  -11.118;46477.855
582.877;35608.242;   -5.218;48244.254
583.459;35541.719;   -8.679;47437.895
584.042;36805.977;  -10.709;46943.219
584.624;35553.375;  -11.669;46792.227
585.206;34602.418;   -8.218;46557.250
585.789;35752.148;  -10.569;45793.773
586.371;35995.090;  -11.859;43836.391
586.953;36865.895;  -10.719;42972.492
587.536;38272.590;   -7.198;42487.211
588.118;37467.133;   -8.720;42086.414
588.700;36580.070;  -10.439;43389.930
589.282;33672.129;   -9.198;43646.039
589.864;31500.373;   -9.199;43438.109
590.446;31453.428;  -11.319;43151.926
591.028;30918.814;  -11.159;42781.867
591.610;30820.305;  -11.779;42839.098
592.192;31214.854;   -7.668;42820.402
592.774;29162.025;  -11.949;40724.277
593.356;25566.590;  -12.129;39874.789
593.937;25553.609;  -10.669;39980.648
594.519;29957.627;   -6.509;42069.633
595.101;32156.070;  -10.849;42976.031
595.683;31913.152;  -11.679;44084.441
596.264;31260.434;   -9.049;43478.797
596.846;31136.420;   -8.849;43803.672
597.427;30881.094;   -9.570;42986.934
598.009;32467.768;  -12.620;42832.219
598.591;32495.072;  -10.039;42580.086
599.172;34081.129;  -10.369;43061.805
599.753;36518.527;   -9.140;41691.469
600.335;35874.570;  -11.430;40692.520
600.916;33654.488;   -9.939;39982.422
601.498;30769.475;   -8.479;40318.617
602.079;30422.133;  -10.920;40670.609
602.660;29998.965;  -11.480;41450.898
603.241;30384.549;  -11.699;41137.738
603.823;30701.252;   -9.579;38868.797
604.404;30413.732;  -10.620;38182.785
604.985;33021.855;  -10.450;38078.047
605.566;34023.504;   -9.129;38056.633
606.147;34663.086;   -7.510;37020.418
606.728;33656.656;  -10.660;37883.359
607.309;32124.141;  -11.740;38748.273
607.890;32182.715;   -9.759;38850.230
608.471;30583.639;   -8.250;37457.918
609.051;30550.561;   -9.240;36066.457
609.632;30712.047;  -12.120;35991.074
610.213;30278.627;   -9.110;37402.641
610.794;31201.135;   -8.030;38383.363
611.374;29705.176;   -8.110;40562.387
611.955;29542.023;  -13.560;38533.727
612.536;30775.939;  -11.400;36951.789
613.116;30431.375;   -8.070;37197.891
613.697;30940.996;  -10.830;38411.125
614.277;30803.518;  -11.641;38673.938
614.858;30408.650;  -13.310;37075.863
615.438;30160.377;   -7.460;35092.906
616.019;28373.287;   -7.601;33666.301
616.599;28870.965;  -12.020;34189.023
617.179;28787.557;  -11.780;36952.047
617.760;28106.465;   -8.570;39582.574
618.340;28072.184;  -11.471;38943.977
618.920;28291.152;  -11.170;37594.156
619.500;29306.523;  -11.071;37866.938
620.080;29478.912;   -7.750;37869.043
620.660;30090.379;  -12.711;36868.617
621.241;31231.229;  -10.211;36352.309
621.821;30489.188;  -10.961;35459.520
622.401;30712.373;   -7.720;35207.414
622.980;32692.668;   -8.981;35980.422
623.560;31447.100;   -9.331;37351.328
624.140;27362.285;   -9.850;34388.582
624.720;23007.852;   -7.451;32368.764
625.300;22508.311;   -9.070;32638.629
625.880;26931.752;  -12.601;34599.035
626.459;30151.289;  -11.751;36831.738
627.039;30067.576;   -9.281;38299.098
627.619;29333.758;   -8.801;38289.574
628.198;29663.021;  -12.071;37220.695
628.778;30479.287;   -9.461;37632.563
629.357;30989.963;   -8.491;38003.012
629.937;30333.980;   -9.721;38402.039
630.516;30959.645;   -9.951;37868.801
631.096;32427.875;  -11.731;35760.410
631.675;34783.746;   -8.572;35225.219
632.254;34286.898;  -11.282;35130.289
632.834;33154.484;  -13.322;35794.570
633.413;34022.168;  -10.301;35788.922
633.992;33964.852;   -8.582;34532.863
634.571;34789.980;   -8.352;33590.113
635.151;33798.359;  -11.912;34943.863
635.730;31988.771;  -10.511;35352.523
636.309;32174.195;   -7.731;35366.605
636.888;31990.275;   -9.952;36165.637
637.467;30871.971;  -11.672;37515.902
638.046;29105.723;   -8.901;39288.695
638.625;28336.754;   -7.912;38279.699
639.204;27979.723;  -10.022;37741.598
639.782;29467.025;  -12.252;38364.551
640.361;31642.326;  -10.041;36740.621
640.940;31864.025;  -11.161;34950.082
641.519;31084.869;   -9.701;34137.398
642.097;32063.818;  -11.271;35654.258
642.676;32132.223;   -8.651;35637.957
643.255;31241.398;   -8.711;36567.074
643.833;30589.010;   -9.581;37809.434
644.412;30801.361;  -13.711;37337.293
644.990;31957.059;  -11.811;37018.531
645.569;34979.777;   -9.411;36518.469
646.147;35933.867;  -10.291;36186.430
646.726;34143.066;  -12.401;36267.688
647.304;32700.008;  -10.411;36647.625
647.882;33611.563;   -9.651;39286.742
648.461;33521.266;   -9.631;39157.703
649.039;31211.914;  -11.881;35412.883
649.617;31150.219;   -9.661;34744.918
650.195;31479.783;   -9.301;35403.098
650.773;30385.209;  -10.511;35053.797
651.352;30142.963;  -11.521;33756.816
651.930;28899.197;  -12.211;31868.773
652.508;27995.928;   -9.171;33121.551
653.086;29557.797;   -9.371;33564.793
653.663;31553.963;  -13.161;34054.668
654.241;30355.805;  -13.031;35693.309
654.819;28472.217;   -9.371;36422.906
655.397;28735.178;  -10.511;38213.484
655.975;29310.535;  -10.371;39507.625
656.553;30169.631;  -10.051;39498.223
657.130;30628.406;  -10.061;40395.480
657.708;27899.846;   -9.561;39242.020
658.286;25471.338;  -11.511;38920.020
658.863;25783.268;  -10.261;40202.898
659.441;28296.604;   -7.531;39677.938
660.018;30796.551;   -9.501;40413.355
660.596;31279.768;  -13.301;39931.414
661.173;33688.625;  -11.211;39604.531
661.750;33309.090;   -9.951;39700.070
662.328;31085.691;   -9.390;39292.809
662.905;29889.924;  -11.330;38235.648
663.482;26675.834;   -9.050;36212.305
664.060;24187.264;   -8.240;35944.945
664.637;28254.225;  -10.050;35170.785
665.214;33072.766;  -11.760;34197.523
665.791;32044.443;  -10.530;34549.520
666.368;31466.115;   -9.690;35118.578
666.945;31484.963;   -9.320;36019.418
667.522;32236.238;  -11.860;36048.438
668.099;31140.352;  -10.770;36243.914
668.676;31227.020;   -6.260;35958.875
669.253;33373.465;   -7.000;37384.730
669.830;33643.016;  -10.190;36779.629
670.407;32552.977;   -9.550;35231.289
670.984;32232.447;   -9.260;35544.270
671.560;31010.119;   -9.280;35466.867
672.137;29011.668;  -11.810;34280.863
672.714;28996.605;  -11.490;34632.863
673.290;29773.770;   -7.740;35135.422
673.867;30373.225;  -10.660;36114.480
674.443;29685.059;  -12.230;36152.859
675.020;27974.453;  -10.450;35327.238
675.596;26479.311;   -9.260;35795.176
676.173;27342.725;  -10.780;35430.355
676.749;28153.775;  -13.690;33549.516
677.326;29258.578;  -11.980;32210.012
677.902;27696.031;   -8.630;32068.871
678.478;25955.273;  -10.730;32583.891
679.054;27180.834;  -10.520;32088.928
679.631;28850.445;  -11.920;30978.848
680.207;30039.500;   -7.490;33160.887
680.783;31029.447;   -9.860;35570.363
681.359;31905.805;  -13.380;36125.184
681.935;30886.398;  -12.480;35240.922
682.511;31190.314;   -7.900;34429.961
683.087;31458.418;   -7.710;34463.680
683.663;31704.752;  -11.480;34648.898
684.239;31217.688;  -14.090;34546.457
684.815;32361.096;   -7.560;35586.375
685.390;32781.781;   -9.910;35821.895
685.966;32652.322;  -11.159;35085.871
686.542;32836.465;  -11.169;34198.230
687.118;31036.105;   -5.959;32847.707
687.693;31240.828;  -10.329;32794.027
688.269;30577.932;  -12.059;33072.367
688.844;31271.861;  -10.909;33141.664
689.420;32208.736;   -8.019;33965.742
689.995;29282.432;   -8.399;34655.523
690.571;28842.535;  -10.949;33576.742
691.146;28410.793;   -9.619;32657.219
691.722;26465.557;   -8.999;32526.979
692.297;25230.188;  -11.589;33014.617
692.872;25503.043;  -11.739;34012.254
693.448;25982.057;  -11.059;34237.434
694.023;28083.334;  -10.139;34142.672
694.598;30352.486;   -9.029;34132.031
695.173;30216.547;  -13.319;34205.250
695.748;27469.500;  -10.169;32882.488
696.323;24985.047;   -8.339;32864.906
696.898;24387.529;   -8.169;33170.004
697.473;27441.117;  -12.309;32432.984
698.048;27572.100;  -10.989;31649.303
698.623;26845.756;   -9.329;30778.141
699.198;28117.750;   -9.849;31140.119
699.773;29062.514;  -12.329;31764.299
700.348;28761.928;  -10.389;31780.816
700.922;27047.840;   -9.269;32046.375
701.497;25933.469;   -9.329;32603.574
702.072;27946.885;  -10.789;34799.871
702.646;27804.072;  -10.839;35793.172
703.221;28200.371;   -9.099;35201.590
703.795;28549.217;  -10.939;34764.527
704.370;27067.922;  -12.859;34307.367
704.944;28296.807;  -11.559;33509.887
705.519;29754.641;   -7.939;31388.584
706.093;32063.348;  -10.499;31340.104
706.668;33147.422;  -11.289;32630.281
707.242;32021.617;  -11.509;32728.779
707.816;30505.570;   -9.639;32947.238
708.390;30088.561;  -11.429;33277.855
708.965;31329.527;  -11.869;33834.336
709.539;31203.900;  -11.689;33709.273
710.113;30347.898;  -10.478;33044.313
710.687;27644.178;  -10.228;31953.992
711.261;26821.328;  -13.698;30505.949
711.835;26561.783;  -13.378;30262.369
712.409;26736.309;   -9.698;31254.447
712.983;26696.145;  -11.898;32754.986
713.557;25754.787;  -15.138;34018.824
714.131;27059.871;  -14.098;34579.625
714.704;26805.695;   -9.958;33890.262
715.278;25938.691;  -10.028;33531.102
715.852;25146.654;  -11.148;33601.660
716.425;24705.064;   -9.068;33515.117
716.999;26048.436;  -10.038;33185.555
717.573;26513.375;   -9.798;33905.996
718.146;27622.117;  -12.378;35199.293
718.720;28465.010;  -11.918;35060.551
719.293;27615.299;   -8.088;34973.230
719.867;26830.363;  -10.888;36394.449
720.440;27783.973;  -11.938;36663.008
721.013;29716.762;  -12.818;35102.426
721.587;30931.412;  -10.298;33985.266
722.160;30577.512;  -10.048;33524.965
722.733;28966.449;  -12.108;32987.043
723.306;26969.996;  -10.818;33066.301
723.880;27712.006;   -8.908;33399.500
724.453;26979.121;   -9.878;33468.297
725.026;26608.182;  -11.188;33816.637
725.599;26573.148;  -11.678;32797.996
726.172;25902.338;   -9.618;33187.434
726.745;26537.652;   -8.258;35136.613
727.318;29464.826;  -12.978;35751.730
727.891;31698.748;  -12.148;35890.430
728.463;33186.566;   -8.968;34822.090
729.036;33284.898;  -10.188;32895.086
729.609;30855.557;  -11.788;31823.225
730.182;29211.012;  -11.788;31445.283
730.754;28548.563;  -10.268;32373.223
731.327;28090.271;   -9.998;33676.820
731.900;26896.154;  -12.228;33417.000
732.472;25872.600;  -13.848;31978.498
733.045;25955.971;   -8.698;30368.777
733.617;25531.602;  -10.607;30574.215
734.190;24023.344;  -11.507;31280.975
734.762;24159.799;  -13.647;31674.412
735.334;25672.682;   -9.767;31247.291
735.907;26122.992;   -9.897;29876.211
736.479;24126.590;  -11.637;29808.488
737.051;23615.432;   -9.567;30233.547
737.623;24682.350;   -8.187;31469.086
738.195;26567.410;  -11.187;31784.225
738.768;26567.711;  -12.337;32120.523
739.340;25645.404;  -12.227;32094.342
739.912;25059.725;  -11.057;31312.680
740.484;26004.547;  -10.207;31946.238
741.056;27245.598;  -10.047;32984.059
741.628;26721.977;  -13.627;33897.715
742.199;27013.066;   -7.177;33213.016
742.771;25323.639;  -10.797;31369.113
743.343;23765.172;  -11.997;31865.473
743.915;23899.834;  -12.867;32388.631
744.487;24601.096;   -7.617;31079.568
745.058;26052.361;   -9.557;30570.107
745.630;25927.305;   -9.877;29970.127
746.201;24529.359;  -14.177;29186.766
746.773;24051.393;   -9.237;28805.723
747.344;24242.223;   -9.847;29591.223
747.916;24155.377;  -11.657;31412.201
748.487;23558.299;  -10.587;32194.898
749.059;23423.805;   -8.707;32533.719
749.630;22585.484;  -10.537;32158.518
750.201;23092.477;  -11.687;30855.395
750.773;23229.838;  -11.647;28622.555
751.344;24423.055;   -7.147;28405.732
751.915;24344.863;   -9.757;28461.551
752.486;23723.354;  -12.427;27842.850
753.057;22006.891;  -12.227;27845.008
753.628;21248.717;  -10.417;27728.107
754.199;21430.521;  -11.767;27381.086
754.770;21111.568;  -11.187;25882.203
755.341;20723.453;  -10.507;25886.184
755.912;20886.229;   -9.387;26050.861
756.483;21206.730;  -10.647;26798.779
757.054;20792.996;  -11.837;27048.238
757.625;19021.275;  -12.716;26294.838
758.195;18265.592;   -9.666;26142.076
758.766;19071.604;   -8.656;26392.234
759.337;18821.355;  -12.856;26334.594
759.907;18024.738;  -13.366;27579.652
760.478;17199.354;   -8.576;28352.770
761.048;17774.404;  -10.526;27325.088
761.619;18276.479;  -11.116;26460.428
762.189;17711.555;  -12.136;26029.826
762.760;17606.996;   -9.456;26430.145
763.330;17808.254;   -7.136;26670.902
763.900;18105.924;  -11.786;26603.021
764.471;17659.992;  -11.546;25542.740
765.041;17324.117;   -8.096;24358.459
765.611;17127.035;   -8.876;23991.297
766.181;16980.986;  -12.196;24470.236
766.751;17427.834;  -11.636;24845.975
767.321;17297.340;  -10.156;24533.633
767.891;17030.768;  -11.766;24916.492
768.461;16865.990;  -14.936;24776.771
769.031;16214.544;  -12.356;24757.988
769.601;15972.106;   -7.526;24181.088
770.171;16192.979;  -10.766;23670.387
770.741;16575.441;  -13.176;22960.045
771.311;16229.212;  -10.616;22917.523
771.880;15245.273;   -9.576;23562.941
772.450;14739.091;  -10.336;24216.500
773.020;14876.671;  -13.516;24140.398
773.589;14716.482;  -13.466;24414.857
774.159;14156.411;   -8.686;23858.717
774.729;13542.301;   -9.476;22942.135
775.298;13546.732;  -13.666;22324.033
775.867;13555.823;  -11.716;21140.313
776.437;13052.096;   -9.906;20838.092
777.006;12816.479;  -12.166;20599.510
777.576;13784.472;  -12.356;20508.809
778.145;13139.466;  -11.646;20732.947
778.714;11962.075;   -8.226;21062.465
779.283;11638.937;   -9.556;20949.664
779.853;11588.726;  -14.116;20508.623
780.422;11793.704;  -11.506;20649.082
780.991;12135.107;   -9.556;21527.520
781.560;12623.943;   -9.095;22632.658
782.129;11636.642;  -12.135;23048.277
782.698;10493.099;  -10.865;23438.555
783.267; 9970.014;   -9.335;23267.734
783.836;10374.335;  -11.045;22415.133
784.404;11096.986;  -13.865;20443.152
784.973;11229.639;  -13.095;19699.150
785.542;11097.488;  -11.575;19763.828
786.111;10978.598;   -9.705;20341.408
786.679;10851.342;  -12.105;20207.967
787.248;10568.116;  -12.455;19516.465
787.817;10428.694;  -11.535;18900.363
788.385;10373.068;   -9.765;17879.121
788.954;10379.891;  -14.005;17658.301
789.522;10319.359;  -11.955;17788.879
790.090; 9546.345;  -10.135;18118.277
790.659; 8748.061;  -10.975;18338.736
791.227; 8749.487;  -13.375;18508.615
791.795; 9035.781;  -12.375;17898.254
792.364; 9245.437;  -10.725;17295.133
792.932; 9663.702;   -9.715;16822.051
793.500; 9615.887;  -12.675;17040.148
794.068; 9967.912;  -13.495;17179.787
794.636;10217.792;  -10.885;16664.246
795.204;10069.798;  -11.045;16524.545
795.772;10168.245;  -13.175;17274.564
796.340;10064.490;  -12.445;17891.002
796.908;10389.457;   -9.735;17648.561
797.476;10730.563;   -9.815;17064.080
798.044;10301.909;  -13.985;16672.777
798.612; 9889.030;  -13.115;17023.996
799.180; 9279.965;  -10.185;16561.615
799.747; 8962.247;   -9.055;15962.773
800.315; 9190.972;  -12.385;15296.992
800.883; 8711.397;  -15.035;14801.771
801.450; 8057.412;  -10.365;14534.430
802.018; 7789.159;   -9.855;14173.248
802.585; 7760.794;  -11.905;14029.547
803.153; 7998.388;  -11.585;13836.846
803.720; 7867.848;   -9.095;13567.324
804.287; 7891.923;   -9.135;13360.622
804.855; 8112.426;  -11.604;13681.981
805.422; 8398.381;  -11.794;13536.560
805.989; 8629.981;  -10.734;13355.958
806.556; 8639.270;  -10.444;13747.896
807.124; 9088.995;  -12.764;13987.376
807.691; 9749.229;  -12.964;14038.674
808.258; 9823.030;  -11.134;14120.152
808.825; 9829.549;   -9.854;13860.111
809.392; 9532.492;  -10.504;13268.790
809.959; 8906.314;  -13.054;12680.389
810.526; 8201.103;   -8.294;12427.308
811.093; 7503.850;   -8.394;12030.105
811.659; 7343.655;  -12.304;11653.664
812.226; 7536.834;  -13.944;11637.183
812.793; 7894.431;  -10.484;11611.521
813.360; 7979.125;  -10.144;11885.181
813.926; 7980.705;  -11.684;12770.539
814.493; 7860.971;  -13.644;12677.638
815.060; 7614.918;   -9.724;11974.336
815.626; 7724.262;   -9.854;11594.715
816.193; 7877.899;  -13.254;11579.474
816.759; 7305.853;  -13.204;11666.972
817.325; 6846.260;   -9.434;11325.530
817.892; 6665.664;  -10.134;11105.369
818.458; 6824.274;  -13.474;10843.928
819.024; 7318.319;  -11.854;10714.406
819.591; 7390.948;  -10.244;10469.165
820.157; 7145.252;  -10.704;10235.523
820.723; 7133.831;  -12.324;10847.563
821.289; 7052.777;   -9.444;11040.980
821.855; 7060.635;   -8.374;10357.100
822.421; 7326.729;  -10.234; 9978.918
822.987; 7257.508;  -13.294; 9754.177
823.553; 6893.517;  -10.884;10065.755
824.119; 6590.188;   -8.884;10036.294
824.685; 6050.145;   -6.784;10029.192
825.251; 5922.043;  -12.004;10199.230
825.816; 5608.260;  -11.474; 9820.189
826.382; 5378.135;   -9.174; 9297.248
826.948; 5711.100;   -9.214; 9381.347
827.513; 6156.851;  -10.774; 9450.726
828.079; 6217.957;  -11.924; 9472.444
828.645; 5946.138;  -10.543; 9292.643
829.210; 5773.177;  -10.533; 9065.341
829.776; 5689.568;  -10.753; 9132.620
830.341; 5839.489;  -10.173; 9092.878
830.906; 5821.519;  -10.743; 9078.557
831.472; 5513.355;  -11.113; 8534.535
832.037; 5122.780;  -10.603; 8677.874
832.602; 5002.198;  -13.323; 8628.692
833.167; 4772.349;  -10.823; 8879.031
833.733; 4593.742;  -10.113; 9189.790
834.298; 4447.448;  -13.583; 9052.608
834.863; 4642.504;  -12.703; 8895.087
835.428; 4883.184;  -10.523; 8824.266
835.993; 4845.163;   -6.963; 8845.385
836.558; 4797.666;  -10.763; 8888.563
837.123; 4910.524;   -9.903; 8966.582
837.688; 5262.885;   -9.913; 8617.860
838.253; 5305.703;  -10.283; 8590.699
838.817; 4895.455;  -12.963; 8443.797
839.382; 4719.575;  -14.243; 8799.356
839.947; 4873.121;  -10.733; 8810.595
840.511; 4948.426;   -9.383; 8796.394
841.076; 4829.144;  -12.563; 8347.231
841.641; 4680.806;  -12.953; 8224.330
842.205; 4527.212;   -7.043; 8223.349
842.770; 4302.745;   -8.163; 8622.107
843.334; 4464.838;  -12.503; 8410.386
843.898; 4600.391;  -11.693; 8337.465
844.463; 4168.997;  -10.203; 8506.283
845.027; 3890.885;   -9.533; 8280.962
845.591; 3959.720;  -13.443; 8231.141
846.156; 4057.360;  -13.143; 7969.179
846.720; 3873.674;   -9.433; 7768.278
847.284; 3769.119;  -11.033; 7630.957
847.848; 3779.755;  -10.403; 7472.395
848.412; 3615.448;  -11.553; 7437.394
848.976; 3507.738;   -8.393; 7674.592
849.540; 3449.802;   -8.713; 7836.011
850.104; 3434.459;  -12.463; 7913.669
850.668; 3495.358;  -12.973; 7694.508
851.232; 3448.688;  -10.793; 7756.887
851.796; 3448.423;  -10.662; 7926.545
852.359; 3546.321;  -13.082; 7827.844
852.923; 3537.444;  -12.192; 7641.163
853.487; 3559.337;  -11.912; 7342.501
854.050; 3442.577;  -10.892; 7042.820
854.614; 3505.399;  -13.992; 7151.338
855.177; 3595.604;  -11.732; 7105.077
855.741; 3477.705;   -8.962; 6989.675
856.304; 3326.573;   -9.442; 6596.634
856.868; 3206.845;  -14.192; 6356.272
857.431; 3156.745;  -12.702; 6468.571
857.995; 3152.099;   -9.942; 6373.210
858.558; 3220.007;   -9.112; 6324.448
859.121; 3130.023;  -12.932; 6408.327
859.684; 3036.625;  -13.442; 6347.886
860.247; 2996.405;  -10.632; 6321.264
860.810; 2930.608;  -11.272; 6301.903
861.374; 2837.444;   -9.832; 6607.881
861.937; 2743.131;  -11.762; 6408.200
862.500; 2744.394;   -9.722; 6572.639
863.062; 2750.834;  -10.512; 6387.297
863.625; 2775.590;  -11.232; 6190.836
864.188; 2828.403;  -14.112; 5807.254
864.751; 2838.890;  -11.302; 5682.413
865.314; 2703.975;  -10.112; 5547.492
865.876; 2524.065;  -12.182; 5500.150
866.439; 2371.121;  -10.722; 5415.909
867.002; 2284.636;   -9.252; 5501.567
867.564; 2336.790;   -9.572; 5413.946
868.127; 2378.105;  -13.142; 5160.325
868.689; 2496.409;  -12.902; 5133.183
869.252; 2635.160;   -9.732; 5252.382
869.814; 2558.146;   -9.432; 5297.141
870.377; 2436.340;  -11.552; 5390.919
870.939; 2405.376;   -9.052; 5599.898
871.501; 2351.534;  -10.982; 5248.336
872.063; 2245.256;  -12.292; 4854.235
872.626; 2182.090;  -14.912; 4817.074
873.188; 2079.959;  -13.112; 4987.732
873.750; 2047.975;  -13.442; 4868.651
874.312; 2012.540;   -9.402; 4779.330
874.874; 1972.040;  -11.062; 4866.348
875.436; 1862.450;  -13.931; 4718.887
875.998; 1751.848;   -9.561; 4660.005
876.560; 1742.754;  -11.321; 4462.964
877.122; 1806.145;  -12.221; 4145.042
877.683; 1921.906;  -12.191; 4056.481
878.245; 1966.145;  -12.101; 3950.740
878.807; 1992.366;   -8.971; 4058.958
879.369; 1935.454;  -12.071; 3954.677
879.930; 1794.558;  -14.621; 3941.495
880.492; 1695.309;  -10.311; 4067.014
881.053; 1702.600;  -10.901; 3859.633
881.615; 1699.107;  -14.411; 3776.071
882.176; 1622.982;  -13.761; 3734.750
882.738; 1536.706;   -9.181; 3678.489
883.299; 1519.887;  -11.791; 3405.407
883.860; 1532.660;  -13.121; 3351.106
884.422; 1476.522;  -11.211; 3394.044
884.983; 1384.333;  -10.091; 3166.443
885.544; 1331.407;   -8.461; 3189.802
886.105; 1262.651;  -12.361; 3160.360
886.666; 1205.682;  -14.141; 3093.059
887.227; 1178.759;  -11.361; 2941.957
887.788; 1118.869;  -11.401; 2974.836
888.349; 1013.426;  -13.791; 2721.214
888.910;  971.578;  -13.191; 2696.493
889.471;  939.925;   -9.881; 2560.172
890.032;  951.879;   -9.881; 2558.190
890.593;  943.712;  -10.371; 2567.669
891.153;  853.168;  -13.301; 2460.307
891.714;  737.682;  -11.431; 2372.046
892.275;  687.617;  -11.291; 2309.505
892.835;  700.854;  -11.471; 2382.543
893.396;  694.031;  -11.541; 2295.502
893.956;  664.488;  -11.181; 2162.420
894.517;  616.680;  -11.741; 2125.439
895.077;  556.511;  -11.671; 2086.978
895.638;  514.305;  -11.311; 2126.316
896.198;  503.293;   -9.831; 1838.275
896.758;  488.289;   -8.421; 1892.813
897.319;  465.436;  -12.351; 1792.232
897.879;  446.769;  -13.511; 1762.751
898.439;  414.773;  -12.001; 1661.149
898.999;  392.376;  -10.180; 1781.468
899.559;  388.344;  -12.030; 1703.347
900.119;  378.266;  -15.710; 1537.525
900.679;  363.342;   -8.900; 1638.384
901.239;  341.051;   -8.340; 1527.902
901.799;  311.876;  -13.910; 1456.441
902.359;  288.709;  -13.460; 1357.140
902.919;  280.706;  -11.490; 1331.118
903.479;  279.599;  -12.110; 1317.257
904.038;  273.847;  -11.720; 1262.595
904.598;  265.665;  -13.610; 1152.034
905.158;  253.765;  -11.040; 1240.893
905.717;  237.830;  -10.900; 1233.691
906.277;  227.908;  -15.080; 1217.330
906.836;  224.965;  -13.380; 1222.408
907.396;  221.441;  -10.780; 1193.047
907.955;  214.210;   -8.500; 1182.526
908.515;  208.710;  -12.760; 1099.364
909.074;  207.287;  -11.900; 1092.863
909.633;  207.430;   -8.950; 1069.121
910.192;  204.261;   -8.770; 1196.460
910.752;  193.981;  -12.390; 1029.960
911.311;  183.499;  -13.680; 1009.780
911.870;  174.473;  -12.370;  971.460
912.429;  169.021;  -10.900; 1094.080
912.988;  166.598;  -11.690; 1081.060
913.547;  163.544;  -13.240;  940.380
914.106;  163.225;  -11.990;  999.420
914.665;  161.346;   -9.990;  984.020
915.224;  159.146;  -12.880; 1035.760
915.782;  155.314;  -12.350;  922.560
916.341;  155.815;   -9.110; 1049.840
916.900;  152.658;   -9.270;  925.260
917.458;  151.305;  -13.240;  884.220
918.017;  149.264;  -13.550;  942.600
918.576;  147.544;  -12.320;  904.440
919.134;  145.302;  -11.490;  837.980
919.693;  144.345;  -13.670;  893.060
920.251;  142.868;  -15.470;  876.500
920.809;  142.852;  -11.290;  839.580
921.368;  142.303;  -10.210;  885.360
921.926;  140.029;  -12.140;  842.940
922.484;  136.800;  -13.080;  903.360
923.042;  136.777;  -11.720;  880.340
923.601;  138.124;   -7.480;  998.680
924.159;  134.047;  -11.570;  935.560
924.717;  132.375;  -13.840;  841.080
925.275;  133.330;  -10.640;  903.240
925.833;  131.270;  -11.540;  779.320
926.391;  132.165;  -12.960;  938.380
926.949;  132.987;  -14.130;  857.680
927.506;  132.413;  -11.750;  903.500
928.064;  132.088;  -10.250;  877.580
928.622;  132.034;  -13.030;  880.100
929.180;  135.113;  -13.400;  814.180
929.737;  137.440;  -10.700;  808.540
930.295;  140.538;  -10.070;  928.480
930.853;  140.173;  -11.960;  849.100
931.410;  140.934;  -13.120;  821.120
931.968;  142.624;  -10.770;  940.660
932.525;  143.475;  -10.680;  909.380
933.082;  143.921;  -13.130;  811.440
933.640;  144.101;  -13.210;  925.900
934.197;  143.914;  -11.060;  886.360
934.754;  143.743;   -9.580;  897.780
935.312;  144.715;  -14.000;  863.340
935.869;  146.186;  -10.710; 1012.980
936.426;  144.652;   -9.860;  872.800
936.983;  144.211;   -9.710;  889.020
937.540;  145.357;  -13.990;  838.280
938.097;  150.388;  -14.040;  940.120
938.654;  153.859;  -10.310;  898.860
939.211;  154.256;  -10.560;  952.480
939.768;  154.428;  -13.900;  915.420
940.324;  158.138;  -14.760;  904.200
940.881;  161.770;  -10.370;  878.500
941.438;  166.127;   -8.260; 1021.200
941.995;  164.695;  -12.540;  992.560
942.551;  165.233;  -14.670;  875.620
943.108;  165.567;  -10.450;  937.920
943.664;  166.313;  -10.750;  869.340
944.221;  171.117;  -11.550; 1088.140
944.777;  170.571;  -14.770;  869.680
945.334;  168.332;  -12.820;  884.840
945.890;  162.418;  -10.130;  946.480
946.446;  159.278;  -13.470;  947.020
947.003;  161.071;  -12.120;  964.940
947.559;  162.181;   -9.980; 1063.040
948.115;  159.483;   -9.080; 1026.540
948.671;  155.818;  -10.830;  967.300
949.227;  156.065;  -12.440;  859.560
949.783;  155.342;  -12.910;  858.900
950.339;  160.355;  -10.270;  991.000
950.895;  160.483;  -13.630; 1023.840
951.451;  160.794;  -15.100;  925.280
952.007;  159.673;  -11.330;  998.540
952.563;  155.428;  -10.580;  937.780
953.118;  153.395;  -13.440;  904.940
953.674;  152.566;  -12.710;  935.780
954.230;  154.404;  -10.350;  949.640
954.785;  157.934;   -9.190;  936.640
955.341;  159.339;  -11.200;  998.160
955.897;  154.829;  -16.560;  834.660
956.452;  152.201;  -12.570;  953.840
957.008;  150.345;   -7.970; 1083.640
957.563;  145.628;  -11.940; 1009.540
958.118;  141.636;  -13.450;  877.700
958.674;  139.724;  -12.030;  946.780
959.229;  140.698;   -9.410; 1013.980
959.784;  141.960;  -12.000;  832.400
960.339;  141.944;  -14.780; 1001.280
960.894;  140.152;   -9.860;  963.760
961.449;  137.505;   -9.970;  859.960
962.004;  139.898;  -10.900; 1212.840
962.559;  138.908;  -13.150;  860.140
963.114;  139.623;  -13.740;  742.480
963.669;  136.295;   -9.820;  915.500
964.224;  131.581;  -13.890;  874.340
964.779;  125.976;  -12.600;  828.420
965.334;  119.852;  -10.950; 1017.860
965.888;  108.700;  -11.170;  875.360
966.443;  101.487;  -12.540;  972.380
966.998;   94.680;  -15.780;  819.460
967.552;   93.518;   -9.760;  908.380
968.107;   93.992;   -9.060;  868.300
968.661;   97.280;  -11.950;  922.440
969.216;   99.543;  -12.800;  856.280
969.770;  101.264;  -11.210;  917.200
970.324;  102.632;  -11.610;  923.140
970.879;  104.050;  -11.370;  947.180
971.433;  106.013;  -12.540;  952.720
971.987;  105.981;  -11.320;  895.340
972.541;  105.273;  -10.720;  917.100
973.095;  106.071;   -9.680; 1009.460
973.649;  102.970;  -11.440;  809.480
974.203;  101.755;  -11.210;  829.040
974.757;  101.651;  -10.240;  855.220
975.311;  101.141;  -13.720;  872.600
975.865;  101.154;  -13.770;  881.820
976.419;   98.802;  -11.690;  857.400
976.973;   96.244;   -9.510;  849.620
977.526;   95.728;  -12.620;  949.920
978.080;   93.652;  -12.010;  796.780
978.634;   93.608;  -10.170;  921.320
979.187;   93.745;   -9.020;  905.400
979.741;   95.467;   -9.820; 1018.380
980.294;   92.922;  -14.870;  789.160
980.848;   93.187;  -12.380;  717.220
981.401;   93.350;  -10.350;  816.540
981.955;   92.019;  -13.720;  844.300
982.508;   88.369;  -11.490;  746.340
983.061;   89.124;  -10.000;  915.260
983.615;   87.172;  -11.480;  798.800
984.168;   84.880;  -13.220;  770.080
984.721;   84.278;  -13.960;  880.760
985.274;   82.973;  -10.870;  867.500
985.827;   80.420;   -9.790;  834.220
986.380;   78.049;  -13.120;  721.340
986.933;   78.335;  -12.450;  864.800
987.486;   77.110;  -10.210;  861.920
988.039;   77.904;   -8.430;  863.100
988.591;   76.408;  -10.520;  893.260
989.144;   74.336;  -14.860;  737.260
989.697;   72.201;  -13.080;  758.740
990.250;   71.883;  -10.150;  858.100
990.802;   70.313;  -13.430;  755.860
991.355;   69.712;  -12.750;  974.880
991.907;   67.868;  -12.040;  864.320
992.460;   66.025;  -11.330;  753.760
993.012;   65.243;  -13.610;  749.540
993.565;   63.916;  -13.460;  711.360
994.117;   65.040;   -9.360;  950.780
994.669;   62.251;  -11.300;  701.320
995.221;   61.711;  -13.540;  791.920
995.774;   60.368;  -13.430;  787.580
996.326;   58.836;  -12.520;  740.220
996.878;   58.105;  -10.950;  838.420
997.430;   55.206;  -14.300;  699.860
997.982;   54.969;  -13.760;  750.140
998.534;   54.822;  -11.530;  739.060
999.086;   53.155;  -10.310;  738.220
999.638;   52.695;  -12.530;  661.380
1000.190;   51.928;  -11.840;  699.320
1000.741;   50.314;  -10.260;  742.700
1001.293;   50.399;   -8.860;  686.020
1001.845;   49.686;  -13.700;  676.640
1002.396;   49.416;  -12.100;  743.400
1002.948;   48.794;  -12.760;  737.400
1003.500;   46.748;  -10.380;  723.780
1004.051;   48.074;  -11.900;  907.580
1004.603;   46.229;  -12.250;  791.820
1005.154;   43.544;  -13.210;  608.980
1005.705;   42.591;  -10.950;  723.960
1006.257;   41.432;  -13.880;  707.220
1006.808;   41.261;  -12.840;  685.460
1007.359;   40.544;  -10.570;  763.240
1007.910;   39.859;   -9.620;  646.640
1008.461;   39.594;  -13.630;  732.940
1009.013;   37.739;  -17.200;  588.340
1009.564;   39.169;  -10.200;  793.520
1010.115;   36.334;  -12.570;  597.040
1010.665;   37.164;  -15.150;  602.160
1011.216;   36.578;  -14.480;  667.920
1011.767;   35.839;  -11.340;  697.920
1012.318;   36.641;   -9.780;  736.980
1012.869;   36.006;  -12.380;  679.000
1013.419;   35.423;  -15.560;  603.120
1013.970;   35.287;  -11.010;  666.640
1014.521;   35.011;  -11.610;  620.620
1015.071;   35.020;  -13.450;  670.380
1015.622;   34.437;  -13.870;  635.460
1016.172;   33.971;  -11.610;  596.820
1016.723;   33.560;  -12.120;  614.380
1017.273;   33.259;  -13.620;  604.160
1017.823;   32.918;  -14.140;  650.340
1018.374;   33.108;  -12.800;  611.760
1018.924;   32.890;  -12.340;  716.880
1019.474;   32.734;  -11.410;  718.880
1020.024;   31.808;  -14.770;  657.580
1020.574;   32.502;   -9.780;  726.160
1021.124;   32.158;   -8.560;  673.580
1021.674;   31.575;  -15.190;  559.120
1022.224;   32.487;  -13.530;  708.940
1022.774;   32.144;  -13.280;  668.820
1023.324;   32.170;  -10.690;  753.520
1023.874;   33.020;  -10.240;  875.760
1024.423;   30.280;  -12.540;  613.700
1024.973;   30.709;  -10.010;  610.760
1025.523;   29.749;  -10.550;  620.960
1026.072;   28.857;  -13.560;  606.420
1026.622;   29.418;  -15.120;  675.740
1027.172;   30.850;  -11.260;  715.660
1027.721;   28.799;  -11.410;  601.220
1028.270;   29.395;  -13.530;  663.400
1028.820;   28.905;  -13.680;  638.080
1029.369;   28.917;  -13.520;  612.700
1029.918;   28.986;  -10.980;  649.840
1030.468;   27.921;  -13.530;  564.780
1031.017;   28.692;  -13.170;  634.800
1031.566;   27.217;  -12.200;  608.900
1032.115;   28.217;   -9.960;  694.500
1032.664;   27.337;  -13.210;  596.480
1033.213;   28.113;  -12.500;  735.420
1033.762;   27.222;  -11.910;  635.620
1034.311;   27.350;   -9.640;  677.220
1034.860;   27.417;  -13.310;  691.000
1035.408;   27.242;  -11.830;  722.720
1035.957;   27.180;  -12.000;  719.540
1036.506;   25.303;  -11.690;  530.800
1037.055;   26.912;  -10.990;  844.320
1037.603;   25.514;  -15.120;  664.000
1038.152;   24.870;  -12.450;  534.760
1038.700;   25.708;  -10.560;  585.740
1039.249;   25.298;  -11.080;  681.220
1039.797;   25.093;  -12.540;  633.360
1040.345;   25.172;  -11.920;  705.420
1040.894;   24.944;  -11.410;  625.300
1041.442;   23.731;  -14.320;  632.200
1041.990;   23.928;  -16.240;  559.160
1042.538;   23.087;  -11.680;  536.180
1043.087;   23.848;  -10.760;  570.860
1043.635;   23.592;  -11.850;  670.500
1044.183;   22.991;  -15.480;  586.400
1044.731;   23.226;  -11.770;  576.000
1045.279;   22.731;  -13.090;  674.920
1045.827;   24.570;  -12.440;  892.400
1046.374;   22.916;  -13.840;  515.420
1046.922;   21.541;  -13.220;  590.580
1047.470;   23.759;  -10.230;  691.300
1048.018;   23.199;  -14.590;  647.960
1048.565;   23.507;  -12.050;  708.600
1049.113;   21.105;  -11.650;  557.000
1049.660;   21.249;  -10.510;  629.660
1050.208;   21.936;  -13.310;  675.640
1050.755;   21.339;  -15.900;  606.580
1051.303;   22.347;  -11.430;  686.820
1051.850;   21.702;   -8.480;  635.120
1052.397;   19.941;  -15.010;  473.960
1052.945;   20.217;  -13.960;  617.760
1053.492;   21.723;  -13.150;  741.840
1054.039;   22.369;   -9.630;  720.180
1054.586;   20.856;  -13.680;  557.240
1055.133;   21.120;  -14.570;  693.140
1055.680;   20.743;  -13.820;  646.620
1056.227;   20.217;  -11.730;  542.780
1056.774;   21.039;  -12.480;  794.980
1057.321;   19.126;  -13.930;  523.260
1057.868;   19.458;  -11.690;  651.320
1058.415;   18.865;   -9.520;  651.980
1058.961;   19.653;  -13.160;  678.940
1059.508;   19.594;  -12.920;  643.820
1060.055;   19.540;  -11.920;  581.780
1060.601;   19.547;  -11.500;  624.300
1061.148;   19.233;  -14.330;  616.820
1061.694;   18.267;  -16.870;  592.580
1062.241;   18.766;  -10.330;  596.320
1062.787;   18.799;  -10.620;  663.140
1063.334;   19.599;  -10.110;  808.560
1063.880;   18.397;  -13.400;  668.360
1064.426;   18.741;  -10.680;  706.820
1064.972;   17.779;   -9.920;  601.340
1065.518;   16.594;  -10.980;  566.640
1066.065;   18.669;  -14.890;  624.460
1066.611;   17.250;  -12.870;  598.800
1067.157;   17.622;  -12.950;  641.860
1067.703;   17.805;  -13.540;  668.480
1068.249;   16.840;  -13.540;  605.220
1068.794;   16.912;  -12.600;  626.880
1069.340;   15.688;  -10.620;  578.960
1069.886;   16.648;  -12.830;  590.700
1070.432;   16.041;  -14.870;  541.720
1070.977;   15.062;  -11.980;  601.080
1071.523;   16.233;   -8.200;  573.060
1072.068;   15.822;  -12.330;  582.000
1072.614;   16.015;  -16.370;  527.760
1073.160;   16.440;  -11.100;  687.040
1073.705;   15.252;  -10.480;  572.520
1074.250;   14.558;  -14.520;  559.900
1074.796;   16.241;  -11.460;  655.160
1075.341;   16.497;  -11.950;  664.100
1075.886;   15.022;  -11.460;  594.240
1076.431;   15.067;  -13.770;  649.880
1076.976;   14.083;  -12.680;  639.220
1077.521;   15.166;  -13.170;  583.080
1078.067;   14.413;  -10.860;  579.400
1078.612;   14.978;  -13.920;  661.620
1079.156;   14.785;  -13.880;  601.540
1079.701;   14.793;  -13.120;  693.260
1080.246;   14.995;   -9.940;  696.300
1080.791;   13.887;  -14.740;  625.020
1081.336;   14.664;  -13.750;  659.320
1081.880;   14.527;  -13.400;  649.680
1082.425;   12.898;  -12.220;  573.480
1082.970;   14.277;  -11.610;  717.040
1083.514;   13.152;  -13.580;  597.000
1084.059;   13.338;  -12.810;  586.720
1084.603;   12.730;  -12.320;  565.840
1085.147;   13.326;  -13.190;  645.220
1085.692;   14.141;  -12.480;  716.800
1086.236;   11.958;  -13.020;  503.140
1086.780;   13.714;   -9.190;  751.440
1087.325;   12.964;  -12.480;  654.620
1087.869;   12.515;  -12.450;  610.700
1088.413;   13.195;  -12.240;  705.040
1088.957;   10.569;   -9.020;  543.400
1089.501;   12.495;  -10.320;  766.640
1090.045;   12.543;  -12.720;  726.480
1090.589;   10.874;  -13.690;  569.920
1091.133;   12.418;  -10.020;  673.340
1091.676;   12.053;  -12.330;  591.940
1092.220;   11.510;  -14.970;  600.920
1092.764;   11.907;  -12.430;  706.960
1093.307;   11.544;   -9.800;  673.780
1093.851;   10.541;  -14.970;  556.540
1094.395;   11.326;  -15.310;  683.140
1094.938;   10.670;  -10.370;  632.520
1095.482;   10.388;  -11.050;  559.800
1096.025;   11.343;  -11.840;  710.880
1096.568;   11.862;  -12.840;  779.280
1097.112;   10.153;  -14.700;  508.180
1097.655;   11.046;   -8.720;  603.000
1098.198;    9.433;  -13.610;  600.180
1098.741;    9.369;  -13.350;  612.860
1099.285;   10.782;  -11.230;  657.300
1099.828;    9.012;  -11.840;  439.400
1100.371;    9.774;  -10.840;  608.160
1100.914;   10.110;  -14.190;  682.660
1101.457;    8.933;  -11.240;  679.900
1101.999;    8.723;  -11.270;  584.680
1102.542;    9.128;  -11.480;  641.440
1103.085;    9.488;  -11.750;  658.500
1103.628;   10.259;  -11.400;  762.060
1104.170;    9.253;  -10.490;  588.280
1104.713;    9.176;  -10.600;  646.700
1105.256;    8.842;  -14.360;  557.440
1105.798;    7.776;  -13.210;  499.980
1106.341;    9.724;  -10.270;  728.900
1106.883;    8.183;  -12.200;  521.340
1107.425;    8.852;  -13.110;  668.180
1107.968;    8.284;  -12.840;  612.380
1108.510;    8.873;   -6.480;  684.960
1109.052;    7.570;  -13.940;  612.620
1109.594;    7.778;  -13.690;  554.440
1110.136;    8.300;  -11.880;  643.220
1110.679;    7.789;   -9.500;  633.080
1111.221;    8.095;  -14.160;  604.460
1111.763;    7.540;  -13.980;  559.220
1112.304;    6.916;  -13.880;  547.140
1112.846;    7.749;  -12.210;  666.240
1113.388;    9.794;  -11.390;  942.180
1113.930;    7.418;  -14.540;  694.200
1114.472;    6.907;  -12.640;  606.540
1115.013;    6.162;  -11.620;  551.280
1115.555;    5.941;  -13.640;  587.100
1116.097;    6.406;  -15.380;  579.480
1116.638;    6.861;  -12.640;  684.600
1117.180;    6.550;   -9.850;  667.740
1117.721;    6.982;  -13.690;  568.580
1118.262;    7.281;  -12.680;  677.960
1118.804;    6.990;  -12.530;  637.340
1119.345;    5.559;  -11.690;  578.400
1119.886;    6.229;  -13.380;  704.040
1120.427;    5.075;  -14.070;  589.020
1120.969;    5.293;  -13.500;  597.920
1121.510;    5.375;  -11.480;  563.060
1122.051;    5.546;  -12.830;  723.580
1122.592;    4.846;  -14.290;  655.420
1123.133;    4.556;  -12.400;  547.940
1123.673;    6.545;  -10.130;  706.480
1124.214;    5.048;  -12.930;  612.460
1124.755;    5.301;  -14.380;  639.460
1125.296;    5.381;  -14.000;  627.320
1125.836;    5.779;  -10.070;  691.500
1126.377;    4.569;  -12.640;  599.660
1126.918;    5.237;  -12.960;  614.980
1127.458;    4.884;  -13.350;  622.220
1127.999;    5.272;  -10.750;  656.980
1128.539;    4.838;  -12.350;  694.240
1129.079;    4.700;  -14.860;  632.720
1129.620;    4.073;  -13.840;  558.100
1130.160;    3.537;  -12.330;  539.480
1130.700;    4.375;  -14.530;  640.840
1131.240;    4.904;  -12.530;  643.700
1131.781;    3.995;  -14.450;  619.680
1132.321;    3.750;   -9.790;  599.120
1132.861;    2.283;  -14.860;  564.200
1133.401;    2.765;  -14.290;  593.940
1133.941;    4.102;  -11.750;  626.280
1134.481;    3.390;   -9.920;  597.580
1135.020;    3.312;  -12.290;  609.160
1135.560;    3.780;  -11.650;  674.940
1136.100;    3.097;  -16.270;  501.160
1136.640;    2.578;  -10.890;  510.480
1137.179;    2.369;  -14.180;  537.960
1137.719;    3.610;  -16.250;  605.400
1138.258;    3.091;  -14.230;  587.360
1138.798;    3.723;   -9.090;  663.780
1139.337;    1.870;  -15.130;  482.840
1139.877;    3.238;  -13.680;  642.360
1140.416;    4.706;  -11.320;  878.060
1140.955;    2.987;  -10.860;  535.380
1141.494;    1.934;  -12.920;  669.280
1142.034;    1.752;  -13.930;  583.520
1142.573;    3.262;  -11.440;  646.280
1143.112;    2.128;  -12.000;  553.480
1143.651;    1.999;  -13.670;  536.480
1144.190;    2.508;  -12.730;  691.640
1144.729;    2.038;  -14.560;  607.420
1145.267;    2.179;  -11.830;  584.900
1145.806;    3.097;  -12.230;  637.040
1146.345;    1.616;  -14.130;  635.020
1146.884;    2.310;  -11.590;  622.500
1147.422;    1.337;  -12.550;  533.060
1147.961;    2.616;  -11.180;  708.460
1148.500;    2.287;  -11.510;  669.720
1149.038;    2.176;  -11.640;  632.500
1149.577;    1.812;  -10.130;  698.640
1150.115;   -0.182;  -13.970;  452.280
1150.653;    1.487;  -14.520;  607.340
1151.192;    1.453;  -12.810;  552.920
1151.730;    1.260;   -9.100;  652.560
1152.268;    0.336;  -12.220;  589.520
1152.806;    0.022;  -14.140;  571.180
1153.344;   -0.073;  -12.350;  577.640
1153.882;    0.959;   -8.980;  600.060
1154.421;   -0.052;  -15.190;  470.620
1154.958;    0.173;  -15.210;  595.240
1155.496;    1.716;  -12.850;  645.280
1156.034;    1.313;   -9.940;  721.880
1156.572;    1.721;  -13.570;  667.060
1157.110;   -0.073;  -14.590;  473.940
1157.647;    0.728;  -13.030;  676.960
1158.185;   -0.021;  -12.140;  564.320
1158.723;   -1.376;  -14.390;  509.200
1159.260;   -0.125;  -14.090;  701.700
1159.798;    0.617;  -11.920;  658.160
1160.335;    0.502;  -11.110;  631.820

