
Integration time [ms]:   3.276
Averaging Nr. [scans]: 1000
Smoothing Nr. [pixels]: 0
Data measured with spectrometer [name]: 7414430SP
Wave   ;Sample   ;Dark     ;Reference
[nm]   ;[counts] ;[counts] ;[counts] 

288.544;  155.139;    7.793;  793.890
289.143;  158.012;    7.462;  681.602
289.742;  158.862;    8.602;  828.814
290.341;  146.266;    1.321;  789.841
290.940;  136.695;   -0.709;  730.702
291.538;  137.520;    0.881;  881.108
292.137;  136.208;    0.122;  792.581
292.736;  139.817;   -1.929;  975.101
293.335;  136.781;   -8.229;  735.086
293.934;  136.434;   -5.279;  781.677
294.532;  136.572;   -1.369; 1031.958
295.131;  121.937;   -7.641;  834.394
295.730;  123.195;   -8.420;  809.588
296.328;  121.156;   -5.611;  783.442
296.927;  121.451;   -5.781;  779.652
297.525;  120.690;   -6.361;  781.236
298.124;  112.177;  -11.382;  654.009
298.722;  115.536;   -7.641;  761.933
299.321;  114.355;   -6.811;  708.597
299.919;  112.780;   -6.991;  751.918
300.518;  108.681;  -10.362;  689.338
301.116;  108.838;   -9.581;  691.381
301.715;  108.997;   -4.891;  730.222
302.313;  109.212;   -8.801;  704.943
302.911;  105.236;   -8.522;  733.830
303.509;  108.715;   -6.171;  925.627
304.108;  106.206;   -7.311;  760.383
304.706;  105.864;   -8.321;  801.664
305.304;  101.002;  -10.222;  796.707
305.902;  106.777;   -6.021;  784.484
306.500;  101.131;   -4.971;  728.200
307.098;   99.935;   -7.061;  746.560
307.696;   97.599;   -8.801;  780.432
308.294;   98.241;   -6.411;  731.359
308.892;  100.331;   -2.901;  759.769
309.490;   96.233;   -5.041;  712.161
310.088;   93.756;   -5.002;  788.444
310.686;   99.267;   -2.041;  821.749
311.284;   94.712;   -2.351;  766.040
311.882;   92.316;   -4.422;  731.225
312.480;   88.671;   -4.192;  697.167
313.078;   90.401;   -1.172;  808.331
313.675;   91.445;   -2.601;  691.600
314.273;   86.889;   -1.312;  797.837
314.871;   85.574;   -3.942;  589.829
315.468;   84.022;   -2.802;  652.090
316.066;   86.711;   -0.701;  694.427
316.664;   79.529;   -4.362;  656.351
317.261;   82.516;   -2.872;  910.128
317.859;   78.417;   -2.022;  768.735
318.456;   78.623;   -0.531;  830.096
319.054;   76.253;   -3.912;  787.828
319.651;   74.077;   -4.752;  759.928
320.249;   72.756;   -2.602;  810.188
320.846;   71.191;   -0.821;  714.286
321.443;   68.439;   -4.642;  832.135
322.041;   65.361;   -5.002;  812.315
322.638;   62.103;   -3.982;  701.456
323.235;   64.599;   -3.411;  665.683
323.833;   61.252;   -7.361;  740.354
324.430;   56.559;   -8.611;  615.900
325.027;   56.637;   -4.061;  876.855
325.624;   57.568;   -4.031;  644.532
326.221;   54.811;   -7.481;  689.717
326.818;   53.716;   -5.281;  818.332
327.415;   55.899;   -7.460;  748.828
328.012;   56.084;   -5.510;  690.585
328.609;   55.154;   -7.880;  731.389
329.206;   52.094;   -8.331;  778.621
329.803;   52.060;   -5.121;  737.841
330.400;   55.511;   -4.510;  704.260
330.997;   58.198;   -6.441;  817.147
331.594;   56.337;   -8.831;  788.185
332.191;   60.193;   -7.621;  728.722
332.787;   64.151;   -4.591;  844.463
333.384;   64.021;   -7.412;  763.093
333.981;   61.872;   -8.293;  815.687
334.578;   63.891;   -7.052;  708.378
335.174;   67.050;   -3.102;  731.469
335.771;   66.700;   -5.943;  836.456
336.367;   63.077;   -7.393;  710.631
336.964;   66.009;   -4.063;  793.266
337.561;   65.523;   -3.813;  731.112
338.157;   61.449;   -4.654;  911.916
338.754;   59.644;   -7.934;  796.589
339.350;   57.538;   -4.414;  722.493
339.946;   58.766;   -4.664;  773.135
340.543;   51.821;   -6.375;  846.136
341.139;   45.866;   -9.815;  720.836
341.735;   42.324;   -4.526;  772.593
342.332;   42.171;   -4.895;  691.472
342.928;   43.673;   -4.295;  795.394
343.524;   36.467;   -5.476;  761.684
344.120;   31.651;   -5.856;  738.562
344.716;   35.724;   -2.155;  723.717
345.313;   33.689;   -6.275;  795.342
345.909;   28.389;   -8.815;  627.336
346.505;   30.215;   -5.305;  740.247
347.101;   30.472;   -2.674;  827.864
347.697;   30.489;   -4.344;  785.398
348.293;   25.640;   -9.975;  627.244
348.889;   25.712;   -5.774;  745.914
349.485;   25.636;   -5.004;  688.205
350.081;   26.073;   -4.704;  772.592
350.676;   20.985;   -6.635;  691.606
351.272;   25.076;   -4.504;  809.530
351.868;   24.813;   -3.914;  780.497
352.464;   22.195;   -9.044;  723.932
353.059;   19.065;   -8.314;  646.017
353.655;   22.299;   -7.024;  777.063
354.251;   23.203;   -5.343;  759.845
354.846;   17.901;   -8.604;  740.646
355.442;   16.459;   -6.945;  753.071
356.038;   16.767;   -7.564;  751.708
356.633;   16.568;   -5.814;  728.594
357.229;   14.888;   -7.364;  724.757
357.824;   14.021;   -8.024;  703.600
358.420;   12.107;   -9.384;  679.726
359.015;   13.970;   -5.104;  695.357
359.610;   14.830;   -6.854;  763.920
360.206;    9.002;  -10.185;  603.240
360.801;   11.075;   -7.054;  646.503
361.396;   13.743;   -5.034;  725.975
361.992;    9.184;   -8.284;  668.220
362.587;    5.783;   -8.625;  670.160
363.182;    8.370;   -7.674;  689.631
363.777;    9.163;   -5.164;  738.242
364.372;    8.330;   -8.604;  737.314
364.967;    4.806;   -9.055;  680.744
365.563;    8.779;   -6.114;  815.567
366.158;    6.129;   -5.814;  685.161
366.753;    6.304;   -7.854;  649.263
367.348;    4.918;   -7.804;  746.056
367.942;    3.912;   -7.954;  697.298
368.537;    3.928;   -4.984;  754.245
369.132;    4.327;   -8.564;  703.428
369.727;    0.545;   -8.855;  638.079
370.322;    0.902;   -6.245;  580.186
370.917;    1.585;   -6.425;  710.646
371.511;    4.243;   -6.294;  861.834
372.106;    0.695;   -7.685;  776.964
372.701;   -2.552;   -7.335;  585.988
373.296;    2.640;   -4.564;  863.135
373.890;   -1.947;  -10.235;  647.840
374.485;   -4.256;   -7.885;  691.199
375.079;    0.319;   -7.324;  738.685
375.674;    1.828;   -3.494;  812.970
376.268;   -1.991;   -8.525;  691.759
376.863;   -9.035;  -10.086;  580.327
377.457;   -3.296;   -7.025;  662.490
378.052;   -4.393;   -3.585;  764.884
378.646;   -4.538;   -7.595;  741.167
379.240;   -5.087;   -8.335;  721.176
379.835;   -4.850;   -5.785;  636.978
380.429;   -6.982;   -4.335;  562.557
381.023;   -6.306;   -6.805;  779.205
381.617;   -9.007;   -9.195;  680.106
382.212;   -5.460;   -6.905;  685.303
382.806;   -5.148;   -3.745;  760.690
383.400;   -8.020;   -7.745;  672.281
383.994;   -9.659;   -9.765;  664.870
384.588;   -6.903;   -6.564;  697.701
385.182;   -5.045;   -5.344;  726.624
385.776;   -6.031;   -8.514;  706.875
386.370;   -9.279;   -9.555;  681.968
386.964;   -8.718;   -8.715;  684.155
387.558;   -6.685;   -6.174;  598.360
388.152;   -9.595;   -8.725;  681.959
388.745;   -8.900;   -7.965;  814.707
389.339;   -7.208;   -5.924;  747.642
389.933;   -6.038;   -5.524;  695.370
390.527;   -6.934;   -7.114;  859.029
391.120;  -12.561;  -10.725;  595.318
391.714;  -10.761;   -8.035;  711.633
392.308;   -7.223;   -3.574;  780.253
392.901;  -10.169;   -7.245;  642.460
393.495;  -11.991;   -9.285;  595.414
394.089;  -10.669;   -5.895;  760.452
394.682;  -11.411;   -4.295;  697.188
395.275;  -11.270;   -9.875;  719.927
395.869;  -12.678;   -8.485;  667.314
396.462;  -11.586;   -7.455;  616.609
397.056;   -7.080;   -5.424;  776.621
397.649;  -11.621;   -6.605;  731.575
398.242;   -9.408;   -8.224;  712.645
398.836;   -9.088;   -7.474;  766.408
399.429;   -9.603;   -7.094;  631.041
400.022;  -12.603;   -9.475;  665.902
400.615;   -9.841;   -7.145;  805.609
401.208;   -8.998;   -7.174;  691.451
401.802;  -10.780;   -5.515;  699.329
402.395;  -11.666;   -9.875;  683.502
402.988;  -12.936;   -8.845;  696.627
403.581;   -9.996;   -8.874;  646.878
404.174;   -7.813;   -5.324;  686.568
404.767;  -10.179;   -9.575;  638.583
405.360;  -13.222;  -10.965;  621.445
405.953;   -8.335;   -8.764;  759.034
406.545;   -6.656;   -7.514;  725.342
407.138;  -11.282;  -10.025;  618.350
407.731;   -9.761;  -10.034;  613.303
408.324;   -6.553;   -9.374;  660.554
408.917;   -6.710;   -6.534;  681.864
409.509;   -9.166;   -8.004;  740.396
410.102;  -11.323;   -9.875;  643.948
410.695;   -5.676;   -8.604;  665.758
411.287;   -6.174;   -6.794;  599.821
411.880;   -6.889;   -9.334;  585.421
412.472;  -10.269;  -10.254;  613.092
413.065;   -7.143;   -6.714;  629.408
413.657;   -4.995;   -7.234;  576.678
414.250;   -4.171;  -10.544;  646.681
414.842;   -7.087;   -9.744;  676.353
415.434;   -4.819;   -6.994;  570.463
416.027;   -0.944;   -5.893;  652.196
416.619;   -2.365;   -7.264;  713.400
417.211;   -3.057;  -10.374;  599.352
417.804;   -0.223;   -7.993;  628.499
418.396;   -2.826;   -7.234;  607.643
418.988;   -0.267;   -9.443;  659.238
419.580;   -5.216;  -10.724;  568.276
420.172;   -2.137;  -10.323;  536.196
420.764;    2.116;   -8.793;  672.482
421.356;    1.229;  -11.143;  636.898
421.948;    0.550;   -8.293;  677.661
422.540;    4.519;   -7.893;  680.027
423.132;    4.081;   -7.082;  600.641
423.724;    0.852;   -8.653;  561.267
424.316;    3.080;  -10.213;  621.345
424.908;    5.966;   -9.762;  591.517
425.500;    7.469;   -5.572;  647.978
426.092;    7.391;   -8.422;  648.268
426.683;    6.735;   -9.283;  684.836
427.275;    9.493;   -7.852;  641.471
427.867;   10.577;   -5.272;  668.948
428.458;   11.719;   -7.682;  732.344
429.050;    9.844;  -10.612;  680.749
429.642;   11.394;   -9.882;  743.124
430.233;   13.080;   -6.962;  569.356
430.825;   13.867;   -6.842;  724.809
431.416;   10.921;   -9.672;  698.241
432.008;   14.313;   -6.552;  651.723
432.599;   15.295;   -6.891;  656.073
433.190;   13.169;  -10.912;  637.670
433.782;   11.502;  -11.172;  590.395
434.373;   18.918;   -6.061;  884.765
434.964;   18.647;   -8.251;  602.920
435.556;   16.219;   -9.722;  634.537
436.147;   17.862;   -9.082;  758.490
436.738;   18.149;   -8.041;  701.099
437.329;   23.481;   -7.341;  721.723
437.920;   17.181;   -8.162;  666.688
438.511;   15.856;  -11.802;  564.526
439.103;   22.876;  -10.191;  623.998
439.694;   24.525;   -7.601;  681.583
440.285;   25.848;   -8.541;  764.432
440.876;   23.382;   -9.751;  845.738
441.466;   23.827;   -9.401;  575.162
442.057;   29.047;   -7.760;  665.814
442.648;   27.679;   -9.971;  746.255
443.239;   25.593;  -11.001;  620.477
443.830;   30.139;   -7.990;  704.958
444.421;   33.238;   -7.910;  655.474
445.011;   29.045;   -8.131;  693.619
445.602;   29.306;   -7.111;  743.126
446.193;   30.036;  -10.920;  488.117
446.783;   35.228;   -6.500;  640.397
447.374;   31.036;   -8.671;  692.759
447.964;   30.579;  -10.781;  713.770
448.555;   39.441;   -9.650;  822.742
449.145;   35.898;   -8.660;  662.853
449.736;   37.410;   -8.990;  803.179
450.326;   36.437;   -9.500;  713.626
450.917;   41.167;   -8.680;  675.324
451.507;   40.522;   -7.520;  600.661
452.097;   41.799;   -8.590;  746.267
452.688;   43.152;  -11.340;  742.160
453.278;   42.358;  -10.100;  566.840
453.868;   46.636;   -6.019;  793.550
454.458;   44.716;   -9.440;  651.141
455.048;   45.363;  -10.560;  711.783
455.639;   46.305;  -11.799;  567.096
456.229;   50.486;   -6.899;  710.694
456.819;   52.212;   -7.389;  751.158
457.409;   52.624;  -11.119;  773.993
457.999;   54.831;   -9.289;  737.505
458.589;   55.407;   -6.139;  686.606
459.179;   54.947;   -8.729;  717.658
459.769;   52.906;   -9.789;  627.099
460.358;   57.925;  -10.259;  797.262
460.948;   57.789;   -7.299;  689.503
461.538;   59.570;  -10.289;  660.677
462.128;   57.336;  -11.269;  664.934
462.717;   63.579;   -9.368;  710.326
463.307;   67.512;   -7.908;  705.846
463.897;   63.070;   -9.599;  656.942
464.486;   63.050;   -9.769;  837.128
465.076;   66.046;   -8.048;  733.776
465.666;   70.109;   -9.358;  652.900
466.255;   69.145;   -7.919;  785.651
466.845;   67.644;  -11.689;  666.749
467.434;   70.272;   -7.818;  725.873
468.023;   71.307;   -7.678;  658.357
468.613;   69.779;  -10.939;  713.946
469.202;   74.198;  -10.118;  646.507
469.791;   77.962;   -9.108;  737.811
470.381;   78.927;   -6.058;  742.813
470.970;   79.721;  -10.428;  711.099
471.559;   79.245;  -10.268;  733.291
472.148;   82.242;   -8.448;  675.737
472.738;   84.971;   -6.917;  765.466
473.327;   84.818;  -11.978;  637.529
473.916;   84.135;  -11.888;  737.446
474.505;   88.506;   -9.437;  751.703
475.094;   92.102;   -6.747;  806.570
475.683;   91.532;   -9.367;  797.699
476.272;   92.452;  -12.637;  730.632
476.861;   94.690;  -10.027;  706.754
477.449;  101.246;   -8.716;  728.487
478.038;   95.762;   -9.577;  692.513
478.627;   97.843;   -9.718;  714.852
479.216;  103.971;   -8.947;  769.441
479.805;  106.870;   -6.256;  783.375
480.393;  108.048;   -7.937; 1008.945
480.982;  106.625;   -7.717;  874.501
481.571;  114.220;   -9.266;  858.333
482.159;  114.213;   -7.636;  705.386
482.748;  114.466;   -9.667;  821.385
483.336;  118.967;  -10.376;  858.209
483.925;  119.685;   -7.147;  774.373
484.513;  126.187;   -7.996;  758.962
485.102;  123.470;  -10.027;  810.965
485.690;  133.104;  -10.446; 1011.050
486.278;  133.726;   -8.446;  979.329
486.867;  136.347;   -6.356;  809.662
487.455;  138.048;   -9.136;  898.229
488.043;  140.740;  -10.646;  748.361
488.631;  148.435;   -7.456; 1005.079
489.220;  153.699;   -6.636;  908.626
489.808;  156.109;  -11.036;  741.415
490.396;  165.278;  -10.246;  914.645
490.984;  173.278;   -8.556;  830.161
491.572;  188.694;   -5.886;  940.315
492.160;  198.448;   -9.486;  919.081
492.748;  212.359;  -10.976;  884.341
493.336;  239.356;   -8.776; 1019.693
493.924;  280.437;   -5.465;  958.077
494.512;  332.943;   -9.986; 1066.638
495.100;  390.388;  -10.636; 1103.280
495.687;  472.238;  -10.885; 1206.373
496.275;  580.326;   -8.126; 1150.796
496.863;  683.406;  -10.586; 1281.171
497.451;  817.937;  -11.926; 1386.805
498.038;  954.103;  -10.885; 1556.729
498.626; 1125.940;   -6.315; 1741.407
499.214; 1391.999;   -7.326; 2016.609
499.801; 1690.591;  -11.906; 2220.633
500.389; 2086.263;  -10.466; 2312.494
500.976; 2455.979;   -5.236; 2744.849
501.564; 3013.127;   -8.936; 3148.565
502.151; 3812.063;  -13.176; 3515.999
502.738; 4285.775;  -10.646; 3971.274
503.326; 4822.539;   -9.525; 4403.796
503.913; 5318.816;  -10.856; 5161.749
504.500; 5763.283;  -11.586; 5986.420
505.088; 6472.502;  -10.336; 6381.201
505.675; 7591.410;   -6.355; 6925.547
506.262; 8351.244;   -9.046; 7619.060
506.849; 8756.018;  -10.416; 8733.969
507.436; 9400.804;  -10.305; 9790.121
508.023; 9930.514;   -5.496; 9985.472
508.610; 9900.883;   -7.856;10434.618
509.197;10996.820;  -10.097;11198.435
509.784;12553.641;  -10.886;12391.194
510.371;14054.541;   -9.315;13603.713
510.958;15332.739;   -9.936;14426.586
511.545;15883.655;   -9.326;15243.775
512.132;16082.110;  -10.075;15945.876
512.719;16598.133;   -7.796;16340.369
513.305;17861.992;  -10.606;18011.766
513.892;19669.074;  -11.486;19754.971
514.479;21149.711;   -9.126;20967.805
515.066;22515.100;   -6.026;22299.793
515.652;22648.688;   -8.466;22908.660
516.239;22993.754;  -10.886;23798.875
516.825;24406.936;  -11.496;25567.275
517.412;26013.297;   -5.796;28154.959
517.998;27422.299;  -10.506;28344.111
518.585;28490.508;  -10.076;27134.219
519.171;27803.703;   -8.315;27268.576
519.758;28473.920;   -8.596;28964.129
520.344;31403.752;   -8.466;30664.494
520.930;30264.021;  -11.006;32550.605
521.516;28189.432;  -10.495;35422.895
522.103;29965.428;   -5.526;38280.004
522.689;32350.471;   -8.746;37835.117
523.275;33557.047;  -11.376;37288.613
523.861;35773.563;  -11.156;37281.395
524.447;35712.715;   -8.135;37846.949
525.033;35764.012;   -7.896;38321.949
525.619;36292.020;  -12.476;38579.285
526.205;36562.461;   -9.516;40622.875
526.791;35988.551;   -6.926;42258.836
527.377;35704.457;   -8.346;42966.902
527.963;37232.977;   -8.717;42018.949
528.549;39014.691;  -11.016;42476.828
529.135;37629.141;   -8.536;41854.852
529.721;37668.875;   -9.666;41237.711
530.306;36297.523;  -10.066;41259.445
530.892;36836.793;  -11.356;41506.047
531.478;39144.863;   -6.596;43559.613
532.063;41052.961;   -8.836;47695.563
532.649;39003.816;  -10.047;50808.324
533.235;38955.637;   -9.746;51787.500
533.820;41272.973;   -6.566;52145.035
534.406;42948.941;  -10.817;51133.488
534.991;44969.492;   -9.416;49996.805
535.576;43651.344;   -9.036;48882.852
536.162;40905.402;   -6.156;46942.285
536.747;41269.164;  -11.607;45711.746
537.333;43971.297;  -11.787;48510.180
537.918;44532.141;  -12.437;50439.891
538.503;44069.027;   -7.196;50863.711
539.088;44394.152;  -10.556;50906.922
539.673;45480.934;   -8.767;52621.965
540.259;42559.711;  -10.026;52368.094
540.844;41601.262;   -7.416;50879.109
541.429;41450.211;   -9.467;52077.777
542.014;40963.438;   -9.527;52716.695
542.599;43959.996;   -9.946;52363.281
543.184;45873.051;   -7.927;53187.137
543.769;45769.836;   -9.297;54697.605
544.354;45622.422;  -10.127;53913.914
544.938;43750.434;   -9.267;49680.164
545.523;41846.906;   -6.506;47386.277
546.108;43095.016;   -9.787;49151.949
546.693;43817.250;  -11.587;51384.637
547.278;44416.828;  -10.986;51853.254
547.862;44841.973;   -8.206;51173.750
548.447;42745.750;  -10.067;51691.395
549.031;42351.332;   -9.637;52456.703
549.616;43151.871;   -9.926;52714.516
550.201;42818.398;   -6.347;52414.598
550.785;43747.371;   -7.917;52355.059
551.370;44634.875;  -10.867;54589.453
551.954;47038.707;   -9.047;58267.348
552.538;46320.609;   -7.827;59062.176
553.123;44526.313;  -10.287;58115.285
553.707;43640.113;  -12.178;56556.285
554.291;41500.883;   -8.717;56201.668
554.876;42418.238;   -7.457;55335.762
555.460;44031.891;  -10.387;54155.703
556.044;45864.922;   -9.618;53721.484
556.628;46634.516;  -11.567;53731.016
557.212;47001.898;   -8.097;54312.531
557.796;48501.184;  -11.077;53797.773
558.380;46409.848;  -11.108;56145.984
558.964;45182.703;   -9.057;57277.930
559.548;42792.504;   -6.977;56459.641
560.132;39500.129;  -11.457;54434.543
560.716;41001.367;  -11.378;54800.617
561.300;43625.176;   -9.577;57606.945
561.884;42462.734;   -7.127;58972.445
562.467;40650.988;   -7.118;57327.570
563.051;39626.250;  -13.358;54962.434
563.635;38013.598;  -10.178;52594.473
564.219;39765.898;   -7.837;50610.410
564.802;43433.754;  -11.398;49551.180
565.386;43979.766;  -12.788;48370.953
565.969;45011.051;   -9.077;48178.871
566.553;43544.781;   -6.207;49957.305
567.136;41659.211;   -8.568;50369.594
567.720;42498.551;  -11.868;49492.004
568.303;43887.590;   -8.268;50616.352
568.887;43586.285;   -8.698;50727.148
569.470;41720.273;   -6.808;51698.379
570.053;39693.000;  -13.188;52122.078
570.637;37284.387;  -12.037;52536.438
571.220;37163.520;   -8.577;51186.098
571.803;37446.703;   -8.498;51032.762
572.386;39285.484;  -10.498;49609.887
572.969;40299.879;   -9.388;48285.926
573.552;40627.988;   -8.338;47624.285
574.135;40041.066;   -8.518;45498.641
574.718;37239.945;  -13.628;41970.434
575.301;37758.949;  -10.893;41447.137
575.884;38277.953;   -8.158;40923.836
576.467;42269.543;  -10.328;45267.723
577.050;41891.324;  -13.058;48175.543
577.633;40481.680;   -9.458;47729.328
578.216;37093.188;   -8.928;47579.793
578.799;34395.023;   -9.358;47820.996
579.381;35583.840;  -11.388;48115.551
579.964;36529.402;  -11.718;47333.766
580.547;35419.473;   -8.588;46668.969
581.129;35560.672;   -8.859;44466.141
581.712;37101.117;  -10.729;44164.922
582.294;37094.832;  -11.118;46477.855
582.877;37771.953;   -5.218;48244.254
583.459;37734.227;   -8.679;47437.895
584.042;39289.586;  -10.709;46943.219
584.624;37269.348;  -11.669;46792.227
585.206;36266.043;   -8.218;46557.250
585.789;37947.449;  -10.569;45793.773
586.371;38468.930;  -11.859;43836.391
586.953;38858.656;  -10.719;42972.492
587.536;40213.328;   -7.198;42487.211
588.118;39784.102;   -8.720;42086.414
588.700;39109.477;  -10.439;43389.930
589.282;36102.555;   -9.198;43646.039
589.864;33760.367;   -9.199;43438.109
590.446;33723.848;  -11.319;43151.926
591.028;33657.996;  -11.159;42781.867
591.610;34244.723;  -11.779;42839.098
592.192;35210.395;   -7.668;42820.402
592.774;34031.078;  -11.949;40724.277
593.356;31706.482;  -12.129;39874.789
593.937;31365.150;  -10.669;39980.648
594.519;34142.859;   -6.509;42069.633
595.101;34424.863;  -10.849;42976.031
595.683;33302.348;  -11.679;44084.441
596.264;32521.467;   -9.049;43478.797
596.846;32120.344;   -8.849;43803.672
597.427;32106.865;   -9.570;42986.934
598.009;33829.633;  -12.620;42832.219
598.591;33929.262;  -10.039;42580.086
599.172;35643.527;  -10.369;43061.805
599.753;37875.945;   -9.140;41691.469
600.335;37280.055;  -11.430;40692.520
600.916;34904.848;   -9.939;39982.422
601.498;31506.568;   -8.479;40318.617
602.079;30927.123;  -10.920;40670.609
602.660;30745.135;  -11.480;41450.898
603.241;31434.107;  -11.699;41137.738
603.823;31825.502;   -9.579;38868.797
604.404;31398.209;  -10.620;38182.785
604.985;34325.523;  -10.450;38078.047
605.566;35576.582;   -9.129;38056.633
606.147;36363.801;   -7.510;37020.418
606.728;35179.789;  -10.660;37883.359
607.309;33301.301;  -11.740;38748.273
607.890;33585.648;   -9.759;38850.230
608.471;32093.936;   -8.250;37457.918
609.051;31830.912;   -9.240;36066.457
609.632;32224.273;  -12.120;35991.074
610.213;31789.834;   -9.110;37402.641
610.794;32688.301;   -8.030;38383.363
611.374;31196.000;   -8.110;40562.387
611.955;30849.639;  -13.560;38533.727
612.536;31976.725;  -11.400;36951.789
613.116;31513.863;   -8.070;37197.891
613.697;32273.490;  -10.830;38411.125
614.277;32051.400;  -11.641;38673.938
614.858;31433.514;  -13.310;37075.863
615.438;31491.311;   -7.460;35092.906
616.019;29396.963;   -7.601;33666.301
616.599;30004.455;  -12.020;34189.023
617.179;29876.432;  -11.780;36952.047
617.760;28838.381;   -8.570;39582.574
618.340;29066.896;  -11.471;38943.977
618.920;29704.607;  -11.170;37594.156
619.500;30689.010;  -11.071;37866.938
620.080;30898.514;   -7.750;37869.043
620.660;31137.152;  -12.711;36868.617
621.241;32094.045;  -10.211;36352.309
621.821;31599.201;  -10.961;35459.520
622.401;31678.725;   -7.720;35207.414
622.980;33594.082;   -8.981;35980.422
623.560;32416.049;   -9.331;37351.328
624.140;28151.688;   -9.850;34388.582
624.720;23917.762;   -7.451;32368.764
625.300;23173.814;   -9.070;32638.629
625.880;27650.973;  -12.601;34599.035
626.459;30892.689;  -11.751;36831.738
627.039;30569.123;   -9.281;38299.098
627.619;29932.143;   -8.801;38289.574
628.198;30269.768;  -12.071;37220.695
628.778;31079.533;   -9.461;37632.563
629.357;31659.191;   -8.491;38003.012
629.937;30955.293;   -9.721;38402.039
630.516;31433.957;   -9.951;37868.801
631.096;32733.422;  -11.731;35760.410
631.675;35300.211;   -8.572;35225.219
632.254;35138.645;  -11.282;35130.289
632.834;33761.582;  -13.322;35794.570
633.413;34557.250;  -10.301;35788.922
633.992;34591.480;   -8.582;34532.863
634.571;35700.156;   -8.352;33590.113
635.151;34912.453;  -11.912;34943.863
635.730;32952.879;  -10.511;35352.523
636.309;32858.086;   -7.731;35366.605
636.888;32224.652;   -9.952;36165.637
637.467;31485.295;  -11.672;37515.902
638.046;30249.277;   -8.901;39288.695
638.625;29599.750;   -7.912;38279.699
639.204;28917.549;  -10.022;37741.598
639.782;30197.713;  -12.252;38364.551
640.361;32306.094;  -10.041;36740.621
640.940;32432.982;  -11.161;34950.082
641.519;31596.244;   -9.701;34137.398
642.097;32445.074;  -11.271;35654.258
642.676;32394.098;   -8.651;35637.957
643.255;31701.115;   -8.711;36567.074
643.833;31246.406;   -9.581;37809.434
644.412;31585.680;  -13.711;37337.293
644.990;32924.648;  -11.811;37018.531
645.569;35787.578;   -9.411;36518.469
646.147;36421.852;  -10.291;36186.430
646.726;34856.480;  -12.401;36267.688
647.304;33151.629;  -10.411;36647.625
647.882;33806.488;   -9.651;39286.742
648.461;33906.133;   -9.631;39157.703
649.039;31392.555;  -11.881;35412.883
649.617;31027.422;   -9.661;34744.918
650.195;31757.377;   -9.301;35403.098
650.773;30987.938;  -10.511;35053.797
651.352;30702.406;  -11.521;33756.816
651.930;29386.486;  -12.211;31868.773
652.508;28396.807;   -9.171;33121.551
653.086;29798.906;   -9.371;33564.793
653.663;31993.967;  -13.161;34054.668
654.241;30962.359;  -13.031;35693.309
654.819;29182.619;   -9.371;36422.906
655.397;29655.299;  -10.511;38213.484
655.975;29912.869;  -10.371;39507.625
656.553;30742.895;  -10.051;39498.223
657.130;31510.725;  -10.061;40395.480
657.708;28474.785;   -9.561;39242.020
658.286;25676.393;  -11.511;38920.020
658.863;25690.258;  -10.261;40202.898
659.441;28311.000;   -7.531;39677.938
660.018;31264.137;   -9.501;40413.355
660.596;31818.754;  -13.301;39931.414
661.173;34320.156;  -11.211;39604.531
661.750;34015.254;   -9.951;39700.070
662.328;31403.766;   -9.390;39292.809
662.905;30045.465;  -11.330;38235.648
663.482;27254.379;   -9.050;36212.305
664.060;24886.547;   -8.240;35944.945
664.637;28728.398;  -10.050;35170.785
665.214;33478.809;  -11.760;34197.523
665.791;32663.932;  -10.530;34549.520
666.368;32368.594;   -9.690;35118.578
666.945;32464.057;   -9.320;36019.418
667.522;33223.754;  -11.860;36048.438
668.099;32063.838;  -10.770;36243.914
668.676;31813.449;   -6.260;35958.875
669.253;34035.332;   -7.000;37384.730
669.830;34302.781;  -10.190;36779.629
670.407;33202.117;   -9.550;35231.289
670.984;32851.523;   -9.260;35544.270
671.560;31511.289;   -9.280;35466.867
672.137;29631.125;  -11.810;34280.863
672.714;29419.576;  -11.490;34632.863
673.290;30068.855;   -7.740;35135.422
673.867;30597.871;  -10.660;36114.480
674.443;29892.721;  -12.230;36152.859
675.020;28104.146;  -10.450;35327.238
675.596;26468.221;   -9.260;35795.176
676.173;27369.752;  -10.780;35430.355
676.749;28229.156;  -13.690;33549.516
677.326;29385.293;  -11.980;32210.012
677.902;27808.100;   -8.630;32068.871
678.478;26125.074;  -10.730;32583.891
679.054;27461.422;  -10.520;32088.928
679.631;28825.814;  -11.920;30978.848
680.207;29785.275;   -7.490;33160.887
680.783;30902.982;   -9.860;35570.363
681.359;31579.730;  -13.380;36125.184
681.935;30383.699;  -12.480;35240.922
682.511;30794.895;   -7.900;34429.961
683.087;31358.551;   -7.710;34463.680
683.663;32060.340;  -11.480;34648.898
684.239;31629.904;  -14.090;34546.457
684.815;32814.270;   -7.560;35586.375
685.390;33104.316;   -9.910;35821.895
685.966;32889.910;  -11.159;35085.871
686.542;33252.996;  -11.169;34198.230
687.118;31504.865;   -5.959;32847.707
687.693;31598.754;  -10.329;32794.027
688.269;31513.725;  -12.059;33072.367
688.844;32046.602;  -10.909;33141.664
689.420;32787.004;   -8.019;33965.742
689.995;29743.381;   -8.399;34655.523
690.571;29368.676;  -10.949;33576.742
691.146;28749.926;   -9.619;32657.219
691.722;26686.572;   -8.999;32526.979
692.297;25367.701;  -11.589;33014.617
692.872;25605.924;  -11.739;34012.254
693.448;25931.164;  -11.059;34237.434
694.023;28189.268;  -10.139;34142.672
694.598;30600.678;   -9.029;34132.031
695.173;30597.227;  -13.319;34205.250
695.748;28144.242;  -10.169;32882.488
696.323;25638.498;   -8.339;32864.906
696.898;24740.102;   -8.169;33170.004
697.473;27630.443;  -12.309;32432.984
698.048;27589.439;  -10.989;31649.303
698.623;26641.162;   -9.329;30778.141
699.198;28122.666;   -9.849;31140.119
699.773;29306.875;  -12.329;31764.299
700.348;29013.637;  -10.389;31780.816
700.922;27172.625;   -9.269;32046.375
701.497;25672.365;   -9.329;32603.574
702.072;27260.813;  -10.789;34799.871
702.646;27017.111;  -10.839;35793.172
703.221;27652.799;   -9.099;35201.590
703.795;28520.998;  -10.939;34764.527
704.370;27257.633;  -12.859;34307.367
704.944;28518.717;  -11.559;33509.887
705.519;29516.734;   -7.939;31388.584
706.093;31565.668;  -10.499;31340.104
706.668;32734.943;  -11.289;32630.281
707.242;32009.752;  -11.509;32728.779
707.816;30747.656;   -9.639;32947.238
708.390;29905.533;  -11.429;33277.855
708.965;30860.178;  -11.869;33834.336
709.539;31003.945;  -11.689;33709.273
710.113;30631.705;  -10.478;33044.313
710.687;28013.225;  -10.228;31953.992
711.261;27107.643;  -13.698;30505.949
711.835;26994.973;  -13.378;30262.369
712.409;26901.189;   -9.698;31254.447
712.983;26572.100;  -11.898;32754.986
713.557;25375.170;  -15.138;34018.824
714.131;26698.713;  -14.098;34579.625
714.704;26723.523;   -9.958;33890.262
715.278;25926.301;  -10.028;33531.102
715.852;25080.648;  -11.148;33601.660
716.425;24602.725;   -9.068;33515.117
716.999;26039.260;  -10.038;33185.555
717.573;26505.666;   -9.798;33905.996
718.146;27417.473;  -12.378;35199.293
718.720;28176.336;  -11.918;35060.551
719.293;27322.850;   -8.088;34973.230
719.867;26359.953;  -10.888;36394.449
720.440;27108.240;  -11.938;36663.008
721.013;29306.840;  -12.818;35102.426
721.587;30671.561;  -10.298;33985.266
722.160;30116.090;  -10.048;33524.965
722.733;28308.578;  -12.108;32987.043
723.306;26395.834;  -10.818;33066.301
723.880;27066.520;   -8.908;33399.500
724.453;26127.586;   -9.878;33468.297
725.026;25463.674;  -11.188;33816.637
725.599;25691.063;  -11.678;32797.996
726.172;25483.803;   -9.618;33187.434
726.745;26488.432;   -8.258;35136.613
727.318;29160.400;  -12.978;35751.730
727.891;30918.652;  -12.148;35890.430
728.463;32178.781;   -8.968;34822.090
729.036;32452.980;  -10.188;32895.086
729.609;30382.551;  -11.788;31823.225
730.182;28678.537;  -11.788;31445.283
730.754;27860.809;  -10.268;32373.223
731.327;27543.914;   -9.998;33676.820
731.900;26556.889;  -12.228;33417.000
732.472;25546.098;  -13.848;31978.498
733.045;25430.855;   -8.698;30368.777
733.617;24980.641;  -10.607;30574.215
734.190;23487.672;  -11.507;31280.975
734.762;23709.674;  -13.647;31674.412
735.334;25364.725;   -9.767;31247.291
735.907;25998.285;   -9.897;29876.211
736.479;23965.848;  -11.637;29808.488
737.051;23052.424;   -9.567;30233.547
737.623;23911.281;   -8.187;31469.086
738.195;25884.813;  -11.187;31784.225
738.768;26259.049;  -12.337;32120.523
739.340;25712.002;  -12.227;32094.342
739.912;25271.320;  -11.057;31312.680
740.484;26030.580;  -10.207;31946.238
741.056;27295.277;  -10.047;32984.059
741.628;26882.801;  -13.627;33897.715
742.199;27034.824;   -7.177;33213.016
742.771;25085.381;  -10.797;31369.113
743.343;23323.053;  -11.997;31865.473
743.915;23355.039;  -12.867;32388.631
744.487;23860.895;   -7.617;31079.568
745.058;25359.707;   -9.557;30570.107
745.630;25503.072;   -9.877;29970.127
746.201;24495.385;  -14.177;29186.766
746.773;24042.082;   -9.237;28805.723
747.344;24025.791;   -9.847;29591.223
747.916;24066.223;  -11.657;31412.201
748.487;23621.895;  -10.587;32194.898
749.059;23376.516;   -8.707;32533.719
749.630;22456.207;  -10.537;32158.518
750.201;22728.455;  -11.687;30855.395
750.773;22869.121;  -11.647;28622.555
751.344;24106.525;   -7.147;28405.732
751.915;24029.709;   -9.757;28461.551
752.486;23558.527;  -12.427;27842.850
753.057;21981.674;  -12.227;27845.008
753.628;21519.912;  -10.417;27728.107
754.199;21717.893;  -11.767;27381.086
754.770;21150.547;  -11.187;25882.203
755.341;20415.871;  -10.507;25886.184
755.912;20491.889;   -9.387;26050.861
756.483;20969.471;  -10.647;26798.779
757.054;20758.639;  -11.837;27048.238
757.625;19032.625;  -12.716;26294.838
758.195;18191.475;   -9.666;26142.076
758.766;18987.250;   -8.656;26392.234
759.337;18827.148;  -12.856;26334.594
759.907;17993.900;  -13.366;27579.652
760.478;17065.127;   -8.576;28352.770
761.048;17670.016;  -10.526;27325.088
761.619;18359.676;  -11.116;26460.428
762.189;17977.199;  -12.136;26029.826
762.760;17915.230;   -9.456;26430.145
763.330;18009.328;   -7.136;26670.902
763.900;18061.906;  -11.786;26603.021
764.471;17395.590;  -11.546;25542.740
765.041;16961.615;   -8.096;24358.459
765.611;16785.439;   -8.876;23991.297
766.181;16684.043;  -12.196;24470.236
766.751;17260.170;  -11.636;24845.975
767.321;17222.482;  -10.156;24533.633
767.891;16942.328;  -11.766;24916.492
768.461;16740.797;  -14.936;24776.771
769.031;16086.529;  -12.356;24757.988
769.601;15886.903;   -7.526;24181.088
770.171;16068.115;  -10.766;23670.387
770.741;16415.209;  -13.176;22960.045
771.311;15974.292;  -10.616;22917.523
771.880;14884.426;   -9.576;23562.941
772.450;14448.647;  -10.336;24216.500
773.020;14574.572;  -13.516;24140.398
773.589;14386.475;  -13.466;24414.857
774.159;13894.833;   -8.686;23858.717
774.729;13360.313;   -9.476;22942.135
775.298;13312.046;  -13.666;22324.033
775.867;13278.254;  -11.716;21140.313
776.437;12757.150;   -9.906;20838.092
777.006;12584.737;  -12.166;20599.510
777.576;13618.243;  -12.356;20508.809
778.145;13061.824;  -11.646;20732.947
778.714;11779.187;   -8.226;21062.465
779.283;11371.996;   -9.556;20949.664
779.853;11225.104;  -14.116;20508.623
780.422;11372.350;  -11.506;20649.082
780.991;11688.156;   -9.556;21527.520
781.560;12251.780;   -9.095;22632.658
782.129;11399.942;  -12.135;23048.277
782.698;10323.502;  -10.865;23438.555
783.267; 9809.505;   -9.335;23267.734
783.836;10107.938;  -11.045;22415.133
784.404;10721.664;  -13.865;20443.152
784.973;10853.061;  -13.095;19699.150
785.542;10723.908;  -11.575;19763.828
786.111;10598.664;   -9.705;20341.408
786.679;10555.583;  -12.105;20207.967
787.248;10431.326;  -12.455;19516.465
787.817;10375.800;  -11.535;18900.363
788.385;10221.581;   -9.765;17879.121
788.954;10045.345;  -14.005;17658.301
789.522; 9936.056;  -11.955;17788.879
790.090; 9270.398;  -10.135;18118.277
790.659; 8527.236;  -10.975;18338.736
791.227; 8547.284;  -13.375;18508.615
791.795; 8886.351;  -12.375;17898.254
792.364; 9061.327;  -10.725;17295.133
792.932; 9412.603;   -9.715;16822.051
793.500; 9306.654;  -12.675;17040.148
794.068; 9551.599;  -13.495;17179.787
794.636; 9706.326;  -10.885;16664.246
795.204; 9502.916;  -11.045;16524.545
795.772; 9603.851;  -13.175;17274.564
796.340; 9503.627;  -12.445;17891.002
796.908; 9766.968;   -9.735;17648.561
797.476;10188.530;   -9.815;17064.080
798.044; 9861.064;  -13.985;16672.777
798.612; 9459.269;  -13.115;17023.996
799.180; 8896.767;  -10.185;16561.615
799.747; 8589.523;   -9.055;15962.773
800.315; 8852.942;  -12.385;15296.992
800.883; 8416.616;  -15.035;14801.771
801.450; 7820.021;  -10.365;14534.430
802.018; 7628.424;   -9.855;14173.248
802.585; 7603.531;  -11.905;14029.547
803.153; 7785.541;  -11.585;13836.846
803.720; 7609.540;   -9.095;13567.324
804.287; 7556.888;   -9.135;13360.622
804.855; 7790.985;  -11.604;13681.981
805.422; 8098.221;  -11.794;13536.560
805.989; 8345.053;  -10.734;13355.958
806.556; 8405.170;  -10.444;13747.896
807.124; 8787.808;  -12.764;13987.376
807.691; 9374.229;  -12.964;14038.674
808.258; 9432.141;  -11.134;14120.152
808.825; 9462.353;   -9.854;13860.111
809.392; 9207.753;  -10.504;13268.790
809.959; 8576.500;  -13.054;12680.389
810.526; 7811.757;   -8.294;12427.308
811.093; 7140.033;   -8.394;12030.105
811.659; 6948.388;  -12.304;11653.664
812.226; 7132.724;  -13.944;11637.183
812.793; 7510.139;  -10.484;11611.521
813.360; 7636.133;  -10.144;11885.181
813.926; 7682.763;  -11.684;12770.539
814.493; 7558.928;  -13.644;12677.638
815.060; 7339.589;   -9.724;11974.336
815.626; 7484.680;   -9.854;11594.715
816.193; 7676.575;  -13.254;11579.474
816.759; 7123.898;  -13.204;11666.972
817.325; 6633.812;   -9.434;11325.530
817.892; 6429.268;  -10.134;11105.369
818.458; 6534.184;  -13.474;10843.928
819.024; 6978.360;  -11.854;10714.406
819.591; 7088.171;  -10.244;10469.165
820.157; 6854.071;  -10.704;10235.523
820.723; 6852.908;  -12.324;10847.563
821.289; 6771.124;   -9.444;11040.980
821.855; 6814.904;   -8.374;10357.100
822.421; 7173.930;  -10.234; 9978.918
822.987; 7140.215;  -13.294; 9754.177
823.553; 6747.137;  -10.884;10065.755
824.119; 6440.819;   -8.884;10036.294
824.685; 5907.284;   -6.784;10029.192
825.251; 5766.419;  -12.004;10199.230
825.816; 5499.024;  -11.474; 9820.189
826.382; 5261.459;   -9.174; 9297.248
826.948; 5545.326;   -9.214; 9381.347
827.513; 5954.047;  -10.774; 9450.726
828.079; 6013.555;  -11.924; 9472.444
828.645; 5797.769;  -10.543; 9292.643
829.210; 5659.005;  -10.533; 9065.341
829.776; 5550.531;  -10.753; 9132.620
830.341; 5691.042;  -10.173; 9092.878
830.906; 5689.115;  -10.743; 9078.557
831.472; 5408.464;  -11.113; 8534.535
832.037; 5010.958;  -10.603; 8677.874
832.602; 4866.948;  -13.323; 8628.692
833.167; 4637.259;  -10.823; 8879.031
833.733; 4471.726;  -10.113; 9189.790
834.298; 4316.424;  -13.583; 9052.608
834.863; 4480.636;  -12.703; 8895.087
835.428; 4709.237;  -10.523; 8824.266
835.993; 4687.596;   -6.963; 8845.385
836.558; 4645.217;  -10.763; 8888.563
837.123; 4726.309;   -9.903; 8966.582
837.688; 5042.040;   -9.913; 8617.860
838.253; 5096.969;  -10.283; 8590.699
838.817; 4731.889;  -12.963; 8443.797
839.382; 4578.577;  -14.243; 8799.356
839.947; 4726.292;  -10.733; 8810.595
840.511; 4795.404;   -9.383; 8796.394
841.076; 4667.708;  -12.563; 8347.231
841.641; 4473.539;  -12.953; 8224.330
842.205; 4328.211;   -7.043; 8223.349
842.770; 4110.806;   -8.163; 8622.107
843.334; 4230.332;  -12.503; 8410.386
843.898; 4393.480;  -11.693; 8337.465
844.463; 4021.896;  -10.203; 8506.283
845.027; 3719.814;   -9.533; 8280.962
845.591; 3732.328;  -13.443; 8231.141
846.156; 3827.186;  -13.143; 7969.179
846.720; 3694.962;   -9.433; 7768.278
847.284; 3608.393;  -11.033; 7630.957
847.848; 3621.646;  -10.403; 7472.395
848.412; 3482.276;  -11.553; 7437.394
848.976; 3385.411;   -8.393; 7674.592
849.540; 3333.000;   -8.713; 7836.011
850.104; 3319.247;  -12.463; 7913.669
850.668; 3398.907;  -12.973; 7694.508
851.232; 3379.037;  -10.793; 7756.887
851.796; 3385.359;  -10.662; 7926.545
852.359; 3464.744;  -13.082; 7827.844
852.923; 3444.761;  -12.192; 7641.163
853.487; 3464.303;  -11.912; 7342.501
854.050; 3319.252;  -10.892; 7042.820
854.614; 3350.805;  -13.992; 7151.338
855.177; 3432.458;  -11.732; 7105.077
855.741; 3322.426;   -8.962; 6989.675
856.304; 3179.809;   -9.442; 6596.634
856.868; 3053.430;  -14.192; 6356.272
857.431; 2992.137;  -12.702; 6468.571
857.995; 2997.676;   -9.942; 6373.210
858.558; 3090.220;   -9.112; 6324.448
859.121; 3011.617;  -12.932; 6408.327
859.684; 2919.238;  -13.442; 6347.886
860.247; 2886.418;  -10.632; 6321.264
860.810; 2831.437;  -11.272; 6301.903
861.374; 2751.029;   -9.832; 6607.881
861.937; 2676.412;  -11.762; 6408.200
862.500; 2673.705;   -9.722; 6572.639
863.062; 2662.304;  -10.512; 6387.297
863.625; 2663.105;  -11.232; 6190.836
864.188; 2712.102;  -14.112; 5807.254
864.751; 2727.203;  -11.302; 5682.413
865.314; 2601.480;  -10.112; 5547.492
865.876; 2425.468;  -12.182; 5500.150
866.439; 2284.370;  -10.722; 5415.909
867.002; 2191.914;   -9.252; 5501.567
867.564; 2245.212;   -9.572; 5413.946
868.127; 2293.977;  -13.142; 5160.325
868.689; 2379.731;  -12.902; 5133.183
869.252; 2510.057;   -9.732; 5252.382
869.814; 2452.543;   -9.432; 5297.141
870.377; 2330.984;  -11.552; 5390.919
870.939; 2294.283;   -9.052; 5599.898
871.501; 2238.070;  -10.982; 5248.336
872.063; 2139.334;  -12.292; 4854.235
872.626; 2086.364;  -14.912; 4817.074
873.188; 2002.989;  -13.112; 4987.732
873.750; 1985.036;  -13.442; 4868.651
874.312; 1971.936;   -9.402; 4779.330
874.874; 1932.261;  -11.062; 4866.348
875.436; 1812.268;  -13.931; 4718.887
875.998; 1682.212;   -9.561; 4660.005
876.560; 1663.468;  -11.321; 4462.964
877.122; 1720.366;  -12.221; 4145.042
877.683; 1836.748;  -12.191; 4056.481
878.245; 1892.470;  -12.101; 3950.740
878.807; 1927.948;   -8.971; 4058.958
879.369; 1876.289;  -12.071; 3954.677
879.930; 1736.582;  -14.621; 3941.495
880.492; 1629.951;  -10.311; 4067.014
881.053; 1632.829;  -10.901; 3859.633
881.615; 1638.019;  -14.411; 3776.071
882.176; 1567.794;  -13.761; 3734.750
882.738; 1475.633;   -9.181; 3678.489
883.299; 1449.172;  -11.791; 3405.407
883.860; 1457.687;  -13.121; 3351.106
884.422; 1405.533;  -11.211; 3394.044
884.983; 1327.088;  -10.091; 3166.443
885.544; 1282.838;   -8.461; 3189.802
886.105; 1214.549;  -12.361; 3160.360
886.666; 1147.132;  -14.141; 3093.059
887.227; 1120.553;  -11.361; 2941.957
887.788; 1072.757;  -11.401; 2974.836
888.349;  981.032;  -13.791; 2721.214
888.910;  939.445;  -13.191; 2696.493
889.471;  902.854;   -9.881; 2560.172
890.032;  906.652;   -9.881; 2558.190
890.593;  900.958;  -10.371; 2567.669
891.153;  813.908;  -13.301; 2460.307
891.714;  702.233;  -11.431; 2372.046
892.275;  652.168;  -11.291; 2309.505
892.835;  664.080;  -11.471; 2382.543
893.396;  659.897;  -11.541; 2295.502
893.956;  635.154;  -11.181; 2162.420
894.517;  593.922;  -11.741; 2125.439
895.077;  539.092;  -11.671; 2086.978
895.638;  499.298;  -11.311; 2126.316
896.198;  488.038;   -9.831; 1838.275
896.758;  474.524;   -8.421; 1892.813
897.319;  450.810;  -12.351; 1792.232
897.879;  429.821;  -13.511; 1762.751
898.439;  397.538;  -12.001; 1661.149
898.999;  377.634;  -10.180; 1781.468
899.559;  371.462;  -12.030; 1703.347
900.119;  361.304;  -15.710; 1537.525
900.679;  348.386;   -8.900; 1638.384
901.239;  327.265;   -8.340; 1527.902
901.799;  299.912;  -13.910; 1456.441
902.359;  277.975;  -13.460; 1357.140
902.919;  269.320;  -11.490; 1331.118
903.479;  270.000;  -12.110; 1317.257
904.038;  265.350;  -11.720; 1262.595
904.598;  256.169;  -13.610; 1152.034
905.158;  245.080;  -11.040; 1240.893
905.717;  230.194;  -10.900; 1233.691
906.277;  220.344;  -15.080; 1217.330
906.836;  217.546;  -13.380; 1222.408
907.396;  214.581;  -10.780; 1193.047
907.955;  207.231;   -8.500; 1182.526
908.515;  201.996;  -12.760; 1099.364
909.074;  200.948;  -11.900; 1092.863
909.633;  198.749;   -8.950; 1069.121
910.192;  198.370;   -8.770; 1196.460
910.752;  188.083;  -12.390; 1029.960
911.311;  178.819;  -13.680; 1009.780
911.870;  169.390;  -12.370;  971.460
912.429;  164.112;  -10.900; 1094.080
912.988;  161.796;  -11.690; 1081.060
913.547;  158.615;  -13.240;  940.380
914.106;  157.543;  -11.990;  999.420
914.665;  155.174;   -9.990;  984.020
915.224;  154.192;  -12.880; 1035.760
915.782;  150.899;  -12.350;  922.560
916.341;  150.797;   -9.110; 1049.840
916.900;  148.397;   -9.270;  925.260
917.458;  147.622;  -13.240;  884.220
918.017;  145.471;  -13.550;  942.600
918.576;  143.564;  -12.320;  904.440
919.134;  141.727;  -11.490;  837.980
919.693;  139.924;  -13.670;  893.060
920.251;  138.932;  -15.470;  876.500
920.809;  137.984;  -11.290;  839.580
921.368;  139.025;  -10.210;  885.360
921.926;  136.490;  -12.140;  842.940
922.484;  134.293;  -13.080;  903.360
923.042;  132.432;  -11.720;  880.340
923.601;  132.879;   -7.480;  998.680
924.159;  131.233;  -11.570;  935.560
924.717;  128.986;  -13.840;  841.080
925.275;  128.710;  -10.640;  903.240
925.833;  128.334;  -11.540;  779.320
926.391;  130.354;  -12.960;  938.380
926.949;  128.435;  -14.130;  857.680
927.506;  128.922;  -11.750;  903.500
928.064;  129.429;  -10.250;  877.580
928.622;  129.616;  -13.030;  880.100
929.180;  131.276;  -13.400;  814.180
929.737;  132.286;  -10.700;  808.540
930.295;  136.455;  -10.070;  928.480
930.853;  136.350;  -11.960;  849.100
931.410;  135.934;  -13.120;  821.120
931.968;  137.974;  -10.770;  940.660
932.525;  139.093;  -10.680;  909.380
933.082;  138.660;  -13.130;  811.440
933.640;  139.152;  -13.210;  925.900
934.197;  138.273;  -11.060;  886.360
934.754;  139.412;   -9.580;  897.780
935.312;  140.074;  -14.000;  863.340
935.869;  141.068;  -10.710; 1012.980
936.426;  139.743;   -9.860;  872.800
936.983;  139.297;   -9.710;  889.020
937.540;  140.960;  -13.990;  838.280
938.097;  144.058;  -14.040;  940.120
938.654;  147.823;  -10.310;  898.860
939.211;  147.660;  -10.560;  952.480
939.768;  148.329;  -13.900;  915.420
940.324;  151.296;  -14.760;  904.200
940.881;  154.114;  -10.370;  878.500
941.438;  158.893;   -8.260; 1021.200
941.995;  158.342;  -12.540;  992.560
942.551;  157.894;  -14.670;  875.620
943.108;  157.989;  -10.450;  937.920
943.664;  157.559;  -10.750;  869.340
944.221;  163.018;  -11.550; 1088.140
944.777;  162.394;  -14.770;  869.680
945.334;  159.489;  -12.820;  884.840
945.890;  154.761;  -10.130;  946.480
946.446;  152.161;  -13.470;  947.020
947.003;  153.485;  -12.120;  964.940
947.559;  152.889;   -9.980; 1063.040
948.115;  150.852;   -9.080; 1026.540
948.671;  148.686;  -10.830;  967.300
949.227;  148.442;  -12.440;  859.560
949.783;  146.767;  -12.910;  858.900
950.339;  151.010;  -10.270;  991.000
950.895;  152.291;  -13.630; 1023.840
951.451;  151.239;  -15.100;  925.280
952.007;  148.728;  -11.330;  998.540
952.563;  145.560;  -10.580;  937.780
953.118;  142.707;  -13.440;  904.940
953.674;  141.395;  -12.710;  935.780
954.230;  143.089;  -10.350;  949.640
954.785;  146.829;   -9.190;  936.640
955.341;  148.955;  -11.200;  998.160
955.897;  144.772;  -16.560;  834.660
956.452;  143.541;  -12.570;  953.840
957.008;  140.784;   -7.970; 1083.640
957.563;  137.031;  -11.940; 1009.540
958.118;  132.822;  -13.450;  877.700
958.674;  130.670;  -12.030;  946.780
959.229;  131.531;   -9.410; 1013.980
959.784;  131.919;  -12.000;  832.400
960.339;  132.290;  -14.780; 1001.280
960.894;  128.644;   -9.860;  963.760
961.449;  125.372;   -9.970;  859.960
962.004;  127.026;  -10.900; 1212.840
962.559;  124.159;  -13.150;  860.140
963.114;  122.514;  -13.740;  742.480
963.669;  121.943;   -9.820;  915.500
964.224;  121.609;  -13.890;  874.340
964.779;  121.150;  -12.600;  828.420
965.334;  121.089;  -10.950; 1017.860
965.888;  120.388;  -11.170;  875.360
966.443;  120.868;  -12.540;  972.380
966.998;  117.361;  -15.780;  819.460
967.552;  116.611;   -9.760;  908.380
968.107;  114.590;   -9.060;  868.300
968.661;  115.329;  -11.950;  922.440
969.216;  112.240;  -12.800;  856.280
969.770;  109.128;  -11.210;  917.200
970.324;  109.624;  -11.610;  923.140
970.879;  110.351;  -11.370;  947.180
971.433;  111.527;  -12.540;  952.720
971.987;  110.460;  -11.320;  895.340
972.541;  109.165;  -10.720;  917.100
973.095;  108.604;   -9.680; 1009.460
973.649;  105.226;  -11.440;  809.480
974.203;  103.391;  -11.210;  829.040
974.757;  102.992;  -10.240;  855.220
975.311;  103.215;  -13.720;  872.600
975.865;  101.712;  -13.770;  881.820
976.419;   99.129;  -11.690;  857.400
976.973;   96.887;   -9.510;  849.620
977.526;   96.737;  -12.620;  949.920
978.080;   94.342;  -12.010;  796.780
978.634;   92.753;  -10.170;  921.320
979.187;   92.951;   -9.020;  905.400
979.741;   94.720;   -9.820; 1018.380
980.294;   91.693;  -14.870;  789.160
980.848;   91.551;  -12.380;  717.220
981.401;   91.790;  -10.350;  816.540
981.955;   91.279;  -13.720;  844.300
982.508;   86.718;  -11.490;  746.340
983.061;   86.524;  -10.000;  915.260
983.615;   84.916;  -11.480;  798.800
984.168;   84.081;  -13.220;  770.080
984.721;   82.405;  -13.960;  880.760
985.274;   80.310;  -10.870;  867.500
985.827;   78.681;   -9.790;  834.220
986.380;   76.385;  -13.120;  721.340
986.933;   75.791;  -12.450;  864.800
987.486;   73.846;  -10.210;  861.920
988.039;   75.366;   -8.430;  863.100
988.591;   75.238;  -10.520;  893.260
989.144;   72.021;  -14.860;  737.260
989.697;   70.234;  -13.080;  758.740
990.250;   70.122;  -10.150;  858.100
990.802;   68.541;  -13.430;  755.860
991.355;   68.205;  -12.750;  974.880
991.907;   66.704;  -12.040;  864.320
992.460;   65.203;  -11.330;  753.760
993.012;   63.907;  -13.610;  749.540
993.565;   61.591;  -13.460;  711.360
994.117;   62.591;   -9.360;  950.780
994.669;   59.776;  -11.300;  701.320
995.221;   59.287;  -13.540;  791.920
995.774;   58.886;  -13.430;  787.580
996.326;   56.880;  -12.520;  740.220
996.878;   55.850;  -10.950;  838.420
997.430;   54.131;  -14.300;  699.860
997.982;   52.639;  -13.760;  750.140
998.534;   51.667;  -11.530;  739.060
999.086;   51.606;  -10.310;  738.220
999.638;   50.728;  -12.530;  661.380
1000.190;   48.948;  -11.840;  699.320
1000.741;   48.310;  -10.260;  742.700
1001.293;   48.520;   -8.860;  686.020
1001.845;   49.113;  -13.700;  676.640
1002.396;   47.587;  -12.100;  743.400
1002.948;   46.397;  -12.760;  737.400
1003.500;   45.138;  -10.380;  723.780
1004.051;   45.348;  -11.900;  907.580
1004.603;   45.157;  -12.250;  791.820
1005.154;   41.111;  -13.210;  608.980
1005.705;   41.515;  -10.950;  723.960
1006.257;   40.739;  -13.880;  707.220
1006.808;   39.524;  -12.840;  685.460
1007.359;   38.747;  -10.570;  763.240
1007.910;   38.204;   -9.620;  646.640
1008.461;   38.509;  -13.630;  732.940
1009.013;   36.744;  -17.200;  588.340
1009.564;   37.566;  -10.200;  793.520
1010.115;   36.006;  -12.570;  597.040
1010.665;   36.832;  -15.150;  602.160
1011.216;   35.874;  -14.480;  667.920
1011.767;   35.072;  -11.340;  697.920
1012.318;   35.744;   -9.780;  736.980
1012.869;   35.141;  -12.380;  679.000
1013.419;   34.439;  -15.560;  603.120
1013.970;   34.768;  -11.010;  666.640
1014.521;   33.792;  -11.610;  620.620
1015.071;   33.938;  -13.450;  670.380
1015.622;   34.000;  -13.870;  635.460
1016.172;   32.464;  -11.610;  596.820
1016.723;   32.811;  -12.120;  614.380
1017.273;   32.320;  -13.620;  604.160
1017.823;   32.316;  -14.140;  650.340
1018.374;   31.653;  -12.800;  611.760
1018.924;   32.080;  -12.340;  716.880
1019.474;   32.443;  -11.410;  718.880
1020.024;   30.898;  -14.770;  657.580
1020.574;   31.324;   -9.780;  726.160
1021.124;   31.258;   -8.560;  673.580
1021.674;   30.283;  -15.190;  559.120
1022.224;   31.700;  -13.530;  708.940
1022.774;   30.379;  -13.280;  668.820
1023.324;   31.279;  -10.690;  753.520
1023.874;   33.039;  -10.240;  875.760
1024.423;   29.755;  -12.540;  613.700
1024.973;   28.634;  -10.010;  610.760
1025.523;   28.782;  -10.550;  620.960
1026.072;   28.805;  -13.560;  606.420
1026.622;   29.538;  -15.120;  675.740
1027.172;   29.666;  -11.260;  715.660
1027.721;   28.841;  -11.410;  601.220
1028.270;   29.345;  -13.530;  663.400
1028.820;   28.900;  -13.680;  638.080
1029.369;   27.977;  -13.520;  612.700
1029.918;   27.631;  -10.980;  649.840
1030.468;   27.711;  -13.530;  564.780
1031.017;   27.687;  -13.170;  634.800
1031.566;   26.756;  -12.200;  608.900
1032.115;   27.302;   -9.960;  694.500
1032.664;   25.863;  -13.210;  596.480
1033.213;   27.034;  -12.500;  735.420
1033.762;   25.806;  -11.910;  635.620
1034.311;   26.089;   -9.640;  677.220
1034.860;   26.838;  -13.310;  691.000
1035.408;   27.147;  -11.830;  722.720
1035.957;   26.218;  -12.000;  719.540
1036.506;   24.645;  -11.690;  530.800
1037.055;   27.176;  -10.990;  844.320
1037.603;   24.938;  -15.120;  664.000
1038.152;   23.479;  -12.450;  534.760
1038.700;   24.115;  -10.560;  585.740
1039.249;   24.411;  -11.080;  681.220
1039.797;   24.461;  -12.540;  633.360
1040.345;   23.774;  -11.920;  705.420
1040.894;   24.111;  -11.410;  625.300
1041.442;   23.961;  -14.320;  632.200
1041.990;   22.965;  -16.240;  559.160
1042.538;   22.064;  -11.680;  536.180
1043.087;   23.269;  -10.760;  570.860
1043.635;   23.984;  -11.850;  670.500
1044.183;   22.998;  -15.480;  586.400
1044.731;   22.503;  -11.770;  576.000
1045.279;   22.643;  -13.090;  674.920
1045.827;   24.789;  -12.440;  892.400
1046.374;   21.667;  -13.840;  515.420
1046.922;   20.907;  -13.220;  590.580
1047.470;   22.840;  -10.230;  691.300
1048.018;   22.438;  -14.590;  647.960
1048.565;   22.410;  -12.050;  708.600
1049.113;   21.008;  -11.650;  557.000
1049.660;   20.325;  -10.510;  629.660
1050.208;   21.551;  -13.310;  675.640
1050.755;   20.510;  -15.900;  606.580
1051.303;   20.538;  -11.430;  686.820
1051.850;   20.913;   -8.480;  635.120
1052.397;   19.784;  -15.010;  473.960
1052.945;   19.977;  -13.960;  617.760
1053.492;   21.187;  -13.150;  741.840
1054.039;   21.416;   -9.630;  720.180
1054.586;   19.838;  -13.680;  557.240
1055.133;   20.839;  -14.570;  693.140
1055.680;   19.376;  -13.820;  646.620
1056.227;   19.239;  -11.730;  542.780
1056.774;   21.011;  -12.480;  794.980
1057.321;   18.260;  -13.930;  523.260
1057.868;   18.654;  -11.690;  651.320
1058.415;   18.313;   -9.520;  651.980
1058.961;   20.049;  -13.160;  678.940
1059.508;   18.710;  -12.920;  643.820
1060.055;   18.034;  -11.920;  581.780
1060.601;   18.912;  -11.500;  624.300
1061.148;   18.375;  -14.330;  616.820
1061.694;   17.434;  -16.870;  592.580
1062.241;   17.768;  -10.330;  596.320
1062.787;   18.293;  -10.620;  663.140
1063.334;   19.728;  -10.110;  808.560
1063.880;   18.641;  -13.400;  668.360
1064.426;   17.435;  -10.680;  706.820
1064.972;   16.454;   -9.920;  601.340
1065.518;   15.889;  -10.980;  566.640
1066.065;   17.499;  -14.890;  624.460
1066.611;   16.122;  -12.870;  598.800
1067.157;   17.317;  -12.950;  641.860
1067.703;   17.473;  -13.540;  668.480
1068.249;   16.528;  -13.540;  605.220
1068.794;   16.033;  -12.600;  626.880
1069.340;   15.503;  -10.620;  578.960
1069.886;   16.474;  -12.830;  590.700
1070.432;   14.733;  -14.870;  541.720
1070.977;   15.492;  -11.980;  601.080
1071.523;   15.181;   -8.200;  573.060
1072.068;   15.986;  -12.330;  582.000
1072.614;   15.180;  -16.370;  527.760
1073.160;   15.430;  -11.100;  687.040
1073.705;   14.247;  -10.480;  572.520
1074.250;   15.561;  -14.520;  559.900
1074.796;   15.869;  -11.460;  655.160
1075.341;   14.823;  -11.950;  664.100
1075.886;   14.916;  -11.460;  594.240
1076.431;   14.857;  -13.770;  649.880
1076.976;   13.903;  -12.680;  639.220
1077.521;   12.983;  -13.170;  583.080
1078.067;   13.731;  -10.860;  579.400
1078.612;   15.547;  -13.920;  661.620
1079.156;   13.749;  -13.880;  601.540
1079.701;   13.461;  -13.120;  693.260
1080.246;   14.207;   -9.940;  696.300
1080.791;   13.855;  -14.740;  625.020
1081.336;   14.365;  -13.750;  659.320
1081.880;   12.709;  -13.400;  649.680
1082.425;   12.977;  -12.220;  573.480
1082.970;   14.520;  -11.610;  717.040
1083.514;   12.726;  -13.580;  597.000
1084.059;   11.596;  -12.810;  586.720
1084.603;   12.293;  -12.320;  565.840
1085.147;   13.328;  -13.190;  645.220
1085.692;   13.654;  -12.480;  716.800
1086.236;   10.766;  -13.020;  503.140
1086.780;   13.130;   -9.190;  751.440
1087.325;   12.935;  -12.480;  654.620
1087.869;   12.722;  -12.450;  610.700
1088.413;   12.459;  -12.240;  705.040
1088.957;   10.395;   -9.020;  543.400
1089.501;   13.046;  -10.320;  766.640
1090.045;   12.423;  -12.720;  726.480
1090.589;   10.223;  -13.690;  569.920
1091.133;   11.117;  -10.020;  673.340
1091.676;   12.141;  -12.330;  591.940
1092.220;   11.245;  -14.970;  600.920
1092.764;   11.879;  -12.430;  706.960
1093.307;   11.575;   -9.800;  673.780
1093.851;   10.363;  -14.970;  556.540
1094.395;   11.249;  -15.310;  683.140
1094.938;   10.276;  -10.370;  632.520
1095.482;   10.084;  -11.050;  559.800
1096.025;   11.442;  -11.840;  710.880
1096.568;   11.704;  -12.840;  779.280
1097.112;    8.935;  -14.700;  508.180
1097.655;   10.281;   -8.720;  603.000
1098.198;    9.968;  -13.610;  600.180
1098.741;    9.351;  -13.350;  612.860
1099.285;    9.356;  -11.230;  657.300
1099.828;    7.937;  -11.840;  439.400
1100.371;    9.284;  -10.840;  608.160
1100.914;    9.747;  -14.190;  682.660
1101.457;    9.043;  -11.240;  679.900
1101.999;    8.097;  -11.270;  584.680
1102.542;    9.541;  -11.480;  641.440
1103.085;    9.570;  -11.750;  658.500
1103.628;    8.747;  -11.400;  762.060
1104.170;    8.013;  -10.490;  588.280
1104.713;    9.223;  -10.600;  646.700
1105.256;    8.223;  -14.360;  557.440
1105.798;    6.625;  -13.210;  499.980
1106.341;    8.053;  -10.270;  728.900
1106.883;    7.916;  -12.200;  521.340
1107.425;    8.446;  -13.110;  668.180
1107.968;    7.124;  -12.840;  612.380
1108.510;    8.199;   -6.480;  684.960
1109.052;    6.658;  -13.940;  612.620
1109.594;    7.336;  -13.690;  554.440
1110.136;    7.447;  -11.880;  643.220
1110.679;    6.455;   -9.500;  633.080
1111.221;    7.698;  -14.160;  604.460
1111.763;    6.768;  -13.980;  559.220
1112.304;    6.316;  -13.880;  547.140
1112.846;    6.644;  -12.210;  666.240
1113.388;   10.025;  -11.390;  942.180
1113.930;    6.778;  -14.540;  694.200
1114.472;    6.427;  -12.640;  606.540
1115.013;    4.708;  -11.620;  551.280
1115.555;    6.591;  -13.640;  587.100
1116.097;    6.069;  -15.380;  579.480
1116.638;    6.912;  -12.640;  684.600
1117.180;    6.733;   -9.850;  667.740
1117.721;    5.529;  -13.690;  568.580
1118.262;    6.623;  -12.680;  677.960
1118.804;    5.804;  -12.530;  637.340
1119.345;    5.910;  -11.690;  578.400
1119.886;    6.322;  -13.380;  704.040
1120.427;    4.828;  -14.070;  589.020
1120.969;    4.899;  -13.500;  597.920
1121.510;    4.801;  -11.480;  563.060
1122.051;    5.429;  -12.830;  723.580
1122.592;    4.912;  -14.290;  655.420
1123.133;    3.985;  -12.400;  547.940
1123.673;    5.270;  -10.130;  706.480
1124.214;    5.014;  -12.930;  612.460
1124.755;    5.299;  -14.380;  639.460
1125.296;    4.276;  -14.000;  627.320
1125.836;    4.827;  -10.070;  691.500
1126.377;    3.894;  -12.640;  599.660
1126.918;    4.516;  -12.960;  614.980
1127.458;    3.120;  -13.350;  622.220
1127.999;    4.917;  -10.750;  656.980
1128.539;    4.633;  -12.350;  694.240
1129.079;    3.993;  -14.860;  632.720
1129.620;    2.759;  -13.840;  558.100
1130.160;    3.170;  -12.330;  539.480
1130.700;    4.318;  -14.530;  640.840
1131.240;    4.664;  -12.530;  643.700
1131.781;    3.326;  -14.450;  619.680
1132.321;    3.023;   -9.790;  599.120
1132.861;    3.252;  -14.860;  564.200
1133.401;    3.120;  -14.290;  593.940
1133.941;    3.038;  -11.750;  626.280
1134.481;    2.962;   -9.920;  597.580
1135.020;    2.659;  -12.290;  609.160
1135.560;    3.720;  -11.650;  674.940
1136.100;    2.157;  -16.270;  501.160
1136.640;    2.289;  -10.890;  510.480
1137.179;    2.583;  -14.180;  537.960
1137.719;    2.870;  -16.250;  605.400
1138.258;    1.482;  -14.230;  587.360
1138.798;    2.599;   -9.090;  663.780
1139.337;    1.214;  -15.130;  482.840
1139.877;    2.514;  -13.680;  642.360
1140.416;    3.362;  -11.320;  878.060
1140.955;    1.688;  -10.860;  535.380
1141.494;    3.025;  -12.920;  669.280
1142.034;    1.794;  -13.930;  583.520
1142.573;    2.670;  -11.440;  646.280
1143.112;    1.294;  -12.000;  553.480
1143.651;    1.697;  -13.670;  536.480
1144.190;    2.068;  -12.730;  691.640
1144.729;    1.373;  -14.560;  607.420
1145.267;    1.087;  -11.830;  584.900
1145.806;    2.564;  -12.230;  637.040
1146.345;    2.123;  -14.130;  635.020
1146.884;    0.724;  -11.590;  622.500
1147.422;    0.573;  -12.550;  533.060
1147.961;    2.868;  -11.180;  708.460
1148.500;    2.171;  -11.510;  669.720
1149.038;    1.184;  -11.640;  632.500
1149.577;    2.290;  -10.130;  698.640
1150.115;   -0.546;  -13.970;  452.280
1150.653;    0.871;  -14.520;  607.340
1151.192;    0.171;  -12.810;  552.920
1151.730;    1.127;   -9.100;  652.560
1152.268;    0.328;  -12.220;  589.520
1152.806;    0.365;  -14.140;  571.180
1153.344;   -0.842;  -12.350;  577.640
1153.882;    0.399;   -8.980;  600.060
1154.421;   -0.011;  -15.190;  470.620
1154.958;   -0.238;  -15.210;  595.240
1155.496;    1.092;  -12.850;  645.280
1156.034;    0.363;   -9.940;  721.880
1156.572;    1.230;  -13.570;  667.060
1157.110;   -0.991;  -14.590;  473.940
1157.647;   -0.183;  -13.030;  676.960
1158.185;   -0.913;  -12.140;  564.320
1158.723;   -1.238;  -14.390;  509.200
1159.260;    0.466;  -14.090;  701.700
1159.798;    0.396;  -11.920;  658.160
1160.335;   -0.670;  -11.110;  631.820

