
Integration time [ms]:   3.276
Averaging Nr. [scans]: 1000
Smoothing Nr. [pixels]: 0
Data measured with spectrometer [name]: 7414430SP
Wave   ;Sample   ;Dark     ;Reference
[nm]   ;[counts] ;[counts] ;[counts] 

288.544;  150.189;    7.793;  793.890
289.143;  155.248;    7.462;  681.602
289.742;  154.506;    8.602;  828.814
290.341;  140.434;    1.321;  789.841
290.940;  129.061;   -0.709;  730.702
291.538;  130.726;    0.881;  881.108
292.137;  130.738;    0.122;  792.581
292.736;  135.972;   -1.929;  975.101
293.335;  131.579;   -8.229;  735.086
293.934;  132.596;   -5.279;  781.677
294.532;  131.456;   -1.369; 1031.958
295.131;  116.023;   -7.641;  834.394
295.730;  116.470;   -8.420;  809.588
296.328;  115.309;   -5.611;  783.442
296.927;  116.004;   -5.781;  779.652
297.525;  116.100;   -6.361;  781.236
298.124;  107.453;  -11.382;  654.009
298.722;  112.446;   -7.641;  761.933
299.321;  108.829;   -6.811;  708.597
299.919;  106.151;   -6.991;  751.918
300.518;  103.996;  -10.362;  689.338
301.116;  106.013;   -9.581;  691.381
301.715;  106.593;   -4.891;  730.222
302.313;  104.396;   -8.801;  704.943
302.911;   99.874;   -8.522;  733.830
303.509;  105.816;   -6.171;  925.627
304.108;  103.719;   -7.311;  760.383
304.706;  102.416;   -8.321;  801.664
305.304;   96.191;  -10.222;  796.707
305.902;  102.532;   -6.021;  784.484
306.500;   97.495;   -4.971;  728.200
307.098;   96.519;   -7.061;  746.560
307.696;   93.718;   -8.801;  780.432
308.294;   95.283;   -6.411;  731.359
308.892;   97.140;   -2.901;  759.769
309.490;   92.377;   -5.041;  712.161
310.088;   91.047;   -5.002;  788.444
310.686;   95.552;   -2.041;  821.749
311.284;   91.789;   -2.351;  766.040
311.882;   88.609;   -4.422;  731.225
312.480;   85.710;   -4.192;  697.167
313.078;   86.991;   -1.172;  808.331
313.675;   87.719;   -2.601;  691.600
314.273;   83.597;   -1.312;  797.837
314.871;   82.122;   -3.942;  589.829
315.468;   81.084;   -2.802;  652.090
316.066;   83.416;   -0.701;  694.427
316.664;   75.642;   -4.362;  656.351
317.261;   80.095;   -2.872;  910.128
317.859;   76.337;   -2.022;  768.735
318.456;   76.048;   -0.531;  830.096
319.054;   72.262;   -3.912;  787.828
319.651;   71.042;   -4.752;  759.928
320.249;   69.869;   -2.602;  810.188
320.846;   67.748;   -0.821;  714.286
321.443;   65.095;   -4.642;  832.135
322.041;   62.236;   -5.002;  812.315
322.638;   60.531;   -3.982;  701.456
323.235;   60.928;   -3.411;  665.683
323.833;   59.132;   -7.361;  740.354
324.430;   53.501;   -8.611;  615.900
325.027;   55.008;   -4.061;  876.855
325.624;   54.288;   -4.031;  644.532
326.221;   51.545;   -7.481;  689.717
326.818;   50.687;   -5.281;  818.332
327.415;   54.739;   -7.460;  748.828
328.012;   54.093;   -5.510;  690.585
328.609;   53.348;   -7.880;  731.389
329.206;   50.442;   -8.331;  778.621
329.803;   50.888;   -5.121;  737.841
330.400;   54.231;   -4.510;  704.260
330.997;   54.377;   -6.441;  817.147
331.594;   52.964;   -8.831;  788.185
332.191;   58.423;   -7.621;  728.722
332.787;   61.632;   -4.591;  844.463
333.384;   59.824;   -7.412;  763.093
333.981;   58.338;   -8.293;  815.687
334.578;   62.133;   -7.052;  708.378
335.174;   64.907;   -3.102;  731.469
335.771;   63.259;   -5.943;  836.456
336.367;   60.158;   -7.393;  710.631
336.964;   64.367;   -4.063;  793.266
337.561;   62.840;   -3.813;  731.112
338.157;   57.658;   -4.654;  911.916
338.754;   55.367;   -7.934;  796.589
339.350;   54.194;   -4.414;  722.493
339.946;   55.823;   -4.664;  773.135
340.543;   46.880;   -6.375;  846.136
341.139;   42.795;   -9.815;  720.836
341.735;   40.536;   -4.526;  772.593
342.332;   38.817;   -4.895;  691.472
342.928;   38.728;   -4.295;  795.394
343.524;   32.993;   -5.476;  761.684
344.120;   30.127;   -5.856;  738.562
344.716;   33.428;   -2.155;  723.717
345.313;   30.824;   -6.275;  795.342
345.909;   25.305;   -8.815;  627.336
346.505;   27.279;   -5.305;  740.247
347.101;   27.876;   -2.674;  827.864
347.697;   28.195;   -4.344;  785.398
348.293;   22.372;   -9.975;  627.244
348.889;   23.685;   -5.774;  745.914
349.485;   23.214;   -5.004;  688.205
350.081;   23.496;   -4.704;  772.592
350.676;   18.482;   -6.635;  691.606
351.272;   23.329;   -4.504;  809.530
351.868;   22.628;   -3.914;  780.497
352.464;   19.767;   -9.044;  723.932
353.059;   15.930;   -8.314;  646.017
353.655;   20.421;   -7.024;  777.063
354.251;   20.943;   -5.343;  759.845
354.846;   14.918;   -8.604;  740.646
355.442;   12.823;   -6.945;  753.071
356.038;   14.623;   -7.564;  751.708
356.633;   15.817;   -5.814;  728.594
357.229;   12.675;   -7.364;  724.757
357.824;   10.935;   -8.024;  703.600
358.420;   10.109;   -9.384;  679.726
359.015;   11.848;   -5.104;  695.357
359.610;   12.126;   -6.854;  763.920
360.206;    5.905;  -10.185;  603.240
360.801;    8.244;   -7.054;  646.503
361.396;   11.309;   -5.034;  725.975
361.992;    5.573;   -8.284;  668.220
362.587;    3.224;   -8.625;  670.160
363.182;    5.807;   -7.674;  689.631
363.777;    6.088;   -5.164;  738.242
364.372;    5.372;   -8.604;  737.314
364.967;    1.799;   -9.055;  680.744
365.563;    6.026;   -6.114;  815.567
366.158;    3.193;   -5.814;  685.161
366.753;    3.668;   -7.854;  649.263
367.348;    2.035;   -7.804;  746.056
367.942;    2.663;   -7.954;  697.298
368.537;    1.587;   -4.984;  754.245
369.132;    0.790;   -8.564;  703.428
369.727;   -3.079;   -8.855;  638.079
370.322;   -1.295;   -6.245;  580.186
370.917;   -1.298;   -6.425;  710.646
371.511;    0.568;   -6.294;  861.834
372.106;   -2.646;   -7.685;  776.964
372.701;   -4.703;   -7.335;  585.988
373.296;    0.448;   -4.564;  863.135
373.890;   -5.062;  -10.235;  647.840
374.485;   -7.065;   -7.885;  691.199
375.079;   -3.531;   -7.324;  738.685
375.674;   -0.889;   -3.494;  812.970
376.268;   -5.990;   -8.525;  691.759
376.863;  -11.212;  -10.086;  580.327
377.457;   -4.985;   -7.025;  662.490
378.052;   -6.733;   -3.585;  764.884
378.646;   -8.725;   -7.595;  741.167
379.240;   -8.659;   -8.335;  721.176
379.835;   -7.034;   -5.785;  636.978
380.429;   -9.506;   -4.335;  562.557
381.023;   -9.391;   -6.805;  779.205
381.617;  -11.736;   -9.195;  680.106
382.212;   -8.316;   -6.905;  685.303
382.806;   -7.256;   -3.745;  760.690
383.400;  -11.706;   -7.745;  672.281
383.994;  -12.612;   -9.765;  664.870
384.588;   -8.664;   -6.564;  697.701
385.182;   -7.652;   -5.344;  726.624
385.776;   -9.715;   -8.514;  706.875
386.370;  -12.950;   -9.555;  681.968
386.964;  -10.698;   -8.715;  684.155
387.558;   -9.743;   -6.174;  598.360
388.152;  -13.291;   -8.725;  681.959
388.745;  -11.296;   -7.965;  814.707
389.339;   -9.534;   -5.924;  747.642
389.933;   -8.713;   -5.524;  695.370
390.527;  -10.564;   -7.114;  859.029
391.120;  -16.141;  -10.725;  595.318
391.714;  -12.798;   -8.035;  711.633
392.308;   -9.140;   -3.574;  780.253
392.901;  -13.370;   -7.245;  642.460
393.495;  -15.687;   -9.285;  595.414
394.089;  -13.565;   -5.895;  760.452
394.682;  -14.183;   -4.295;  697.188
395.275;  -14.085;   -9.875;  719.927
395.869;  -15.712;   -8.485;  667.314
396.462;  -14.161;   -7.455;  616.609
397.056;   -9.782;   -5.424;  776.621
397.649;  -15.197;   -6.605;  731.575
398.242;  -12.788;   -8.224;  712.645
398.836;  -10.832;   -7.474;  766.408
399.429;  -12.714;   -7.094;  631.041
400.022;  -16.391;   -9.475;  665.902
400.615;  -13.729;   -7.145;  805.609
401.208;  -10.946;   -7.174;  691.451
401.802;  -14.247;   -5.515;  699.329
402.395;  -15.573;   -9.875;  683.502
402.988;  -16.494;   -8.845;  696.627
403.581;  -13.576;   -8.874;  646.878
404.174;  -10.860;   -5.324;  686.568
404.767;  -13.770;   -9.575;  638.583
405.360;  -16.127;  -10.965;  621.445
405.953;  -10.720;   -8.764;  759.034
406.545;   -9.639;   -7.514;  725.342
407.138;  -14.490;  -10.025;  618.350
407.731;  -13.674;  -10.034;  613.303
408.324;   -8.221;   -9.374;  660.554
408.917;   -9.499;   -6.534;  681.864
409.509;  -12.392;   -8.004;  740.396
410.102;  -14.516;   -9.875;  643.948
410.695;   -7.770;   -8.604;  665.758
411.287;   -8.921;   -6.794;  599.821
411.880;  -10.340;   -9.334;  585.421
412.472;  -13.236;  -10.254;  613.092
413.065;  -10.496;   -6.714;  629.408
413.657;   -7.915;   -7.234;  576.678
414.250;   -8.338;  -10.544;  646.681
414.842;  -10.632;   -9.744;  676.353
415.434;   -7.324;   -6.994;  570.463
416.027;   -3.630;   -5.893;  652.196
416.619;   -5.685;   -7.264;  713.400
417.211;   -6.528;  -10.374;  599.352
417.804;   -2.631;   -7.993;  628.499
418.396;   -6.194;   -7.234;  607.643
418.988;   -4.875;   -9.443;  659.238
419.580;   -7.803;  -10.724;  568.276
420.172;   -5.691;  -10.323;  536.196
420.764;   -1.126;   -8.793;  672.482
421.356;   -2.700;  -11.143;  636.898
421.948;   -3.687;   -8.293;  677.661
422.540;    1.514;   -7.893;  680.027
423.132;    0.993;   -7.082;  600.641
423.724;   -3.044;   -8.653;  561.267
424.316;   -0.819;  -10.213;  621.345
424.908;    3.413;   -9.762;  591.517
425.500;    3.937;   -5.572;  647.978
426.092;    3.633;   -8.422;  648.268
426.683;    2.252;   -9.283;  684.836
427.275;    6.415;   -7.852;  641.471
427.867;    8.263;   -5.272;  668.948
428.458;    7.541;   -7.682;  732.344
429.050;    5.703;  -10.612;  680.749
429.642;    9.062;   -9.882;  743.124
430.233;    9.474;   -6.962;  569.356
430.825;   10.690;   -6.842;  724.809
431.416;    7.641;   -9.672;  698.241
432.008;   11.780;   -6.552;  651.723
432.599;   12.395;   -6.891;  656.073
433.190;    8.770;  -10.912;  637.670
433.782;    8.471;  -11.172;  590.395
434.373;   16.430;   -6.061;  884.765
434.964;   14.692;   -8.251;  602.920
435.556;   12.104;   -9.722;  634.537
436.147;   15.213;   -9.082;  758.490
436.738;   15.837;   -8.041;  701.099
437.329;   20.998;   -7.341;  721.723
437.920;   12.739;   -8.162;  666.688
438.511;   12.671;  -11.802;  564.526
439.103;   20.180;  -10.191;  623.998
439.694;   21.822;   -7.601;  681.583
440.285;   22.083;   -8.541;  764.432
440.876;   19.914;   -9.751;  845.738
441.466;   20.016;   -9.401;  575.162
442.057;   25.500;   -7.760;  665.814
442.648;   24.069;   -9.971;  746.255
443.239;   21.990;  -11.001;  620.477
443.830;   27.288;   -7.990;  704.958
444.421;   29.105;   -7.910;  655.474
445.011;   25.246;   -8.131;  693.619
445.602;   25.434;   -7.111;  743.126
446.193;   27.524;  -10.920;  488.117
446.783;   32.325;   -6.500;  640.397
447.374;   26.513;   -8.671;  692.759
447.964;   27.358;  -10.781;  713.770
448.555;   36.015;   -9.650;  822.742
449.145;   33.150;   -8.660;  662.853
449.736;   33.780;   -8.990;  803.179
450.326;   32.421;   -9.500;  713.626
450.917;   38.518;   -8.680;  675.324
451.507;   38.310;   -7.520;  600.661
452.097;   37.725;   -8.590;  746.267
452.688;   38.120;  -11.340;  742.160
453.278;   39.534;  -10.100;  566.840
453.868;   43.345;   -6.019;  793.550
454.458;   41.079;   -9.440;  651.141
455.048;   41.033;  -10.560;  711.783
455.639;   42.788;  -11.799;  567.096
456.229;   47.434;   -6.899;  710.694
456.819;   48.046;   -7.389;  751.158
457.409;   48.636;  -11.119;  773.993
457.999;   51.318;   -9.289;  737.505
458.589;   51.887;   -6.139;  686.606
459.179;   51.008;   -8.729;  717.658
459.769;   48.889;   -9.789;  627.099
460.358;   54.257;  -10.259;  797.262
460.948;   54.225;   -7.299;  689.503
461.538;   55.853;  -10.289;  660.677
462.128;   53.163;  -11.269;  664.934
462.717;   60.657;   -9.368;  710.326
463.307;   63.135;   -7.908;  705.846
463.897;   59.360;   -9.599;  656.942
464.486;   57.916;   -9.769;  837.128
465.076;   62.821;   -8.048;  733.776
465.666;   67.305;   -9.358;  652.900
466.255;   63.479;   -7.919;  785.651
466.845;   62.313;  -11.689;  666.749
467.434;   66.801;   -7.818;  725.873
468.023;   67.048;   -7.678;  658.357
468.613;   65.422;  -10.939;  713.946
469.202;   68.890;  -10.118;  646.507
469.791;   73.039;   -9.108;  737.811
470.381;   75.091;   -6.058;  742.813
470.970;   75.432;  -10.428;  711.099
471.559;   74.132;  -10.268;  733.291
472.148;   78.378;   -8.448;  675.737
472.738;   80.426;   -6.917;  765.466
473.327;   79.322;  -11.978;  637.529
473.916;   78.612;  -11.888;  737.446
474.505;   83.992;   -9.437;  751.703
475.094;   87.887;   -6.747;  806.570
475.683;   85.851;   -9.367;  797.699
476.272;   86.957;  -12.637;  730.632
476.861;   89.988;  -10.027;  706.754
477.449;   96.817;   -8.716;  728.487
478.038;   90.606;   -9.577;  692.513
478.627;   92.050;   -9.718;  714.852
479.216;   98.864;   -8.947;  769.441
479.805;  101.429;   -6.256;  783.375
480.393;  101.648;   -7.937; 1008.945
480.982;  100.289;   -7.717;  874.501
481.571;  107.280;   -9.266;  858.333
482.159;  107.978;   -7.636;  705.386
482.748;  105.588;   -9.667;  821.385
483.336;  111.001;  -10.376;  858.209
483.925;  112.733;   -7.147;  774.373
484.513;  119.233;   -7.996;  758.962
485.102;  115.878;  -10.027;  810.965
485.690;  124.188;  -10.446; 1011.050
486.278;  126.631;   -8.446;  979.329
486.867;  127.590;   -6.356;  809.662
487.455;  127.857;   -9.136;  898.229
488.043;  129.813;  -10.646;  748.361
488.631;  139.350;   -7.456; 1005.079
489.220;  142.834;   -6.636;  908.626
489.808;  142.400;  -11.036;  741.415
490.396;  150.222;  -10.246;  914.645
490.984;  157.624;   -8.556;  830.161
491.572;  166.537;   -5.886;  940.315
492.160;  171.677;   -9.486;  919.081
492.748;  183.063;  -10.976;  884.341
493.336;  207.249;   -8.776; 1019.693
493.924;  232.666;   -5.465;  958.077
494.512;  260.035;   -9.986; 1066.638
495.100;  296.670;  -10.636; 1103.280
495.687;  351.134;  -10.885; 1206.373
496.275;  414.130;   -8.126; 1150.796
496.863;  483.696;  -10.586; 1281.171
497.451;  582.649;  -11.926; 1386.805
498.038;  712.433;  -10.885; 1556.729
498.626;  817.755;   -6.315; 1741.407
499.214;  965.809;   -7.326; 2016.609
499.801; 1160.136;  -11.906; 2220.633
500.389; 1404.489;  -10.466; 2312.494
500.976; 1707.712;   -5.236; 2744.849
501.564; 2142.925;   -8.936; 3148.565
502.151; 2510.639;  -13.176; 3515.999
502.738; 2950.419;  -10.646; 3971.274
503.326; 3329.893;   -9.525; 4403.796
503.913; 3704.432;  -10.856; 5161.749
504.500; 4069.909;  -11.586; 5986.420
505.088; 4484.704;  -10.336; 6381.201
505.675; 5008.235;   -6.355; 6925.547
506.262; 5707.720;   -9.046; 7619.060
506.849; 6405.251;  -10.416; 8733.969
507.436; 6887.054;  -10.305; 9790.121
508.023; 7463.024;   -5.496; 9985.472
508.610; 7721.095;   -7.856;10434.618
509.197; 8342.596;  -10.097;11198.435
509.784; 9705.820;  -10.886;12391.194
510.371;10782.396;   -9.315;13603.713
510.958;11542.631;   -9.936;14426.586
511.545;12287.170;   -9.326;15243.775
512.132;13102.867;  -10.075;15945.876
512.719;13654.662;   -7.796;16340.369
513.305;14625.032;  -10.606;18011.766
513.892;15363.483;  -11.486;19754.971
514.479;16676.492;   -9.126;20967.805
515.066;18172.209;   -6.026;22299.793
515.652;19495.207;   -8.466;22908.660
516.239;20821.205;  -10.886;23798.875
516.825;21859.545;  -11.496;25567.275
517.412;22908.117;   -5.796;28154.959
517.998;23489.357;  -10.506;28344.111
518.585;23568.443;  -10.076;27134.219
519.171;24091.508;   -8.315;27268.576
519.758;25491.082;   -8.596;28964.129
520.344;27263.049;   -8.466;30664.494
520.930;27262.482;  -11.006;32550.605
521.516;28617.857;  -10.495;35422.895
522.103;30799.602;   -5.526;38280.004
522.689;31330.744;   -8.746;37835.117
523.275;30766.418;  -11.376;37288.613
523.861;31963.303;  -11.156;37281.395
524.447;33421.832;   -8.135;37846.949
525.033;33286.871;   -7.896;38321.949
525.619;33243.496;  -12.476;38579.285
526.205;34597.410;   -9.516;40622.875
526.791;36874.305;   -6.926;42258.836
527.377;36947.578;   -8.346;42966.902
527.963;37950.195;   -8.717;42018.949
528.549;35724.207;  -11.016;42476.828
529.135;32650.854;   -8.536;41854.852
529.721;29897.113;   -9.666;41237.711
530.306;29666.324;  -10.066;41259.445
530.892;32242.281;  -11.356;41506.047
531.478;35877.578;   -6.596;43559.613
532.063;39758.805;   -8.836;47695.563
532.649;40345.219;  -10.047;50808.324
533.235;40959.445;   -9.746;51787.500
533.820;41213.328;   -6.566;52145.035
534.406;42164.016;  -10.817;51133.488
534.991;41281.457;   -9.416;49996.805
535.576;38743.594;   -9.036;48882.852
536.162;37278.250;   -6.156;46942.285
536.747;34778.492;  -11.607;45711.746
537.333;35077.816;  -11.787;48510.180
537.918;38478.480;  -12.437;50439.891
538.503;42305.703;   -7.196;50863.711
539.088;43988.934;  -10.556;50906.922
539.673;46244.379;   -8.767;52621.965
540.259;46955.762;  -10.026;52368.094
540.844;44497.059;   -7.416;50879.109
541.429;45912.816;   -9.467;52077.777
542.014;48486.438;   -9.527;52716.695
542.599;47520.855;   -9.946;52363.281
543.184;45122.508;   -7.927;53187.137
543.769;46770.148;   -9.297;54697.605
544.354;46149.352;  -10.127;53913.914
544.938;44687.000;   -9.267;49680.164
545.523;46560.777;   -6.506;47386.277
546.108;49208.195;   -9.787;49151.949
546.693;51162.340;  -11.587;51384.637
547.278;50922.754;  -10.986;51853.254
547.862;48035.988;   -8.206;51173.750
548.447;43510.176;  -10.067;51691.395
549.031;42881.082;   -9.637;52456.703
549.616;47865.281;   -9.926;52714.516
550.201;47179.918;   -6.347;52414.598
550.785;48465.457;   -7.917;52355.059
551.370;47409.941;  -10.867;54589.453
551.954;46847.844;   -9.047;58267.348
552.538;47501.078;   -7.827;59062.176
553.123;45759.008;  -10.287;58115.285
553.707;43606.086;  -12.178;56556.285
554.291;45082.246;   -8.717;56201.668
554.876;47501.578;   -7.457;55335.762
555.460;47749.051;  -10.387;54155.703
556.044;48808.813;   -9.618;53721.484
556.628;47360.934;  -11.567;53731.016
557.212;46010.922;   -8.097;54312.531
557.796;44400.676;  -11.077;53797.773
558.380;44465.551;  -11.108;56145.984
558.964;44991.246;   -9.057;57277.930
559.548;46061.852;   -6.977;56459.641
560.132;44206.051;  -11.457;54434.543
560.716;42827.215;  -11.378;54800.617
561.300;43967.848;   -9.577;57606.945
561.884;45094.922;   -7.127;58972.445
562.467;43450.418;   -7.118;57327.570
563.051;42768.898;  -13.358;54962.434
563.635;43872.094;  -10.178;52594.473
564.219;44146.848;   -7.837;50610.410
564.802;45053.254;  -11.398;49551.180
565.386;44923.211;  -12.788;48370.953
565.969;44217.676;   -9.077;48178.871
566.553;43387.367;   -6.207;49957.305
567.136;43965.461;   -8.568;50369.594
567.720;40366.152;  -11.868;49492.004
568.303;38214.742;   -8.268;50616.352
568.887;38298.602;   -8.698;50727.148
569.470;38562.457;   -6.808;51698.379
570.053;37207.223;  -13.188;52122.078
570.637;35551.645;  -12.037;52536.438
571.220;35454.816;   -8.577;51186.098
571.803;36181.480;   -8.498;51032.762
572.386;38424.977;  -10.498;49609.887
572.969;40857.199;   -9.388;48285.926
573.552;38884.875;   -8.338;47624.285
574.135;37446.910;   -8.518;45498.641
574.718;35166.617;  -13.628;41970.434
575.301;34202.234;  -10.893;41447.137
575.884;33237.855;   -8.158;40923.836
576.467;34370.625;  -10.328;45267.723
577.050;36348.914;  -13.058;48175.543
577.633;37740.094;   -9.458;47729.328
578.216;36808.945;   -8.928;47579.793
578.799;35999.438;   -9.358;47820.996
579.381;34945.887;  -11.388;48115.551
579.964;33236.852;  -11.718;47333.766
580.547;34886.523;   -8.588;46668.969
581.129;35935.844;   -8.859;44466.141
581.712;36682.453;  -10.729;44164.922
582.294;37168.027;  -11.118;46477.855
582.877;37110.664;   -5.218;48244.254
583.459;34744.574;   -8.679;47437.895
584.042;32707.443;  -10.709;46943.219
584.624;33330.563;  -11.669;46792.227
585.206;32862.926;   -8.218;46557.250
585.789;32872.836;  -10.569;45793.773
586.371;35674.445;  -11.859;43836.391
586.953;36070.973;  -10.719;42972.492
587.536;37387.680;   -7.198;42487.211
588.118;37439.359;   -8.720;42086.414
588.700;33894.137;  -10.439;43389.930
589.282;33103.898;   -9.198;43646.039
589.864;33913.082;   -9.199;43438.109
590.446;34866.910;  -11.319;43151.926
591.028;34818.660;  -11.159;42781.867
591.610;33837.785;  -11.779;42839.098
592.192;31309.240;   -7.668;42820.402
592.774;29770.115;  -11.949;40724.277
593.356;28502.195;  -12.129;39874.789
593.937;27464.914;  -10.669;39980.648
594.519;29624.990;   -6.509;42069.633
595.101;31787.557;  -10.849;42976.031
595.683;31882.627;  -11.679;44084.441
596.264;32890.039;   -9.049;43478.797
596.846;32380.043;   -8.849;43803.672
597.427;32350.506;   -9.570;42986.934
598.009;34064.297;  -12.620;42832.219
598.591;34471.484;  -10.039;42580.086
599.172;33638.723;  -10.369;43061.805
599.753;33776.063;   -9.140;41691.469
600.335;35246.121;  -11.430;40692.520
600.916;33482.801;   -9.939;39982.422
601.498;30972.799;   -8.479;40318.617
602.079;29424.992;  -10.920;40670.609
602.660;29325.953;  -11.480;41450.898
603.241;30955.781;  -11.699;41137.738
603.823;29756.379;   -9.579;38868.797
604.404;29357.697;  -10.620;38182.785
604.985;31009.396;  -10.450;38078.047
605.566;30815.078;   -9.129;38056.633
606.147;30937.496;   -7.510;37020.418
606.728;32475.309;  -10.660;37883.359
607.309;31104.639;  -11.740;38748.273
607.890;30575.814;   -9.759;38850.230
608.471;30034.834;   -8.250;37457.918
609.051;29132.568;   -9.240;36066.457
609.632;28046.760;  -12.120;35991.074
610.213;28778.250;   -9.110;37402.641
610.794;29528.359;   -8.030;38383.363
611.374;29094.961;   -8.110;40562.387
611.955;29691.016;  -13.560;38533.727
612.536;31049.775;  -11.400;36951.789
613.116;30989.402;   -8.070;37197.891
613.697;31270.432;  -10.830;38411.125
614.277;29607.363;  -11.641;38673.938
614.858;30471.719;  -13.310;37075.863
615.438;29684.547;   -7.460;35092.906
616.019;27045.121;   -7.601;33666.301
616.599;27743.445;  -12.020;34189.023
617.179;29533.979;  -11.780;36952.047
617.760;30555.320;   -8.570;39582.574
618.340;31653.771;  -11.471;38943.977
618.920;32890.320;  -11.170;37594.156
619.500;32743.217;  -11.071;37866.938
620.080;31804.385;   -7.750;37869.043
620.660;32905.184;  -12.711;36868.617
621.241;34288.855;  -10.211;36352.309
621.821;34552.441;  -10.961;35459.520
622.401;33529.609;   -7.720;35207.414
622.980;32790.023;   -8.981;35980.422
623.560;31365.123;   -9.331;37351.328
624.140;30080.014;   -9.850;34388.582
624.720;24949.598;   -7.451;32368.764
625.300;21434.063;   -9.070;32638.629
625.880;24839.080;  -12.601;34599.035
626.459;28837.191;  -11.751;36831.738
627.039;31888.588;   -9.281;38299.098
627.619;31813.414;   -8.801;38289.574
628.198;30238.109;  -12.071;37220.695
628.778;29409.377;   -9.461;37632.563
629.357;30094.688;   -8.491;38003.012
629.937;30015.389;   -9.721;38402.039
630.516;29468.584;   -9.951;37868.801
631.096;29221.270;  -11.731;35760.410
631.675;31909.045;   -8.572;35225.219
632.254;36907.961;  -11.282;35130.289
632.834;36262.055;  -13.322;35794.570
633.413;34461.008;  -10.301;35788.922
633.992;31758.650;   -8.582;34532.863
634.571;32540.496;   -8.352;33590.113
635.151;35544.742;  -11.912;34943.863
635.730;33943.934;  -10.511;35352.523
636.309;30492.934;   -7.731;35366.605
636.888;27961.156;   -9.952;36165.637
637.467;28769.287;  -11.672;37515.902
638.046;30363.469;   -8.901;39288.695
638.625;33519.777;   -7.912;38279.699
639.204;33342.027;  -10.022;37741.598
639.782;31830.564;  -12.252;38364.551
640.361;28059.773;  -10.041;36740.621
640.940;25272.748;  -11.161;34950.082
641.519;25957.984;   -9.701;34137.398
642.097;28942.346;  -11.271;35654.258
642.676;31861.863;   -8.651;35637.957
643.255;32499.334;   -8.711;36567.074
643.833;31657.006;   -9.581;37809.434
644.412;31584.193;  -13.711;37337.293
644.990;30620.670;  -11.811;37018.531
645.569;30723.637;   -9.411;36518.469
646.147;29849.764;  -10.291;36186.430
646.726;29532.660;  -12.401;36267.688
647.304;30716.172;  -10.411;36647.625
647.882;32642.779;   -9.651;39286.742
648.461;34388.563;   -9.631;39157.703
649.039;32593.891;  -11.881;35412.883
649.617;31817.727;   -9.661;34744.918
650.195;31434.406;   -9.301;35403.098
650.773;29949.148;  -10.511;35053.797
651.352;27493.654;  -11.521;33756.816
651.930;25117.289;  -12.211;31868.773
652.508;23523.357;   -9.171;33121.551
653.086;27530.604;   -9.371;33564.793
653.663;30449.014;  -13.161;34054.668
654.241;29243.650;  -13.031;35693.309
654.819;30902.676;   -9.371;36422.906
655.397;31113.563;  -10.511;38213.484
655.975;30709.186;  -10.371;39507.625
656.553;30390.313;  -10.051;39498.223
657.130;28833.551;  -10.061;40395.480
657.708;28113.598;   -9.561;39242.020
658.286;28191.158;  -11.511;38920.020
658.863;29497.131;  -10.261;40202.898
659.441;32646.598;   -7.531;39677.938
660.018;32163.783;   -9.501;40413.355
660.596;30960.543;  -13.301;39931.414
661.173;32920.637;  -11.211;39604.531
661.750;33048.559;   -9.951;39700.070
662.328;31782.750;   -9.390;39292.809
662.905;30788.789;  -11.330;38235.648
663.482;26501.877;   -9.050;36212.305
664.060;24603.459;   -8.240;35944.945
664.637;27359.047;  -10.050;35170.785
665.214;29269.666;  -11.760;34197.523
665.791;30748.201;  -10.530;34549.520
666.368;29498.389;   -9.690;35118.578
666.945;30229.988;   -9.320;36019.418
667.522;31936.494;  -11.860;36048.438
668.099;31596.961;  -10.770;36243.914
668.676;30364.783;   -6.260;35958.875
669.253;29086.035;   -7.000;37384.730
669.830;29797.258;  -10.190;36779.629
670.407;29543.561;   -9.550;35231.289
670.984;29462.186;   -9.260;35544.270
671.560;30126.297;   -9.280;35466.867
672.137;29325.176;  -11.810;34280.863
672.714;30102.902;  -11.490;34632.863
673.290;30708.572;   -7.740;35135.422
673.867;30802.986;  -10.660;36114.480
674.443;30728.873;  -12.230;36152.859
675.020;28957.135;  -10.450;35327.238
675.596;30073.209;   -9.260;35795.176
676.173;30582.502;  -10.780;35430.355
676.749;30394.088;  -13.690;33549.516
677.326;30332.381;  -11.980;32210.012
677.902;30300.826;   -8.630;32068.871
678.478;29553.803;  -10.730;32583.891
679.054;28851.443;  -10.520;32088.928
679.631;29208.795;  -11.920;30978.848
680.207;30861.762;   -7.490;33160.887
680.783;32519.141;   -9.860;35570.363
681.359;31548.861;  -13.380;36125.184
681.935;30923.865;  -12.480;35240.922
682.511;30195.805;   -7.900;34429.961
683.087;30289.670;   -7.710;34463.680
683.663;29816.463;  -11.480;34648.898
684.239;28553.430;  -14.090;34546.457
684.815;28234.766;   -7.560;35586.375
685.390;28707.152;   -9.910;35821.895
685.966;29246.240;  -11.159;35085.871
686.542;31655.848;  -11.169;34198.230
687.118;33799.590;   -5.959;32847.707
687.693;33948.953;  -10.329;32794.027
688.269;33626.238;  -12.059;33072.367
688.844;31876.432;  -10.909;33141.664
689.420;29701.682;   -8.019;33965.742
689.995;27378.723;   -8.399;34655.523
690.571;26043.369;  -10.949;33576.742
691.146;26468.279;   -9.619;32657.219
691.722;25923.090;   -8.999;32526.979
692.297;25740.273;  -11.589;33014.617
692.872;27546.707;  -11.739;34012.254
693.448;27144.053;  -11.059;34237.434
694.023;26358.297;  -10.139;34142.672
694.598;28402.182;   -9.029;34132.031
695.173;28726.068;  -13.319;34205.250
695.748;28050.795;  -10.169;32882.488
696.323;28202.162;   -8.339;32864.906
696.898;28472.570;   -8.169;33170.004
697.473;28304.145;  -12.309;32432.984
698.048;27663.027;  -10.989;31649.303
698.623;27521.416;   -9.329;30778.141
699.198;29432.105;   -9.849;31140.119
699.773;30344.979;  -12.329;31764.299
700.348;28706.113;  -10.389;31780.816
700.922;28746.115;   -9.269;32046.375
701.497;29596.338;   -9.329;32603.574
702.072;29701.791;  -10.789;34799.871
702.646;28358.625;  -10.839;35793.172
703.221;26322.057;   -9.099;35201.590
703.795;28414.621;  -10.939;34764.527
704.370;28762.959;  -12.859;34307.367
704.944;29190.480;  -11.559;33509.887
705.519;30048.145;   -7.939;31388.584
706.093;31475.184;  -10.499;31340.104
706.668;31863.750;  -11.289;32630.281
707.242;30836.154;  -11.509;32728.779
707.816;29223.414;   -9.639;32947.238
708.390;27644.424;  -11.429;33277.855
708.965;28067.889;  -11.869;33834.336
709.539;28042.855;  -11.689;33709.273
710.113;28579.559;  -10.478;33044.313
710.687;28087.504;  -10.228;31953.992
711.261;26412.578;  -13.698;30505.949
711.835;26258.168;  -13.378;30262.369
712.409;27035.273;   -9.698;31254.447
712.983;29012.730;  -11.898;32754.986
713.557;30022.676;  -15.138;34018.824
714.131;29541.236;  -14.098;34579.625
714.704;28500.254;   -9.958;33890.262
715.278;26252.447;  -10.028;33531.102
715.852;25279.037;  -11.148;33601.660
716.425;26153.309;   -9.068;33515.117
716.999;26967.855;  -10.038;33185.555
717.573;27965.350;   -9.798;33905.996
718.146;29072.213;  -12.378;35199.293
718.720;29022.910;  -11.918;35060.551
719.293;28497.666;   -8.088;34973.230
719.867;31452.295;  -10.888;36394.449
720.440;31157.480;  -11.938;36663.008
721.013;29431.367;  -12.818;35102.426
721.587;28034.818;  -10.298;33985.266
722.160;27077.133;  -10.048;33524.965
722.733;25994.594;  -12.108;32987.043
723.306;26284.115;  -10.818;33066.301
723.880;28644.018;   -8.908;33399.500
724.453;30584.771;   -9.878;33468.297
725.026;29634.342;  -11.188;33816.637
725.599;26989.846;  -11.678;32797.996
726.172;27426.770;   -9.618;33187.434
726.745;28541.023;   -8.258;35136.613
727.318;29778.439;  -12.978;35751.730
727.891;29991.404;  -12.148;35890.430
728.463;29461.609;   -8.968;34822.090
729.036;28372.727;  -10.188;32895.086
729.609;28744.824;  -11.788;31823.225
730.182;25917.938;  -11.788;31445.283
730.754;23639.574;  -10.268;32373.223
731.327;23783.793;   -9.998;33676.820
731.900;24138.115;  -12.228;33417.000
732.472;25476.934;  -13.848;31978.498
733.045;27419.707;   -8.698;30368.777
733.617;27514.008;  -10.607;30574.215
734.190;27149.441;  -11.507;31280.975
734.762;24265.852;  -13.647;31674.412
735.334;22459.523;   -9.767;31247.291
735.907;23101.016;   -9.897;29876.211
736.479;23294.936;  -11.637;29808.488
737.051;23008.926;   -9.567;30233.547
737.623;23897.615;   -8.187;31469.086
738.195;24642.834;  -11.187;31784.225
738.768;26641.170;  -12.337;32120.523
739.340;26868.406;  -12.227;32094.342
739.912;25668.053;  -11.057;31312.680
740.484;24177.789;  -10.207;31946.238
741.056;23012.494;  -10.047;32984.059
741.628;24797.639;  -13.627;33897.715
742.199;27039.047;   -7.177;33213.016
742.771;25366.902;  -10.797;31369.113
743.343;23112.338;  -11.997;31865.473
743.915;22126.609;  -12.867;32388.631
744.487;22169.418;   -7.617;31079.568
745.058;22290.955;   -9.557;30570.107
745.630;22648.746;   -9.877;29970.127
746.201;23384.129;  -14.177;29186.766
746.773;23824.438;   -9.237;28805.723
747.344;23699.979;   -9.847;29591.223
747.916;22386.051;  -11.657;31412.201
748.487;22632.445;  -10.587;32194.898
749.059;23749.846;   -8.707;32533.719
749.630;24352.658;  -10.537;32158.518
750.201;23334.602;  -11.687;30855.395
750.773;21619.256;  -11.647;28622.555
751.344;21692.090;   -7.147;28405.732
751.915;22969.492;   -9.757;28461.551
752.486;22878.348;  -12.427;27842.850
753.057;20658.746;  -12.227;27845.008
753.628;19484.781;  -10.417;27728.107
754.199;20620.301;  -11.767;27381.086
754.770;21613.631;  -11.187;25882.203
755.341;21633.535;  -10.507;25886.184
755.912;21680.002;   -9.387;26050.861
756.483;21167.355;  -10.647;26798.779
757.054;19332.615;  -11.837;27048.238
757.625;17992.520;  -12.716;26294.838
758.195;17754.238;   -9.666;26142.076
758.766;17507.943;   -8.656;26392.234
759.337;18282.309;  -12.856;26334.594
759.907;19969.205;  -13.366;27579.652
760.478;20874.209;   -8.576;28352.770
761.048;20265.988;  -10.526;27325.088
761.619;19392.639;  -11.116;26460.428
762.189;19416.145;  -12.136;26029.826
762.760;20541.695;   -9.456;26430.145
763.330;21676.885;   -7.136;26670.902
763.900;21110.848;  -11.786;26603.021
764.471;18546.775;  -11.546;25542.740
765.041;17310.850;   -8.096;24358.459
765.611;17383.877;   -8.876;23991.297
766.181;17775.387;  -12.196;24470.236
766.751;18720.496;  -11.636;24845.975
767.321;18476.070;  -10.156;24533.633
767.891;16563.615;  -11.766;24916.492
768.461;16077.994;  -14.936;24776.771
769.031;16665.766;  -12.356;24757.988
769.601;18245.279;   -7.526;24181.088
770.171;18019.418;  -10.766;23670.387
770.741;17174.375;  -13.176;22960.045
771.311;17340.008;  -10.616;22917.523
771.880;17720.732;   -9.576;23562.941
772.450;17415.652;  -10.336;24216.500
773.020;17420.066;  -13.516;24140.398
773.589;16755.852;  -13.466;24414.857
774.159;16114.902;   -8.686;23858.717
774.729;15750.033;   -9.476;22942.135
775.298;15261.940;  -13.666;22324.033
775.867;14861.812;  -11.716;21140.313
776.437;14973.180;   -9.906;20838.092
777.006;14782.094;  -12.166;20599.510
777.576;14648.825;  -12.356;20508.809
778.145;14749.860;  -11.646;20732.947
778.714;14636.746;   -8.226;21062.465
779.283;13880.147;   -9.556;20949.664
779.853;13354.645;  -14.116;20508.623
780.422;13840.344;  -11.506;20649.082
780.991;13425.265;   -9.556;21527.520
781.560;12244.068;   -9.095;22632.658
782.129;12088.247;  -12.135;23048.277
782.698;12132.106;  -10.865;23438.555
783.267;11704.781;   -9.335;23267.734
783.836;11630.357;  -11.045;22415.133
784.404;12725.278;  -13.865;20443.152
784.973;13332.812;  -13.095;19699.150
785.542;13253.048;  -11.575;19763.828
786.111;13064.922;   -9.705;20341.408
786.679;12510.984;  -12.105;20207.967
787.248;12255.532;  -12.455;19516.465
787.817;12101.997;  -11.535;18900.363
788.385;11728.489;   -9.765;17879.121
788.954;11169.584;  -14.005;17658.301
789.522;10657.125;  -11.955;17788.879
790.090;11225.636;  -10.135;18118.277
790.659;11643.084;  -10.975;18338.736
791.227;11122.501;  -13.375;18508.615
791.795;11520.223;  -12.375;17898.254
792.364;11903.620;  -10.725;17295.133
792.932;12269.646;   -9.715;16822.051
793.500;12454.530;  -12.675;17040.148
794.068;12698.814;  -13.495;17179.787
794.636;12830.250;  -10.885;16664.246
795.204;12237.167;  -11.045;16524.545
795.772;12310.149;  -13.175;17274.564
796.340;11791.818;  -12.445;17891.002
796.908;11575.450;   -9.735;17648.561
797.476;11476.452;   -9.815;17064.080
798.044;11043.914;  -13.985;16672.777
798.612;10243.246;  -13.115;17023.996
799.180; 9842.796;  -10.185;16561.615
799.747; 9757.041;   -9.055;15962.773
800.315; 9518.306;  -12.385;15296.992
800.883; 9187.554;  -15.035;14801.771
801.450; 9219.327;  -10.365;14534.430
802.018; 9311.275;   -9.855;14173.248
802.585; 9451.900;  -11.905;14029.547
803.153; 9483.043;  -11.585;13836.846
803.720; 9263.418;   -9.095;13567.324
804.287; 8762.219;   -9.135;13360.622
804.855; 8314.168;  -11.604;13681.981
805.422; 8208.108;  -11.794;13536.560
805.989; 8233.846;  -10.734;13355.958
806.556; 8406.813;  -10.444;13747.896
807.124; 8636.522;  -12.764;13987.376
807.691; 8606.555;  -12.964;14038.674
808.258; 8404.126;  -11.134;14120.152
808.825; 8072.236;   -9.854;13860.111
809.392; 8146.781;  -10.504;13268.790
809.959; 7663.906;  -13.054;12680.389
810.526; 7205.302;   -8.294;12427.308
811.093; 7246.137;   -8.394;12030.105
811.659; 7884.449;  -12.304;11653.664
812.226; 8410.743;  -13.944;11637.183
812.793; 8105.848;  -10.484;11611.521
813.360; 7460.758;  -10.144;11885.181
813.926; 7151.166;  -11.684;12770.539
814.493; 6927.564;  -13.644;12677.638
815.060; 6515.275;   -9.724;11974.336
815.626; 6514.333;   -9.854;11594.715
816.193; 6921.649;  -13.254;11579.474
816.759; 6946.427;  -13.204;11666.972
817.325; 7014.014;   -9.434;11325.530
817.892; 7373.986;  -10.134;11105.369
818.458; 7814.347;  -13.474;10843.928
819.024; 7420.755;  -11.854;10714.406
819.591; 7079.633;  -10.244;10469.165
820.157; 6840.708;  -10.704;10235.523
820.723; 6322.261;  -12.324;10847.563
821.289; 6010.958;   -9.444;11040.980
821.855; 5925.798;   -8.374;10357.100
822.421; 5900.398;  -10.234; 9978.918
822.987; 5887.225;  -13.294; 9754.177
823.553; 5580.236;  -10.884;10065.755
824.119; 5408.536;   -8.884;10036.294
824.685; 5500.058;   -6.784;10029.192
825.251; 5581.149;  -12.004;10199.230
825.816; 5540.669;  -11.474; 9820.189
826.382; 5308.715;   -9.174; 9297.248
826.948; 5517.132;   -9.214; 9381.347
827.513; 5920.915;  -10.774; 9450.726
828.079; 5742.599;  -11.924; 9472.444
828.645; 5147.920;  -10.543; 9292.643
829.210; 5037.742;  -10.533; 9065.341
829.776; 5020.275;  -10.753; 9132.620
830.341; 4902.854;  -10.173; 9092.878
830.906; 5088.376;  -10.743; 9078.557
831.472; 5428.535;  -11.113; 8534.535
832.037; 5160.621;  -10.603; 8677.874
832.602; 4608.438;  -13.323; 8628.692
833.167; 4357.817;  -10.823; 8879.031
833.733; 4309.638;  -10.113; 9189.790
834.298; 4449.427;  -13.583; 9052.608
834.863; 4524.361;  -12.703; 8895.087
835.428; 4513.700;  -10.523; 8824.266
835.993; 4365.559;   -6.963; 8845.385
836.558; 4195.344;  -10.763; 8888.563
837.123; 4315.028;   -9.903; 8966.582
837.688; 4553.892;   -9.913; 8617.860
838.253; 4797.592;  -10.283; 8590.699
838.817; 5002.476;  -12.963; 8443.797
839.382; 4916.125;  -14.243; 8799.356
839.947; 4596.145;  -10.733; 8810.595
840.511; 4296.711;   -9.383; 8796.394
841.076; 3916.851;  -12.563; 8347.231
841.641; 3979.752;  -12.953; 8224.330
842.205; 4082.135;   -7.043; 8223.349
842.770; 4182.092;   -8.163; 8622.107
843.334; 4333.862;  -12.503; 8410.386
843.898; 4273.696;  -11.693; 8337.465
844.463; 4300.413;  -10.203; 8506.283
845.027; 4086.459;   -9.533; 8280.962
845.591; 3914.889;  -13.443; 8231.141
846.156; 3891.334;  -13.143; 7969.179
846.720; 3770.145;   -9.433; 7768.278
847.284; 3649.304;  -11.033; 7630.957
847.848; 3520.924;  -10.403; 7472.395
848.412; 3430.258;  -11.553; 7437.394
848.976; 3480.002;   -8.393; 7674.592
849.540; 3416.263;   -8.713; 7836.011
850.104; 3537.126;  -12.463; 7913.669
850.668; 3904.225;  -12.973; 7694.508
851.232; 4003.844;  -10.793; 7756.887
851.796; 3834.289;  -10.662; 7926.545
852.359; 3530.495;  -13.082; 7827.844
852.923; 3371.617;  -12.192; 7641.163
853.487; 3190.458;  -11.912; 7342.501
854.050; 3148.746;  -10.892; 7042.820
854.614; 3293.397;  -13.992; 7151.338
855.177; 3413.665;  -11.732; 7105.077
855.741; 3449.497;   -8.962; 6989.675
856.304; 3338.143;   -9.442; 6596.634
856.868; 3293.641;  -14.192; 6356.272
857.431; 3395.993;  -12.702; 6468.571
857.995; 3525.683;   -9.942; 6373.210
858.558; 3537.558;   -9.112; 6324.448
859.121; 3266.350;  -12.932; 6408.327
859.684; 3142.074;  -13.442; 6347.886
860.247; 3249.615;  -10.632; 6321.264
860.810; 3244.407;  -11.272; 6301.903
861.374; 2988.507;   -9.832; 6607.881
861.937; 2734.177;  -11.762; 6408.200
862.500; 2736.923;   -9.722; 6572.639
863.062; 2925.360;  -10.512; 6387.297
863.625; 3102.983;  -11.232; 6190.836
864.188; 3265.914;  -14.112; 5807.254
864.751; 3324.612;  -11.302; 5682.413
865.314; 3209.489;  -10.112; 5547.492
865.876; 2991.926;  -12.182; 5500.150
866.439; 2972.158;  -10.722; 5415.909
867.002; 2918.299;   -9.252; 5501.567
867.564; 2708.358;   -9.572; 5413.946
868.127; 2478.711;  -13.142; 5160.325
868.689; 2372.720;  -12.902; 5133.183
869.252; 2272.654;   -9.732; 5252.382
869.814; 2176.712;   -9.432; 5297.141
870.377; 2195.175;  -11.552; 5390.919
870.939; 2270.950;   -9.052; 5599.898
871.501; 2335.722;  -10.982; 5248.336
872.063; 2336.450;  -12.292; 4854.235
872.626; 2297.033;  -14.912; 4817.074
873.188; 2323.161;  -13.112; 4987.732
873.750; 2294.585;  -13.442; 4868.651
874.312; 2192.034;   -9.402; 4779.330
874.874; 2097.927;  -11.062; 4866.348
875.436; 2007.502;  -13.931; 4718.887
875.998; 2005.727;   -9.561; 4660.005
876.560; 2035.065;  -11.321; 4462.964
877.122; 1980.289;  -12.221; 4145.042
877.683; 1888.866;  -12.191; 4056.481
878.245; 1821.260;  -12.101; 3950.740
878.807; 1875.006;   -8.971; 4058.958
879.369; 1908.030;  -12.071; 3954.677
879.930; 1809.933;  -14.621; 3941.495
880.492; 1739.489;  -10.311; 4067.014
881.053; 1694.952;  -10.901; 3859.633
881.615; 1576.306;  -14.411; 3776.071
882.176; 1485.857;  -13.761; 3734.750
882.738; 1485.112;   -9.181; 3678.489
883.299; 1537.586;  -11.791; 3405.407
883.860; 1611.263;  -13.121; 3351.106
884.422; 1573.308;  -11.211; 3394.044
884.983; 1326.457;  -10.091; 3166.443
885.544;  978.536;   -8.461; 3189.802
886.105;  723.887;  -12.361; 3160.360
886.666;  625.167;  -14.141; 3093.059
887.227;  615.066;  -11.361; 2941.957
887.788;  625.281;  -11.401; 2974.836
888.349;  631.374;  -13.791; 2721.214
888.910;  664.932;  -13.191; 2696.493
889.471;  700.231;   -9.881; 2560.172
890.032;  707.001;   -9.881; 2558.190
890.593;  703.223;  -10.371; 2567.669
891.153;  694.947;  -13.301; 2460.307
891.714;  665.005;  -11.431; 2372.046
892.275;  640.016;  -11.291; 2309.505
892.835;  611.578;  -11.471; 2382.543
893.396;  569.267;  -11.541; 2295.502
893.956;  522.318;  -11.181; 2162.420
894.517;  491.578;  -11.741; 2125.439
895.077;  488.992;  -11.671; 2086.978
895.638;  491.347;  -11.311; 2126.316
896.198;  466.612;   -9.831; 1838.275
896.758;  426.721;   -8.421; 1892.813
897.319;  399.156;  -12.351; 1792.232
897.879;  384.457;  -13.511; 1762.751
898.439;  361.722;  -12.001; 1661.149
898.999;  340.106;  -10.180; 1781.468
899.559;  332.732;  -12.030; 1703.347
900.119;  328.095;  -15.710; 1537.525
900.679;  325.652;   -8.900; 1638.384
901.239;  312.095;   -8.340; 1527.902
901.799;  301.201;  -13.910; 1456.441
902.359;  296.244;  -13.460; 1357.140
902.919;  290.559;  -11.490; 1331.118
903.479;  279.076;  -12.110; 1317.257
904.038;  258.279;  -11.720; 1262.595
904.598;  243.839;  -13.610; 1152.034
905.158;  241.652;  -11.040; 1240.893
905.717;  235.429;  -10.900; 1233.691
906.277;  223.902;  -15.080; 1217.330
906.836;  214.591;  -13.380; 1222.408
907.396;  206.477;  -10.780; 1193.047
907.955;  197.535;   -8.500; 1182.526
908.515;  188.661;  -12.760; 1099.364
909.074;  180.607;  -11.900; 1092.863
909.633;  175.830;   -8.950; 1069.121
910.192;  173.114;   -8.770; 1196.460
910.752;  167.993;  -12.390; 1029.960
911.311;  165.925;  -13.680; 1009.780
911.870;  164.006;  -12.370;  971.460
912.429;  165.424;  -10.900; 1094.080
912.988;  163.999;  -11.690; 1081.060
913.547;  159.478;  -13.240;  940.380
914.106;  156.023;  -11.990;  999.420
914.665;  152.104;   -9.990;  984.020
915.224;  151.291;  -12.880; 1035.760
915.782;  151.544;  -12.350;  922.560
916.341;  151.794;   -9.110; 1049.840
916.900;  148.162;   -9.270;  925.260
917.458;  146.489;  -13.240;  884.220
918.017;  145.683;  -13.550;  942.600
918.576;  145.962;  -12.320;  904.440
919.134;  144.019;  -11.490;  837.980
919.693;  140.201;  -13.670;  893.060
920.251;  139.016;  -15.470;  876.500
920.809;  138.169;  -11.290;  839.580
921.368;  137.890;  -10.210;  885.360
921.926;  137.502;  -12.140;  842.940
922.484;  135.706;  -13.080;  903.360
923.042;  135.757;  -11.720;  880.340
923.601;  138.867;   -7.480;  998.680
924.159;  137.138;  -11.570;  935.560
924.717;  133.729;  -13.840;  841.080
925.275;  133.860;  -10.640;  903.240
925.833;  133.892;  -11.540;  779.320
926.391;  134.351;  -12.960;  938.380
926.949;  132.005;  -14.130;  857.680
927.506;  133.495;  -11.750;  903.500
928.064;  133.161;  -10.250;  877.580
928.622;  132.202;  -13.030;  880.100
929.180;  131.551;  -13.400;  814.180
929.737;  134.311;  -10.700;  808.540
930.295;  137.111;  -10.070;  928.480
930.853;  138.438;  -11.960;  849.100
931.410;  138.334;  -13.120;  821.120
931.968;  138.342;  -10.770;  940.660
932.525;  138.300;  -10.680;  909.380
933.082;  138.112;  -13.130;  811.440
933.640;  139.509;  -13.210;  925.900
934.197;  137.964;  -11.060;  886.360
934.754;  138.435;   -9.580;  897.780
935.312;  141.343;  -14.000;  863.340
935.869;  145.387;  -10.710; 1012.980
936.426;  145.694;   -9.860;  872.800
936.983;  147.358;   -9.710;  889.020
937.540;  146.017;  -13.990;  838.280
938.097;  145.492;  -14.040;  940.120
938.654;  145.594;  -10.310;  898.860
939.211;  148.553;  -10.560;  952.480
939.768;  151.349;  -13.900;  915.420
940.324;  154.470;  -14.760;  904.200
940.881;  155.929;  -10.370;  878.500
941.438;  156.222;   -8.260; 1021.200
941.995;  152.216;  -12.540;  992.560
942.551;  150.039;  -14.670;  875.620
943.108;  150.859;  -10.450;  937.920
943.664;  153.321;  -10.750;  869.340
944.221;  155.247;  -11.550; 1088.140
944.777;  153.968;  -14.770;  869.680
945.334;  154.390;  -12.820;  884.840
945.890;  155.737;  -10.130;  946.480
946.446;  155.360;  -13.470;  947.020
947.003;  157.893;  -12.120;  964.940
947.559;  160.132;   -9.980; 1063.040
948.115;  159.889;   -9.080; 1026.540
948.671;  157.409;  -10.830;  967.300
949.227;  154.171;  -12.440;  859.560
949.783;  153.194;  -12.910;  858.900
950.339;  154.202;  -10.270;  991.000
950.895;  153.692;  -13.630; 1023.840
951.451;  153.978;  -15.100;  925.280
952.007;  153.969;  -11.330;  998.540
952.563;  154.210;  -10.580;  937.780
953.118;  152.550;  -13.440;  904.940
953.674;  152.389;  -12.710;  935.780
954.230;  152.446;  -10.350;  949.640
954.785;  150.036;   -9.190;  936.640
955.341;  147.601;  -11.200;  998.160
955.897;  145.227;  -16.560;  834.660
956.452;  147.476;  -12.570;  953.840
957.008;  146.047;   -7.970; 1083.640
957.563;  144.303;  -11.940; 1009.540
958.118;  138.994;  -13.450;  877.700
958.674;  139.442;  -12.030;  946.780
959.229;  140.981;   -9.410; 1013.980
959.784;  138.633;  -12.000;  832.400
960.339;  137.407;  -14.780; 1001.280
960.894;  134.672;   -9.860;  963.760
961.449;  131.051;   -9.970;  859.960
962.004;  130.571;  -10.900; 1212.840
962.559;  124.587;  -13.150;  860.140
963.114;  122.555;  -13.740;  742.480
963.669;  122.886;   -9.820;  915.500
964.224;  121.361;  -13.890;  874.340
964.779;  119.644;  -12.600;  828.420
965.334;  121.032;  -10.950; 1017.860
965.888;  119.558;  -11.170;  875.360
966.443;  123.052;  -12.540;  972.380
966.998;  121.400;  -15.780;  819.460
967.552;  121.294;   -9.760;  908.380
968.107;  118.325;   -9.060;  868.300
968.661;  118.084;  -11.950;  922.440
969.216;  118.860;  -12.800;  856.280
969.770;  119.336;  -11.210;  917.200
970.324;  118.330;  -11.610;  923.140
970.879;  114.581;  -11.370;  947.180
971.433;  111.570;  -12.540;  952.720
971.987;  107.479;  -11.320;  895.340
972.541;  104.447;  -10.720;  917.100
973.095;  103.649;   -9.680; 1009.460
973.649;  102.360;  -11.440;  809.480
974.203;  101.306;  -11.210;  829.040
974.757;  101.351;  -10.240;  855.220
975.311;  100.998;  -13.720;  872.600
975.865;  100.715;  -13.770;  881.820
976.419;   98.544;  -11.690;  857.400
976.973;   98.807;   -9.510;  849.620
977.526;  100.682;  -12.620;  949.920
978.080;   99.887;  -12.010;  796.780
978.634;  101.792;  -10.170;  921.320
979.187;   99.274;   -9.020;  905.400
979.741;   96.098;   -9.820; 1018.380
980.294;   91.373;  -14.870;  789.160
980.848;   89.094;  -12.380;  717.220
981.401;   91.644;  -10.350;  816.540
981.955;   93.585;  -13.720;  844.300
982.508;   92.472;  -11.490;  746.340
983.061;   93.351;  -10.000;  915.260
983.615;   89.468;  -11.480;  798.800
984.168;   86.115;  -13.220;  770.080
984.721;   84.722;  -13.960;  880.760
985.274;   84.625;  -10.870;  867.500
985.827;   83.569;   -9.790;  834.220
986.380;   80.375;  -13.120;  721.340
986.933;   79.946;  -12.450;  864.800
987.486;   79.064;  -10.210;  861.920
988.039;   78.423;   -8.430;  863.100
988.591;   74.411;  -10.520;  893.260
989.144;   73.013;  -14.860;  737.260
989.697;   71.875;  -13.080;  758.740
990.250;   72.973;  -10.150;  858.100
990.802;   71.409;  -13.430;  755.860
991.355;   71.986;  -12.750;  974.880
991.907;   69.868;  -12.040;  864.320
992.460;   67.751;  -11.330;  753.760
993.012;   67.174;  -13.610;  749.540
993.565;   65.908;  -13.460;  711.360
994.117;   67.834;   -9.360;  950.780
994.669;   64.910;  -11.300;  701.320
995.221;   61.587;  -13.540;  791.920
995.774;   60.597;  -13.430;  787.580
996.326;   59.503;  -12.520;  740.220
996.878;   58.697;  -10.950;  838.420
997.430;   56.397;  -14.300;  699.860
997.982;   55.400;  -13.760;  750.140
998.534;   55.931;  -11.530;  739.060
999.086;   54.433;  -10.310;  738.220
999.638;   52.253;  -12.530;  661.380
1000.190;   51.546;  -11.840;  699.320
1000.741;   51.741;  -10.260;  742.700
1001.293;   51.553;   -8.860;  686.020
1001.845;   50.240;  -13.700;  676.640
1002.396;   49.428;  -12.100;  743.400
1002.948;   49.396;  -12.760;  737.400
1003.500;   48.731;  -10.380;  723.780
1004.051;   48.622;  -11.900;  907.580
1004.603;   47.220;  -12.250;  791.820
1005.154;   43.224;  -13.210;  608.980
1005.705;   42.995;  -10.950;  723.960
1006.257;   42.231;  -13.880;  707.220
1006.808;   40.824;  -12.840;  685.460
1007.359;   40.833;  -10.570;  763.240
1007.910;   39.901;   -9.620;  646.640
1008.461;   39.683;  -13.630;  732.940
1009.013;   38.598;  -17.200;  588.340
1009.564;   39.744;  -10.200;  793.520
1010.115;   38.007;  -12.570;  597.040
1010.665;   37.494;  -15.150;  602.160
1011.216;   37.092;  -14.480;  667.920
1011.767;   36.771;  -11.340;  697.920
1012.318;   36.385;   -9.780;  736.980
1012.869;   36.152;  -12.380;  679.000
1013.419;   35.128;  -15.560;  603.120
1013.970;   35.470;  -11.010;  666.640
1014.521;   35.435;  -11.610;  620.620
1015.071;   35.537;  -13.450;  670.380
1015.622;   34.917;  -13.870;  635.460
1016.172;   34.724;  -11.610;  596.820
1016.723;   34.230;  -12.120;  614.380
1017.273;   33.867;  -13.620;  604.160
1017.823;   33.409;  -14.140;  650.340
1018.374;   33.007;  -12.800;  611.760
1018.924;   33.690;  -12.340;  716.880
1019.474;   33.062;  -11.410;  718.880
1020.024;   32.228;  -14.770;  657.580
1020.574;   33.211;   -9.780;  726.160
1021.124;   33.177;   -8.560;  673.580
1021.674;   31.451;  -15.190;  559.120
1022.224;   32.844;  -13.530;  708.940
1022.774;   32.266;  -13.280;  668.820
1023.324;   32.436;  -10.690;  753.520
1023.874;   32.638;  -10.240;  875.760
1024.423;   30.645;  -12.540;  613.700
1024.973;   30.844;  -10.010;  610.760
1025.523;   30.417;  -10.550;  620.960
1026.072;   29.455;  -13.560;  606.420
1026.622;   29.893;  -15.120;  675.740
1027.172;   30.737;  -11.260;  715.660
1027.721;   29.891;  -11.410;  601.220
1028.270;   29.743;  -13.530;  663.400
1028.820;   29.239;  -13.680;  638.080
1029.369;   29.364;  -13.520;  612.700
1029.918;   29.509;  -10.980;  649.840
1030.468;   28.839;  -13.530;  564.780
1031.017;   29.085;  -13.170;  634.800
1031.566;   27.905;  -12.200;  608.900
1032.115;   28.645;   -9.960;  694.500
1032.664;   27.413;  -13.210;  596.480
1033.213;   28.165;  -12.500;  735.420
1033.762;   28.061;  -11.910;  635.620
1034.311;   27.969;   -9.640;  677.220
1034.860;   28.065;  -13.310;  691.000
1035.408;   27.655;  -11.830;  722.720
1035.957;   28.318;  -12.000;  719.540
1036.506;   25.885;  -11.690;  530.800
1037.055;   27.904;  -10.990;  844.320
1037.603;   25.755;  -15.120;  664.000
1038.152;   24.558;  -12.450;  534.760
1038.700;   25.683;  -10.560;  585.740
1039.249;   25.132;  -11.080;  681.220
1039.797;   24.872;  -12.540;  633.360
1040.345;   26.092;  -11.920;  705.420
1040.894;   25.662;  -11.410;  625.300
1041.442;   24.891;  -14.320;  632.200
1041.990;   24.440;  -16.240;  559.160
1042.538;   23.860;  -11.680;  536.180
1043.087;   24.495;  -10.760;  570.860
1043.635;   25.314;  -11.850;  670.500
1044.183;   23.678;  -15.480;  586.400
1044.731;   23.676;  -11.770;  576.000
1045.279;   22.982;  -13.090;  674.920
1045.827;   25.674;  -12.440;  892.400
1046.374;   22.008;  -13.840;  515.420
1046.922;   22.760;  -13.220;  590.580
1047.470;   23.778;  -10.230;  691.300
1048.018;   23.525;  -14.590;  647.960
1048.565;   23.422;  -12.050;  708.600
1049.113;   22.515;  -11.650;  557.000
1049.660;   22.955;  -10.510;  629.660
1050.208;   22.095;  -13.310;  675.640
1050.755;   21.613;  -15.900;  606.580
1051.303;   22.981;  -11.430;  686.820
1051.850;   21.726;   -8.480;  635.120
1052.397;   20.339;  -15.010;  473.960
1052.945;   20.032;  -13.960;  617.760
1053.492;   22.601;  -13.150;  741.840
1054.039;   22.624;   -9.630;  720.180
1054.586;   21.086;  -13.680;  557.240
1055.133;   21.246;  -14.570;  693.140
1055.680;   21.488;  -13.820;  646.620
1056.227;   19.714;  -11.730;  542.780
1056.774;   21.151;  -12.480;  794.980
1057.321;   19.166;  -13.930;  523.260
1057.868;   19.730;  -11.690;  651.320
1058.415;   20.246;   -9.520;  651.980
1058.961;   20.398;  -13.160;  678.940
1059.508;   19.760;  -12.920;  643.820
1060.055;   19.683;  -11.920;  581.780
1060.601;   20.136;  -11.500;  624.300
1061.148;   19.843;  -14.330;  616.820
1061.694;   18.514;  -16.870;  592.580
1062.241;   19.247;  -10.330;  596.320
1062.787;   19.102;  -10.620;  663.140
1063.334;   19.898;  -10.110;  808.560
1063.880;   18.893;  -13.400;  668.360
1064.426;   19.356;  -10.680;  706.820
1064.972;   18.405;   -9.920;  601.340
1065.518;   17.205;  -10.980;  566.640
1066.065;   18.151;  -14.890;  624.460
1066.611;   18.100;  -12.870;  598.800
1067.157;   18.615;  -12.950;  641.860
1067.703;   17.730;  -13.540;  668.480
1068.249;   17.624;  -13.540;  605.220
1068.794;   17.813;  -12.600;  626.880
1069.340;   16.146;  -10.620;  578.960
1069.886;   17.130;  -12.830;  590.700
1070.432;   15.689;  -14.870;  541.720
1070.977;   16.618;  -11.980;  601.080
1071.523;   16.812;   -8.200;  573.060
1072.068;   16.921;  -12.330;  582.000
1072.614;   15.838;  -16.370;  527.760
1073.160;   17.067;  -11.100;  687.040
1073.705;   15.983;  -10.480;  572.520
1074.250;   15.451;  -14.520;  559.900
1074.796;   16.075;  -11.460;  655.160
1075.341;   16.876;  -11.950;  664.100
1075.886;   16.420;  -11.460;  594.240
1076.431;   15.188;  -13.770;  649.880
1076.976;   15.105;  -12.680;  639.220
1077.521;   14.892;  -13.170;  583.080
1078.067;   15.199;  -10.860;  579.400
1078.612;   15.555;  -13.920;  661.620
1079.156;   14.694;  -13.880;  601.540
1079.701;   15.527;  -13.120;  693.260
1080.246;   15.290;   -9.940;  696.300
1080.791;   15.048;  -14.740;  625.020
1081.336;   14.066;  -13.750;  659.320
1081.880;   14.406;  -13.400;  649.680
1082.425;   14.066;  -12.220;  573.480
1082.970;   15.090;  -11.610;  717.040
1083.514;   13.334;  -13.580;  597.000
1084.059;   13.754;  -12.810;  586.720
1084.603;   13.268;  -12.320;  565.840
1085.147;   14.239;  -13.190;  645.220
1085.692;   14.148;  -12.480;  716.800
1086.236;   12.421;  -13.020;  503.140
1086.780;   14.784;   -9.190;  751.440
1087.325;   13.523;  -12.480;  654.620
1087.869;   13.065;  -12.450;  610.700
1088.413;   14.199;  -12.240;  705.040
1088.957;   12.247;   -9.020;  543.400
1089.501;   13.706;  -10.320;  766.640
1090.045;   12.661;  -12.720;  726.480
1090.589;   11.890;  -13.690;  569.920
1091.133;   13.150;  -10.020;  673.340
1091.676;   13.008;  -12.330;  591.940
1092.220;   12.265;  -14.970;  600.920
1092.764;   12.858;  -12.430;  706.960
1093.307;   12.817;   -9.800;  673.780
1093.851;   11.152;  -14.970;  556.540
1094.395;   11.876;  -15.310;  683.140
1094.938;   11.512;  -10.370;  632.520
1095.482;   11.926;  -11.050;  559.800
1096.025;   12.144;  -11.840;  710.880
1096.568;   12.092;  -12.840;  779.280
1097.112;   10.263;  -14.700;  508.180
1097.655;   11.568;   -8.720;  603.000
1098.198;    9.729;  -13.610;  600.180
1098.741;    9.667;  -13.350;  612.860
1099.285;   12.003;  -11.230;  657.300
1099.828;    9.396;  -11.840;  439.400
1100.371;   10.367;  -10.840;  608.160
1100.914;    9.968;  -14.190;  682.660
1101.457;   10.691;  -11.240;  679.900
1101.999;    9.834;  -11.270;  584.680
1102.542;   10.177;  -11.480;  641.440
1103.085;    9.642;  -11.750;  658.500
1103.628;   10.907;  -11.400;  762.060
1104.170;    9.601;  -10.490;  588.280
1104.713;   10.582;  -10.600;  646.700
1105.256;    8.481;  -14.360;  557.440
1105.798;    8.745;  -13.210;  499.980
1106.341;   10.636;  -10.270;  728.900
1106.883;    9.133;  -12.200;  521.340
1107.425;    8.808;  -13.110;  668.180
1107.968;    9.046;  -12.840;  612.380
1108.510;    9.692;   -6.480;  684.960
1109.052;    7.379;  -13.940;  612.620
1109.594;    8.284;  -13.690;  554.440
1110.136;    9.697;  -11.880;  643.220
1110.679;    7.842;   -9.500;  633.080
1111.221;    8.089;  -14.160;  604.460
1111.763;    7.157;  -13.980;  559.220
1112.304;    7.122;  -13.880;  547.140
1112.846;    8.787;  -12.210;  666.240
1113.388;   10.853;  -11.390;  942.180
1113.930;    7.611;  -14.540;  694.200
1114.472;    7.521;  -12.640;  606.540
1115.013;    6.143;  -11.620;  551.280
1115.555;    6.197;  -13.640;  587.100
1116.097;    5.828;  -15.380;  579.480
1116.638;    7.448;  -12.640;  684.600
1117.180;    7.592;   -9.850;  667.740
1117.721;    7.210;  -13.690;  568.580
1118.262;    7.404;  -12.680;  677.960
1118.804;    7.704;  -12.530;  637.340
1119.345;    6.173;  -11.690;  578.400
1119.886;    7.466;  -13.380;  704.040
1120.427;    5.665;  -14.070;  589.020
1120.969;    5.339;  -13.500;  597.920
1121.510;    5.592;  -11.480;  563.060
1122.051;    7.135;  -12.830;  723.580
1122.592;    5.781;  -14.290;  655.420
1123.133;    5.205;  -12.400;  547.940
1123.673;    6.786;  -10.130;  706.480
1124.214;    5.516;  -12.930;  612.460
1124.755;    5.726;  -14.380;  639.460
1125.296;    6.306;  -14.000;  627.320
1125.836;    6.321;  -10.070;  691.500
1126.377;    5.442;  -12.640;  599.660
1126.918;    4.894;  -12.960;  614.980
1127.458;    5.138;  -13.350;  622.220
1127.999;    5.713;  -10.750;  656.980
1128.539;    5.733;  -12.350;  694.240
1129.079;    4.511;  -14.860;  632.720
1129.620;    4.780;  -13.840;  558.100
1130.160;    4.928;  -12.330;  539.480
1130.700;    5.282;  -14.530;  640.840
1131.240;    4.921;  -12.530;  643.700
1131.781;    4.630;  -14.450;  619.680
1132.321;    4.649;   -9.790;  599.120
1132.861;    3.386;  -14.860;  564.200
1133.401;    2.346;  -14.290;  593.940
1133.941;    4.824;  -11.750;  626.280
1134.481;    4.046;   -9.920;  597.580
1135.020;    4.199;  -12.290;  609.160
1135.560;    3.143;  -11.650;  674.940
1136.100;    3.705;  -16.270;  501.160
1136.640;    3.105;  -10.890;  510.480
1137.179;    2.872;  -14.180;  537.960
1137.719;    3.479;  -16.250;  605.400
1138.258;    3.730;  -14.230;  587.360
1138.798;    3.776;   -9.090;  663.780
1139.337;    2.151;  -15.130;  482.840
1139.877;    2.725;  -13.680;  642.360
1140.416;    5.649;  -11.320;  878.060
1140.955;    2.951;  -10.860;  535.380
1141.494;    3.117;  -12.920;  669.280
1142.034;    2.885;  -13.930;  583.520
1142.573;    4.399;  -11.440;  646.280
1143.112;    3.095;  -12.000;  553.480
1143.651;    2.362;  -13.670;  536.480
1144.190;    2.783;  -12.730;  691.640
1144.729;    2.725;  -14.560;  607.420
1145.267;    1.968;  -11.830;  584.900
1145.806;    3.131;  -12.230;  637.040
1146.345;    1.420;  -14.130;  635.020
1146.884;    2.251;  -11.590;  622.500
1147.422;    2.175;  -12.550;  533.060
1147.961;    3.337;  -11.180;  708.460
1148.500;    2.648;  -11.510;  669.720
1149.038;    3.263;  -11.640;  632.500
1149.577;    2.798;  -10.130;  698.640
1150.115;   -0.211;  -13.970;  452.280
1150.653;    1.696;  -14.520;  607.340
1151.192;    2.348;  -12.810;  552.920
1151.730;    1.763;   -9.100;  652.560
1152.268;    1.745;  -12.220;  589.520
1152.806;    0.444;  -14.140;  571.180
1153.344;    0.672;  -12.350;  577.640
1153.882;    1.788;   -8.980;  600.060
1154.421;   -0.262;  -15.190;  470.620
1154.958;    0.370;  -15.210;  595.240
1155.496;    2.065;  -12.850;  645.280
1156.034;    1.702;   -9.940;  721.880
1156.572;    2.428;  -13.570;  667.060
1157.110;    0.486;  -14.590;  473.940
1157.647;    1.606;  -13.030;  676.960
1158.185;    0.737;  -12.140;  564.320
1158.723;   -0.423;  -14.390;  509.200
1159.260;    0.402;  -14.090;  701.700
1159.798;    1.339;  -11.920;  658.160
1160.335;    0.239;  -11.110;  631.820

