
Integration time [ms]:   3.276
Averaging Nr. [scans]: 1000
Smoothing Nr. [pixels]: 0
Data measured with spectrometer [name]: 7414430SP
Wave   ;Sample   ;Dark     ;Reference
[nm]   ;[counts] ;[counts] ;[counts] 

288.544;  150.021;    7.793;  793.890
289.143;  154.556;    7.462;  681.602
289.742;  153.980;    8.602;  828.814
290.341;  139.059;    1.321;  789.841
290.940;  129.730;   -0.709;  730.702
291.538;  129.639;    0.881;  881.108
292.137;  129.452;    0.122;  792.581
292.736;  134.314;   -1.929;  975.101
293.335;  131.122;   -8.229;  735.086
293.934;  131.385;   -5.279;  781.677
294.532;  129.035;   -1.369; 1031.958
295.131;  115.083;   -7.641;  834.394
295.730;  115.669;   -8.420;  809.588
296.328;  114.717;   -5.611;  783.442
296.927;  115.391;   -5.781;  779.652
297.525;  116.024;   -6.361;  781.236
298.124;  106.778;  -11.382;  654.009
298.722;  110.446;   -7.641;  761.933
299.321;  108.507;   -6.811;  708.597
299.919;  106.756;   -6.991;  751.918
300.518;  103.277;  -10.362;  689.338
301.116;  105.641;   -9.581;  691.381
301.715;  105.087;   -4.891;  730.222
302.313;  103.340;   -8.801;  704.943
302.911;  100.068;   -8.522;  733.830
303.509;  105.108;   -6.171;  925.627
304.108;  102.182;   -7.311;  760.383
304.706;  101.978;   -8.321;  801.664
305.304;   95.969;  -10.222;  796.707
305.902;  101.326;   -6.021;  784.484
306.500;   97.187;   -4.971;  728.200
307.098;   96.153;   -7.061;  746.560
307.696;   93.443;   -8.801;  780.432
308.294;   94.437;   -6.411;  731.359
308.892;   96.199;   -2.901;  759.769
309.490;   92.259;   -5.041;  712.161
310.088;   91.098;   -5.002;  788.444
310.686;   95.780;   -2.041;  821.749
311.284;   90.783;   -2.351;  766.040
311.882;   87.164;   -4.422;  731.225
312.480;   85.451;   -4.192;  697.167
313.078;   87.102;   -1.172;  808.331
313.675;   87.328;   -2.601;  691.600
314.273;   82.951;   -1.312;  797.837
314.871;   81.598;   -3.942;  589.829
315.468;   80.387;   -2.802;  652.090
316.066;   83.036;   -0.701;  694.427
316.664;   75.637;   -4.362;  656.351
317.261;   80.276;   -2.872;  910.128
317.859;   75.262;   -2.022;  768.735
318.456;   75.708;   -0.531;  830.096
319.054;   72.276;   -3.912;  787.828
319.651;   71.372;   -4.752;  759.928
320.249;   69.451;   -2.602;  810.188
320.846;   67.457;   -0.821;  714.286
321.443;   64.728;   -4.642;  832.135
322.041;   61.712;   -5.002;  812.315
322.638;   60.244;   -3.982;  701.456
323.235;   60.996;   -3.411;  665.683
323.833;   58.321;   -7.361;  740.354
324.430;   54.498;   -8.611;  615.900
325.027;   54.010;   -4.061;  876.855
325.624;   53.989;   -4.031;  644.532
326.221;   51.726;   -7.481;  689.717
326.818;   51.703;   -5.281;  818.332
327.415;   54.940;   -7.460;  748.828
328.012;   53.995;   -5.510;  690.585
328.609;   53.308;   -7.880;  731.389
329.206;   51.579;   -8.331;  778.621
329.803;   50.990;   -5.121;  737.841
330.400;   53.126;   -4.510;  704.260
330.997;   55.522;   -6.441;  817.147
331.594;   53.777;   -8.831;  788.185
332.191;   59.056;   -7.621;  728.722
332.787;   61.323;   -4.591;  844.463
333.384;   60.556;   -7.412;  763.093
333.981;   59.879;   -8.293;  815.687
334.578;   61.018;   -7.052;  708.378
335.174;   64.756;   -3.102;  731.469
335.771;   63.686;   -5.943;  836.456
336.367;   61.262;   -7.393;  710.631
336.964;   65.069;   -4.063;  793.266
337.561;   61.445;   -3.813;  731.112
338.157;   58.397;   -4.654;  911.916
338.754;   56.075;   -7.934;  796.589
339.350;   54.020;   -4.414;  722.493
339.946;   55.479;   -4.664;  773.135
340.543;   47.894;   -6.375;  846.136
341.139;   43.473;   -9.815;  720.836
341.735;   40.469;   -4.526;  772.593
342.332;   38.579;   -4.895;  691.472
342.928;   39.375;   -4.295;  795.394
343.524;   33.784;   -5.476;  761.684
344.120;   30.129;   -5.856;  738.562
344.716;   33.571;   -2.155;  723.717
345.313;   31.099;   -6.275;  795.342
345.909;   26.466;   -8.815;  627.336
346.505;   27.581;   -5.305;  740.247
347.101;   28.360;   -2.674;  827.864
347.697;   28.347;   -4.344;  785.398
348.293;   23.573;   -9.975;  627.244
348.889;   24.376;   -5.774;  745.914
349.485;   23.538;   -5.004;  688.205
350.081;   24.576;   -4.704;  772.592
350.676;   19.239;   -6.635;  691.606
351.272;   23.919;   -4.504;  809.530
351.868;   23.435;   -3.914;  780.497
352.464;   20.683;   -9.044;  723.932
353.059;   17.196;   -8.314;  646.017
353.655;   20.717;   -7.024;  777.063
354.251;   21.353;   -5.343;  759.845
354.846;   16.020;   -8.604;  740.646
355.442;   14.497;   -6.945;  753.071
356.038;   15.646;   -7.564;  751.708
356.633;   15.840;   -5.814;  728.594
357.229;   13.761;   -7.364;  724.757
357.824;   12.411;   -8.024;  703.600
358.420;   11.395;   -9.384;  679.726
359.015;   11.585;   -5.104;  695.357
359.610;   12.828;   -6.854;  763.920
360.206;    6.657;  -10.185;  603.240
360.801;    9.608;   -7.054;  646.503
361.396;   11.693;   -5.034;  725.975
361.992;    7.459;   -8.284;  668.220
362.587;    5.051;   -8.625;  670.160
363.182;    6.638;   -7.674;  689.631
363.777;    7.284;   -5.164;  738.242
364.372;    6.222;   -8.604;  737.314
364.967;    3.341;   -9.055;  680.744
365.563;    7.636;   -6.114;  815.567
366.158;    4.531;   -5.814;  685.161
366.753;    4.979;   -7.854;  649.263
367.348;    3.434;   -7.804;  746.056
367.942;    4.227;   -7.954;  697.298
368.537;    2.846;   -4.984;  754.245
369.132;    2.342;   -8.564;  703.428
369.727;   -1.426;   -8.855;  638.079
370.322;    0.548;   -6.245;  580.186
370.917;   -0.479;   -6.425;  710.646
371.511;    2.383;   -6.294;  861.834
372.106;   -0.669;   -7.685;  776.964
372.701;   -4.392;   -7.335;  585.988
373.296;    1.674;   -4.564;  863.135
373.890;   -2.731;  -10.235;  647.840
374.485;   -5.402;   -7.885;  691.199
375.079;   -1.061;   -7.324;  738.685
375.674;    0.106;   -3.494;  812.970
376.268;   -4.122;   -8.525;  691.759
376.863;   -9.871;  -10.086;  580.327
377.457;   -3.870;   -7.025;  662.490
378.052;   -5.483;   -3.585;  764.884
378.646;   -6.608;   -7.595;  741.167
379.240;   -6.833;   -8.335;  721.176
379.835;   -5.820;   -5.785;  636.978
380.429;   -8.078;   -4.335;  562.557
381.023;   -7.858;   -6.805;  779.205
381.617;  -10.244;   -9.195;  680.106
382.212;   -6.805;   -6.905;  685.303
382.806;   -6.088;   -3.745;  760.690
383.400;  -10.394;   -7.745;  672.281
383.994;  -10.684;   -9.765;  664.870
384.588;   -6.697;   -6.564;  697.701
385.182;   -5.773;   -5.344;  726.624
385.776;   -7.724;   -8.514;  706.875
386.370;  -10.465;   -9.555;  681.968
386.964;   -9.209;   -8.715;  684.155
387.558;   -7.600;   -6.174;  598.360
388.152;  -10.442;   -8.725;  681.959
388.745;   -8.395;   -7.965;  814.707
389.339;   -7.912;   -5.924;  747.642
389.933;   -6.366;   -5.524;  695.370
390.527;   -7.595;   -7.114;  859.029
391.120;  -14.299;  -10.725;  595.318
391.714;  -11.284;   -8.035;  711.633
392.308;   -7.312;   -3.574;  780.253
392.901;  -11.495;   -7.245;  642.460
393.495;  -12.856;   -9.285;  595.414
394.089;  -10.677;   -5.895;  760.452
394.682;  -11.631;   -4.295;  697.188
395.275;  -12.604;   -9.875;  719.927
395.869;  -13.641;   -8.485;  667.314
396.462;  -11.917;   -7.455;  616.609
397.056;   -8.357;   -5.424;  776.621
397.649;  -12.001;   -6.605;  731.575
398.242;  -10.454;   -8.224;  712.645
398.836;   -9.723;   -7.474;  766.408
399.429;  -11.158;   -7.094;  631.041
400.022;  -14.192;   -9.475;  665.902
400.615;  -10.751;   -7.145;  805.609
401.208;   -8.764;   -7.174;  691.451
401.802;  -11.778;   -5.515;  699.329
402.395;  -12.947;   -9.875;  683.502
402.988;  -13.671;   -8.845;  696.627
403.581;   -9.927;   -8.874;  646.878
404.174;   -8.100;   -5.324;  686.568
404.767;  -11.472;   -9.575;  638.583
405.360;  -12.772;  -10.965;  621.445
405.953;   -8.172;   -8.764;  759.034
406.545;   -8.168;   -7.514;  725.342
407.138;  -11.953;  -10.025;  618.350
407.731;  -10.900;  -10.034;  613.303
408.324;   -6.273;   -9.374;  660.554
408.917;   -7.692;   -6.534;  681.864
409.509;   -9.439;   -8.004;  740.396
410.102;  -10.855;   -9.875;  643.948
410.695;   -5.625;   -8.604;  665.758
411.287;   -6.717;   -6.794;  599.821
411.880;   -7.563;   -9.334;  585.421
412.472;  -10.600;  -10.254;  613.092
413.065;   -8.454;   -6.714;  629.408
413.657;   -6.003;   -7.234;  576.678
414.250;   -5.420;  -10.544;  646.681
414.842;   -7.046;   -9.744;  676.353
415.434;   -4.870;   -6.994;  570.463
416.027;   -1.006;   -5.893;  652.196
416.619;   -2.974;   -7.264;  713.400
417.211;   -3.217;  -10.374;  599.352
417.804;   -0.411;   -7.993;  628.499
418.396;   -3.769;   -7.234;  607.643
418.988;   -1.799;   -9.443;  659.238
419.580;   -4.404;  -10.724;  568.276
420.172;   -2.217;  -10.323;  536.196
420.764;    1.477;   -8.793;  672.482
421.356;    0.316;  -11.143;  636.898
421.948;   -0.099;   -8.293;  677.661
422.540;    5.336;   -7.893;  680.027
423.132;    3.744;   -7.082;  600.641
423.724;    0.612;   -8.653;  561.267
424.316;    3.121;  -10.213;  621.345
424.908;    5.506;   -9.762;  591.517
425.500;    6.182;   -5.572;  647.978
426.092;    7.608;   -8.422;  648.268
426.683;    6.676;   -9.283;  684.836
427.275;    9.458;   -7.852;  641.471
427.867;   10.658;   -5.272;  668.948
428.458;   10.850;   -7.682;  732.344
429.050;   10.206;  -10.612;  680.749
429.642;   11.746;   -9.882;  743.124
430.233;   12.567;   -6.962;  569.356
430.825;   13.609;   -6.842;  724.809
431.416;   11.321;   -9.672;  698.241
432.008;   14.997;   -6.552;  651.723
432.599;   14.780;   -6.891;  656.073
433.190;   12.304;  -10.912;  637.670
433.782;   11.547;  -11.172;  590.395
434.373;   19.692;   -6.061;  884.765
434.964;   17.514;   -8.251;  602.920
435.556;   15.464;   -9.722;  634.537
436.147;   19.198;   -9.082;  758.490
436.738;   18.531;   -8.041;  701.099
437.329;   23.829;   -7.341;  721.723
437.920;   16.739;   -8.162;  666.688
438.511;   17.063;  -11.802;  564.526
439.103;   23.577;  -10.191;  623.998
439.694;   24.920;   -7.601;  681.583
440.285;   26.183;   -8.541;  764.432
440.876;   24.315;   -9.751;  845.738
441.466;   24.025;   -9.401;  575.162
442.057;   28.467;   -7.760;  665.814
442.648;   27.899;   -9.971;  746.255
443.239;   25.986;  -11.001;  620.477
443.830;   31.112;   -7.990;  704.958
444.421;   33.121;   -7.910;  655.474
445.011;   29.490;   -8.131;  693.619
445.602;   28.945;   -7.111;  743.126
446.193;   31.624;  -10.920;  488.117
446.783;   35.229;   -6.500;  640.397
447.374;   31.162;   -8.671;  692.759
447.964;   31.991;  -10.781;  713.770
448.555;   40.784;   -9.650;  822.742
449.145;   36.165;   -8.660;  662.853
449.736;   37.200;   -8.990;  803.179
450.326;   37.275;   -9.500;  713.626
450.917;   43.103;   -8.680;  675.324
451.507;   41.286;   -7.520;  600.661
452.097;   42.623;   -8.590;  746.267
452.688;   43.261;  -11.340;  742.160
453.278;   42.658;  -10.100;  566.840
453.868;   47.601;   -6.019;  793.550
454.458;   45.198;   -9.440;  651.141
455.048;   45.847;  -10.560;  711.783
455.639;   47.571;  -11.799;  567.096
456.229;   51.033;   -6.899;  710.694
456.819;   53.002;   -7.389;  751.158
457.409;   52.796;  -11.119;  773.993
457.999;   55.705;   -9.289;  737.505
458.589;   55.546;   -6.139;  686.606
459.179;   55.658;   -8.729;  717.658
459.769;   54.194;   -9.789;  627.099
460.358;   60.162;  -10.259;  797.262
460.948;   59.039;   -7.299;  689.503
461.538;   60.162;  -10.289;  660.677
462.128;   58.833;  -11.269;  664.934
462.717;   65.413;   -9.368;  710.326
463.307;   68.276;   -7.908;  705.846
463.897;   63.443;   -9.599;  656.942
464.486;   63.562;   -9.769;  837.128
465.076;   68.280;   -8.048;  733.776
465.666;   71.614;   -9.358;  652.900
466.255;   69.716;   -7.919;  785.651
466.845;   68.175;  -11.689;  666.749
467.434;   71.798;   -7.818;  725.873
468.023;   72.901;   -7.678;  658.357
468.613;   70.729;  -10.939;  713.946
469.202;   74.688;  -10.118;  646.507
469.791;   78.592;   -9.108;  737.811
470.381;   80.806;   -6.058;  742.813
470.970;   80.379;  -10.428;  711.099
471.559;   80.092;  -10.268;  733.291
472.148;   83.599;   -8.448;  675.737
472.738;   85.929;   -6.917;  765.466
473.327;   85.350;  -11.978;  637.529
473.916;   85.461;  -11.888;  737.446
474.505;   89.769;   -9.437;  751.703
475.094;   92.407;   -6.747;  806.570
475.683;   91.855;   -9.367;  797.699
476.272;   93.631;  -12.637;  730.632
476.861;   95.836;  -10.027;  706.754
477.449;  102.858;   -8.716;  728.487
478.038;   96.754;   -9.577;  692.513
478.627;   99.328;   -9.718;  714.852
479.216;  105.390;   -8.947;  769.441
479.805;  107.733;   -6.256;  783.375
480.393;  107.072;   -7.937; 1008.945
480.982;  106.395;   -7.717;  874.501
481.571;  113.984;   -9.266;  858.333
482.159;  113.774;   -7.636;  705.386
482.748;  113.842;   -9.667;  821.385
483.336;  118.509;  -10.376;  858.209
483.925;  119.798;   -7.147;  774.373
484.513;  126.810;   -7.996;  758.962
485.102;  123.002;  -10.027;  810.965
485.690;  132.303;  -10.446; 1011.050
486.278;  134.437;   -8.446;  979.329
486.867;  134.550;   -6.356;  809.662
487.455;  136.670;   -9.136;  898.229
488.043;  138.364;  -10.646;  748.361
488.631;  147.351;   -7.456; 1005.079
489.220;  149.981;   -6.636;  908.626
489.808;  151.178;  -11.036;  741.415
490.396;  160.698;  -10.246;  914.645
490.984;  166.052;   -8.556;  830.161
491.572;  175.780;   -5.886;  940.315
492.160;  182.923;   -9.486;  919.081
492.748;  195.352;  -10.976;  884.341
493.336;  220.237;   -8.776; 1019.693
493.924;  248.070;   -5.465;  958.077
494.512;  277.036;   -9.986; 1066.638
495.100;  318.038;  -10.636; 1103.280
495.687;  375.734;  -10.885; 1206.373
496.275;  444.685;   -8.126; 1150.796
496.863;  518.684;  -10.586; 1281.171
497.451;  627.313;  -11.926; 1386.805
498.038;  763.923;  -10.885; 1556.729
498.626;  878.930;   -6.315; 1741.407
499.214; 1039.074;   -7.326; 2016.609
499.801; 1248.504;  -11.906; 2220.633
500.389; 1511.969;  -10.466; 2312.494
500.976; 1836.977;   -5.236; 2744.849
501.564; 2307.957;   -8.936; 3148.565
502.151; 2700.281;  -13.176; 3515.999
502.738; 3172.536;  -10.646; 3971.274
503.326; 3583.825;   -9.525; 4403.796
503.913; 3988.732;  -10.856; 5161.749
504.500; 4384.391;  -11.586; 5986.420
505.088; 4833.002;  -10.336; 6381.201
505.675; 5402.493;   -6.355; 6925.547
506.262; 6152.689;   -9.046; 7619.060
506.849; 6904.595;  -10.416; 8733.969
507.436; 7418.890;  -10.305; 9790.121
508.023; 8031.434;   -5.496; 9985.472
508.610; 8305.541;   -7.856;10434.618
509.197; 8966.135;  -10.097;11198.435
509.784;10418.072;  -10.886;12391.194
510.371;11566.866;   -9.315;13603.713
510.958;12399.266;   -9.936;14426.586
511.545;13226.925;   -9.326;15243.775
512.132;14117.464;  -10.075;15945.876
512.719;14694.346;   -7.796;16340.369
513.305;15718.975;  -10.606;18011.766
513.892;16514.846;  -11.486;19754.971
514.479;17929.850;   -9.126;20967.805
515.066;19563.883;   -6.026;22299.793
515.652;20996.133;   -8.466;22908.660
516.239;22409.240;  -10.886;23798.875
516.825;23476.922;  -11.496;25567.275
517.412;24569.039;   -5.796;28154.959
517.998;25193.785;  -10.506;28344.111
518.585;25316.688;  -10.076;27134.219
519.171;25897.646;   -8.315;27268.576
519.758;27427.469;   -8.596;28964.129
520.344;29435.600;   -8.466;30664.494
520.930;29442.205;  -11.006;32550.605
521.516;30806.002;  -10.495;35422.895
522.103;33172.762;   -5.526;38280.004
522.689;33732.590;   -8.746;37835.117
523.275;33246.918;  -11.376;37288.613
523.861;34709.273;  -11.156;37281.395
524.447;36376.402;   -8.135;37846.949
525.033;36240.973;   -7.896;38321.949
525.619;36342.445;  -12.476;38579.285
526.205;37946.438;   -9.516;40622.875
526.791;40539.355;   -6.926;42258.836
527.377;40877.457;   -8.346;42966.902
527.963;42355.680;   -8.717;42018.949
528.549;40745.512;  -11.016;42476.828
529.135;39359.895;   -8.536;41854.852
529.721;38632.145;   -9.666;41237.711
530.306;37932.520;  -10.066;41259.445
530.892;37658.406;  -11.356;41506.047
531.478;39185.422;   -6.596;43559.613
532.063;42436.590;   -8.836;47695.563
532.649;43024.293;  -10.047;50808.324
533.235;43867.645;   -9.746;51787.500
533.820;44381.785;   -6.566;52145.035
534.406;45960.250;  -10.817;51133.488
534.991;45730.785;   -9.416;49996.805
535.576;44079.902;   -9.036;48882.852
536.162;44731.906;   -6.156;46942.285
536.747;45668.527;  -11.607;45711.746
537.333;49559.234;  -11.787;48510.180
537.918;52689.668;  -12.437;50439.891
538.503;51198.855;   -7.196;50863.711
539.088;47619.301;  -10.556;50906.922
539.673;47482.828;   -8.767;52621.965
540.259;47567.090;  -10.026;52368.094
540.844;44956.066;   -7.416;50879.109
541.429;46397.809;   -9.467;52077.777
542.014;49153.691;   -9.527;52716.695
542.599;48348.328;   -9.946;52363.281
543.184;45955.805;   -7.927;53187.137
543.769;47596.754;   -9.297;54697.605
544.354;47062.484;  -10.127;53913.914
544.938;45668.117;   -9.267;49680.164
545.523;47600.551;   -6.506;47386.277
546.108;50430.809;   -9.787;49151.949
546.693;52421.484;  -11.587;51384.637
547.278;52212.039;  -10.986;51853.254
547.862;49258.707;   -8.206;51173.750
548.447;44654.934;  -10.067;51691.395
549.031;44069.121;   -9.637;52456.703
549.616;49143.539;   -9.926;52714.516
550.201;48392.770;   -6.347;52414.598
550.785;49675.773;   -7.917;52355.059
551.370;48637.313;  -10.867;54589.453
551.954;48085.988;   -9.047;58267.348
552.538;48851.723;   -7.827;59062.176
553.123;47138.020;  -10.287;58115.285
553.707;44813.160;  -12.178;56556.285
554.291;46343.297;   -8.717;56201.668
554.876;48873.727;   -7.457;55335.762
555.460;49045.605;  -10.387;54155.703
556.044;50072.395;   -9.618;53721.484
556.628;48606.902;  -11.567;53731.016
557.212;47215.965;   -8.097;54312.531
557.796;45564.844;  -11.077;53797.773
558.380;45658.574;  -11.108;56145.984
558.964;46157.996;   -9.057;57277.930
559.548;47342.652;   -6.977;56459.641
560.132;45486.949;  -11.457;54434.543
560.716;44006.758;  -11.378;54800.617
561.300;45091.637;   -9.577;57606.945
561.884;46240.980;   -7.127;58972.445
562.467;44518.430;   -7.118;57327.570
563.051;43858.477;  -13.358;54962.434
563.635;45076.121;  -10.178;52594.473
564.219;45299.023;   -7.837;50610.410
564.802;46154.582;  -11.398;49551.180
565.386;45961.664;  -12.788;48370.953
565.969;45189.145;   -9.077;48178.871
566.553;44320.477;   -6.207;49957.305
567.136;44965.094;   -8.568;50369.594
567.720;41327.918;  -11.868;49492.004
568.303;39114.965;   -8.268;50616.352
568.887;39183.953;   -8.698;50727.148
569.470;39458.996;   -6.808;51698.379
570.053;38049.383;  -13.188;52122.078
570.637;36347.340;  -12.037;52536.438
571.220;36280.094;   -8.577;51186.098
571.803;37081.898;   -8.498;51032.762
572.386;39315.309;  -10.498;49609.887
572.969;41772.961;   -9.388;48285.926
573.552;39866.707;   -8.338;47624.285
574.135;38385.602;   -8.518;45498.641
574.718;36038.508;  -13.628;41970.434
575.301;35064.301;  -10.893;41447.137
575.884;34090.094;   -8.158;40923.836
576.467;35222.586;  -10.328;45267.723
577.050;37182.762;  -13.058;48175.543
577.633;38661.285;   -9.458;47729.328
578.216;37793.504;   -8.928;47579.793
578.799;36892.531;   -9.358;47820.996
579.381;35760.996;  -11.388;48115.551
579.964;33902.438;  -11.718;47333.766
580.547;35576.586;   -8.588;46668.969
581.129;36720.855;   -8.859;44466.141
581.712;37528.730;  -10.729;44164.922
582.294;38043.887;  -11.118;46477.855
582.877;37903.652;   -5.218;48244.254
583.459;35491.777;   -8.679;47437.895
584.042;33402.684;  -10.709;46943.219
584.624;33956.891;  -11.669;46792.227
585.206;33475.641;   -8.218;46557.250
585.789;33434.184;  -10.569;45793.773
586.371;36297.613;  -11.859;43836.391
586.953;36803.176;  -10.719;42972.492
587.536;38178.055;   -7.198;42487.211
588.118;38305.012;   -8.720;42086.414
588.700;34569.652;  -10.439;43389.930
589.282;33734.789;   -9.198;43646.039
589.864;34610.574;   -9.199;43438.109
590.446;35596.297;  -11.319;43151.926
591.028;35574.391;  -11.159;42781.867
591.610;34507.359;  -11.779;42839.098
592.192;31829.123;   -7.668;42820.402
592.774;30266.246;  -11.949;40724.277
593.356;28979.438;  -12.129;39874.789
593.937;27889.365;  -10.669;39980.648
594.519;30043.814;   -6.509;42069.633
595.101;32291.355;  -10.849;42976.031
595.683;32414.549;  -11.679;44084.441
596.264;33423.914;   -9.049;43478.797
596.846;32944.957;   -8.849;43803.672
597.427;32942.746;   -9.570;42986.934
598.009;34656.992;  -12.620;42832.219
598.591;35042.754;  -10.039;42580.086
599.172;34215.668;  -10.369;43061.805
599.753;34350.586;   -9.140;41691.469
600.335;35842.586;  -11.430;40692.520
600.916;34030.742;   -9.939;39982.422
601.498;31463.586;   -8.479;40318.617
602.079;29899.279;  -10.920;40670.609
602.660;29775.842;  -11.480;41450.898
603.241;31455.434;  -11.699;41137.738
603.823;30202.693;   -9.579;38868.797
604.404;29651.891;  -10.620;38182.785
604.985;31338.801;  -10.450;38078.047
605.566;31234.523;   -9.129;38056.633
606.147;31339.719;   -7.510;37020.418
606.728;32876.602;  -10.660;37883.359
607.309;31504.875;  -11.740;38748.273
607.890;31007.219;   -9.759;38850.230
608.471;30433.412;   -8.250;37457.918
609.051;29487.629;   -9.240;36066.457
609.632;28373.748;  -12.120;35991.074
610.213;29135.490;   -9.110;37402.641
610.794;29928.639;   -8.030;38383.363
611.374;29504.434;   -8.110;40562.387
611.955;30062.154;  -13.560;38533.727
612.536;31387.168;  -11.400;36951.789
613.116;31263.334;   -8.070;37197.891
613.697;31581.686;  -10.830;38411.125
614.277;29886.914;  -11.641;38673.938
614.858;30789.424;  -13.310;37075.863
615.438;30003.150;   -7.460;35092.906
616.019;27363.293;   -7.601;33666.301
616.599;28012.891;  -12.020;34189.023
617.179;29822.854;  -11.780;36952.047
617.760;30859.137;   -8.570;39582.574
618.340;31926.459;  -11.471;38943.977
618.920;33205.734;  -11.170;37594.156
619.500;33089.859;  -11.071;37866.938
620.080;32104.908;   -7.750;37869.043
620.660;33233.922;  -12.711;36868.617
621.241;34554.605;  -10.211;36352.309
621.821;34789.621;  -10.961;35459.520
622.401;33763.027;   -7.720;35207.414
622.980;33004.480;   -8.981;35980.422
623.560;31593.857;   -9.331;37351.328
624.140;30316.689;   -9.850;34388.582
624.720;25166.814;   -7.451;32368.764
625.300;21629.699;   -9.070;32638.629
625.880;25061.725;  -12.601;34599.035
626.459;29023.586;  -11.751;36831.738
627.039;32036.160;   -9.281;38299.098
627.619;31914.721;   -8.801;38289.574
628.198;30381.637;  -12.071;37220.695
628.778;29567.941;   -9.461;37632.563
629.357;30261.934;   -8.491;38003.012
629.937;30207.896;   -9.721;38402.039
630.516;29707.494;   -9.951;37868.801
631.096;29479.309;  -11.731;35760.410
631.675;32052.072;   -8.572;35225.219
632.254;37083.516;  -11.282;35130.289
632.834;36484.637;  -13.322;35794.570
633.413;34658.535;  -10.301;35788.922
633.992;31948.836;   -8.582;34532.863
634.571;32672.104;   -8.352;33590.113
635.151;35758.770;  -11.912;34943.863
635.730;34182.258;  -10.511;35352.523
636.309;30617.092;   -7.731;35366.605
636.888;28014.865;   -9.952;36165.637
637.467;28756.664;  -11.672;37515.902
638.046;30385.295;   -8.901;39288.695
638.625;33562.773;   -7.912;38279.699
639.204;33380.234;  -10.022;37741.598
639.782;31887.125;  -12.252;38364.551
640.361;28181.176;  -10.041;36740.621
640.940;25397.209;  -11.161;34950.082
641.519;26082.180;   -9.701;34137.398
642.097;28973.314;  -11.271;35654.258
642.676;31848.164;   -8.651;35637.957
643.255;32554.572;   -8.711;36567.074
643.833;31744.064;   -9.581;37809.434
644.412;31687.203;  -13.711;37337.293
644.990;30640.920;  -11.811;37018.531
645.569;30615.932;   -9.411;36518.469
646.147;29713.621;  -10.291;36186.430
646.726;29529.045;  -12.401;36267.688
647.304;30765.377;  -10.411;36647.625
647.882;32611.551;   -9.651;39286.742
648.461;34310.902;   -9.631;39157.703
649.039;32528.619;  -11.881;35412.883
649.617;31794.688;   -9.661;34744.918
650.195;31413.689;   -9.301;35403.098
650.773;29944.377;  -10.511;35053.797
651.352;27424.242;  -11.521;33756.816
651.930;25030.865;  -12.211;31868.773
652.508;23507.418;   -9.171;33121.551
653.086;27530.641;   -9.371;33564.793
653.663;30459.590;  -13.161;34054.668
654.241;29196.027;  -13.031;35693.309
654.819;30806.850;   -9.371;36422.906
655.397;31033.236;  -10.511;38213.484
655.975;30648.182;  -10.371;39507.625
656.553;30369.268;  -10.051;39498.223
657.130;28778.793;  -10.061;40395.480
657.708;28008.336;   -9.561;39242.020
658.286;28081.273;  -11.511;38920.020
658.863;29410.063;  -10.261;40202.898
659.441;32525.217;   -7.531;39677.938
660.018;32020.332;   -9.501;40413.355
660.596;30790.613;  -13.301;39931.414
661.173;32727.615;  -11.211;39604.531
661.750;32830.223;   -9.951;39700.070
662.328;31530.381;   -9.390;39292.809
662.905;30594.301;  -11.330;38235.648
663.482;26392.760;   -9.050;36212.305
664.060;24523.572;   -8.240;35944.945
664.637;27308.916;  -10.050;35170.785
665.214;29202.473;  -11.760;34197.523
665.791;30724.193;  -10.530;34549.520
666.368;29511.662;   -9.690;35118.578
666.945;30193.246;   -9.320;36019.418
667.522;31827.150;  -11.860;36048.438
668.099;31451.973;  -10.770;36243.914
668.676;30241.561;   -6.260;35958.875
669.253;28976.926;   -7.000;37384.730
669.830;29687.748;  -10.190;36779.629
670.407;29414.133;   -9.550;35231.289
670.984;29277.646;   -9.260;35544.270
671.560;29926.225;   -9.280;35466.867
672.137;29164.313;  -11.810;34280.863
672.714;29911.574;  -11.490;34632.863
673.290;30521.006;   -7.740;35135.422
673.867;30658.518;  -10.660;36114.480
674.443;30622.295;  -12.230;36152.859
675.020;28879.641;  -10.450;35327.238
675.596;29915.092;   -9.260;35795.176
676.173;30381.492;  -10.780;35430.355
676.749;30139.250;  -13.690;33549.516
677.326;30062.336;  -11.980;32210.012
677.902;30010.621;   -8.630;32068.871
678.478;29307.082;  -10.730;32583.891
679.054;28600.883;  -10.520;32088.928
679.631;28931.146;  -11.920;30978.848
680.207;30594.889;   -7.490;33160.887
680.783;32240.980;   -9.860;35570.363
681.359;31293.330;  -13.380;36125.184
681.935;30671.916;  -12.480;35240.922
682.511;29933.064;   -7.900;34429.961
683.087;30055.877;   -7.710;34463.680
683.663;29582.719;  -11.480;34648.898
684.239;28325.293;  -14.090;34546.457
684.815;27962.734;   -7.560;35586.375
685.390;28383.277;   -9.910;35821.895
685.966;28970.666;  -11.159;35085.871
686.542;31375.012;  -11.169;34198.230
687.118;33512.973;   -5.959;32847.707
687.693;33684.324;  -10.329;32794.027
688.269;33343.289;  -12.059;33072.367
688.844;31572.438;  -10.909;33141.664
689.420;29400.004;   -8.019;33965.742
689.995;27119.365;   -8.399;34655.523
690.571;25799.576;  -10.949;33576.742
691.146;26208.357;   -9.619;32657.219
691.722;25704.379;   -8.999;32526.979
692.297;25447.551;  -11.589;33014.617
692.872;27198.674;  -11.739;34012.254
693.448;26835.400;  -11.059;34237.434
694.023;26050.064;  -10.139;34142.672
694.598;28021.525;   -9.029;34132.031
695.173;28341.076;  -13.319;34205.250
695.748;27639.148;  -10.169;32882.488
696.323;27829.334;   -8.339;32864.906
696.898;28118.961;   -8.169;33170.004
697.473;27972.547;  -12.309;32432.984
698.048;27367.842;  -10.989;31649.303
698.623;27219.980;   -9.329;30778.141
699.198;29078.186;   -9.849;31140.119
699.773;29972.676;  -12.329;31764.299
700.348;28312.045;  -10.389;31780.816
700.922;28323.494;   -9.269;32046.375
701.497;29206.988;   -9.329;32603.574
702.072;29376.424;  -10.789;34799.871
702.646;28030.400;  -10.839;35793.172
703.221;25969.523;   -9.099;35201.590
703.795;28112.766;  -10.939;34764.527
704.370;28503.566;  -12.859;34307.367
704.944;28876.199;  -11.559;33509.887
705.519;29695.256;   -7.939;31388.584
706.093;31089.211;  -10.499;31340.104
706.668;31488.709;  -11.289;32630.281
707.242;30445.998;  -11.509;32728.779
707.816;28835.029;   -9.639;32947.238
708.390;27304.844;  -11.429;33277.855
708.965;27716.193;  -11.869;33834.336
709.539;27633.447;  -11.689;33709.273
710.113;28147.822;  -10.478;33044.313
710.687;27719.754;  -10.228;31953.992
711.261;26111.719;  -13.698;30505.949
711.835;25901.885;  -13.378;30262.369
712.409;26604.826;   -9.698;31254.447
712.983;28564.512;  -11.898;32754.986
713.557;29540.143;  -15.138;34018.824
714.131;29039.912;  -14.098;34579.625
714.704;28030.053;   -9.958;33890.262
715.278;25825.387;  -10.028;33531.102
715.852;24825.176;  -11.148;33601.660
716.425;25671.029;   -9.068;33515.117
716.999;26459.803;  -10.038;33185.555
717.573;27441.461;   -9.798;33905.996
718.146;28557.189;  -12.378;35199.293
718.720;28557.326;  -11.918;35060.551
719.293;28050.920;   -8.088;34973.230
719.867;30938.834;  -10.888;36394.449
720.440;30642.893;  -11.938;36663.008
721.013;28968.748;  -12.818;35102.426
721.587;27557.279;  -10.298;33985.266
722.160;26586.818;  -10.048;33524.965
722.733;25543.361;  -12.108;32987.043
723.306;25807.346;  -10.818;33066.301
723.880;28165.854;   -8.908;33399.500
724.453;30164.986;   -9.878;33468.297
725.026;29259.773;  -11.188;33816.637
725.599;26568.857;  -11.678;32797.996
726.172;26881.855;   -9.618;33187.434
726.745;27946.377;   -8.258;35136.613
727.318;29182.443;  -12.978;35751.730
727.891;29592.068;  -12.148;35890.430
728.463;29286.756;   -8.968;34822.090
729.036;28354.584;  -10.188;32895.086
729.609;28707.010;  -11.788;31823.225
730.182;25762.379;  -11.788;31445.283
730.754;23342.564;  -10.268;32373.223
731.327;23368.611;   -9.998;33676.820
731.900;23673.461;  -12.228;33417.000
732.472;24964.035;  -13.848;31978.498
733.045;26859.150;   -8.698;30368.777
733.617;26939.557;  -10.607;30574.215
734.190;26582.439;  -11.507;31280.975
734.762;23810.166;  -13.647;31674.412
735.334;22036.193;   -9.767;31247.291
735.907;22640.559;   -9.897;29876.211
736.479;22851.766;  -11.637;29808.488
737.051;22571.533;   -9.567;30233.547
737.623;23454.117;   -8.187;31469.086
738.195;24141.141;  -11.187;31784.225
738.768;25992.385;  -12.337;32120.523
739.340;26249.430;  -12.227;32094.342
739.912;25140.469;  -11.057;31312.680
740.484;23668.334;  -10.207;31946.238
741.056;22476.680;  -10.047;32984.059
741.628;24205.115;  -13.627;33897.715
742.199;26380.701;   -7.177;33213.016
742.771;24771.195;  -10.797;31369.113
743.343;22557.729;  -11.997;31865.473
743.915;21597.631;  -12.867;32388.631
744.487;21668.746;   -7.617;31079.568
745.058;21864.764;   -9.557;30570.107
745.630;22284.803;   -9.877;29970.127
746.201;23134.387;  -14.177;29186.766
746.773;23663.918;   -9.237;28805.723
747.344;23513.832;   -9.847;29591.223
747.916;22123.061;  -11.657;31412.201
748.487;22285.736;  -10.587;32194.898
749.059;23361.609;   -8.707;32533.719
749.630;23938.561;  -10.537;32158.518
750.201;22915.781;  -11.687;30855.395
750.773;21201.156;  -11.647;28622.555
751.344;21204.418;   -7.147;28405.732
751.915;22429.801;   -9.757;28461.551
752.486;22390.359;  -12.427;27842.850
753.057;20226.961;  -12.227;27845.008
753.628;19044.256;  -10.417;27728.107
754.199;20126.482;  -11.767;27381.086
754.770;21085.643;  -11.187;25882.203
755.341;21111.836;  -10.507;25886.184
755.912;21182.834;   -9.387;26050.861
756.483;20662.523;  -10.647;26798.779
757.054;18892.320;  -11.837;27048.238
757.625;17630.861;  -12.716;26294.838
758.195;17384.230;   -9.666;26142.076
758.766;17115.789;   -8.656;26392.234
759.337;17853.432;  -12.856;26334.594
759.907;19478.924;  -13.366;27579.652
760.478;20355.414;   -8.576;28352.770
761.048;19781.510;  -10.526;27325.088
761.619;18944.064;  -11.116;26460.428
762.189;18961.027;  -12.136;26029.826
762.760;20026.617;   -9.456;26430.145
763.330;21144.779;   -7.136;26670.902
763.900;20617.068;  -11.786;26603.021
764.471;18122.436;  -11.546;25542.740
765.041;16910.297;   -8.096;24358.459
765.611;16962.861;   -8.876;23991.297
766.181;17313.311;  -12.196;24470.236
766.751;18211.443;  -11.636;24845.975
767.321;18005.676;  -10.156;24533.633
767.891;16170.771;  -11.766;24916.492
768.461;15676.186;  -14.936;24776.771
769.031;16211.043;  -12.356;24757.988
769.601;17745.684;   -7.526;24181.088
770.171;17532.145;  -10.766;23670.387
770.741;16690.246;  -13.176;22960.045
771.311;16829.553;  -10.616;22917.523
771.880;17240.059;   -9.576;23562.941
772.450;16957.039;  -10.336;24216.500
773.020;16950.578;  -13.516;24140.398
773.589;16274.120;  -13.466;24414.857
774.159;15623.143;   -8.686;23858.717
774.729;15264.554;   -9.476;22942.135
775.298;14816.775;  -13.666;22324.033
775.867;14430.273;  -11.716;21140.313
776.437;14539.211;   -9.906;20838.092
777.006;14365.723;  -12.166;20599.510
777.576;14237.914;  -12.356;20508.809
778.145;14322.669;  -11.646;20732.947
778.714;14215.113;   -8.226;21062.465
779.283;13485.986;   -9.556;20949.664
779.853;12961.439;  -14.116;20508.623
780.422;13430.702;  -11.506;20649.082
780.991;13017.665;   -9.556;21527.520
781.560;11870.415;   -9.095;22632.658
782.129;11728.492;  -12.135;23048.277
782.698;11780.006;  -10.865;23438.555
783.267;11366.988;   -9.335;23267.734
783.836;11295.616;  -11.045;22415.133
784.404;12344.235;  -13.865;20443.152
784.973;12939.608;  -13.095;19699.150
785.542;12845.606;  -11.575;19763.828
786.111;12636.141;   -9.705;20341.408
786.679;12117.027;  -12.105;20207.967
787.248;11868.510;  -12.455;19516.465
787.817;11722.353;  -11.535;18900.363
788.385;11359.767;   -9.765;17879.121
788.954;10824.744;  -14.005;17658.301
789.522;10321.313;  -11.955;17788.879
790.090;10864.533;  -10.135;18118.277
790.659;11272.983;  -10.975;18338.736
791.227;10777.670;  -13.375;18508.615
791.795;11180.077;  -12.375;17898.254
792.364;11559.288;  -10.725;17295.133
792.932;11908.666;   -9.715;16822.051
793.500;12066.454;  -12.675;17040.148
794.068;12284.799;  -13.495;17179.787
794.636;12410.590;  -10.885;16664.246
795.204;11823.649;  -11.045;16524.545
795.772;11896.958;  -13.175;17274.564
796.340;11409.804;  -12.445;17891.002
796.908;11203.915;   -9.735;17648.561
797.476;11108.313;   -9.815;17064.080
798.044;10677.678;  -13.985;16672.777
798.612; 9898.859;  -13.115;17023.996
799.180; 9506.438;  -10.185;16561.615
799.747; 9423.879;   -9.055;15962.773
800.315; 9189.013;  -12.385;15296.992
800.883; 8889.444;  -15.035;14801.771
801.450; 8931.267;  -10.365;14534.430
802.018; 9015.989;   -9.855;14173.248
802.585; 9141.608;  -11.905;14029.547
803.153; 9170.128;  -11.585;13836.846
803.720; 8965.652;   -9.095;13567.324
804.287; 8499.590;   -9.135;13360.622
804.855; 8074.055;  -11.604;13681.981
805.422; 7957.243;  -11.794;13536.560
805.989; 7980.981;  -10.734;13355.958
806.556; 8133.630;  -10.444;13747.896
807.124; 8358.074;  -12.764;13987.376
807.691; 8321.830;  -12.964;14038.674
808.258; 8133.180;  -11.134;14120.152
808.825; 7825.237;   -9.854;13860.111
809.392; 7889.866;  -10.504;13268.790
809.959; 7406.037;  -13.054;12680.389
810.526; 6955.933;   -8.294;12427.308
811.093; 7002.691;   -8.394;12030.105
811.659; 7629.327;  -12.304;11653.664
812.226; 8141.296;  -13.944;11637.183
812.793; 7855.603;  -10.484;11611.521
813.360; 7239.980;  -10.144;11885.181
813.926; 6943.756;  -11.684;12770.539
814.493; 6720.736;  -13.644;12677.638
815.060; 6314.540;   -9.724;11974.336
815.626; 6297.455;   -9.854;11594.715
816.193; 6684.390;  -13.254;11579.474
816.759; 6709.553;  -13.204;11666.972
817.325; 6765.443;   -9.434;11325.530
817.892; 7107.501;  -10.134;11105.369
818.458; 7530.299;  -13.474;10843.928
819.024; 7161.934;  -11.854;10714.406
819.591; 6840.862;  -10.244;10469.165
820.157; 6614.562;  -10.704;10235.523
820.723; 6109.250;  -12.324;10847.563
821.289; 5804.433;   -9.444;11040.980
821.855; 5717.900;   -8.374;10357.100
822.421; 5695.988;  -10.234; 9978.918
822.987; 5692.513;  -13.294; 9754.177
823.553; 5392.054;  -10.884;10065.755
824.119; 5223.287;   -8.884;10036.294
824.685; 5318.421;   -6.784;10029.192
825.251; 5402.782;  -12.004;10199.230
825.816; 5355.837;  -11.474; 9820.189
826.382; 5120.233;   -9.174; 9297.248
826.948; 5312.479;   -9.214; 9381.347
827.513; 5704.030;  -10.774; 9450.726
828.079; 5533.379;  -11.924; 9472.444
828.645; 4952.903;  -10.543; 9292.643
829.210; 4840.748;  -10.533; 9065.341
829.776; 4814.585;  -10.753; 9132.620
830.341; 4708.757;  -10.173; 9092.878
830.906; 4890.122;  -10.743; 9078.557
831.472; 5224.932;  -11.113; 8534.535
832.037; 4976.476;  -10.603; 8677.874
832.602; 4452.136;  -13.323; 8628.692
833.167; 4213.522;  -10.823; 8879.031
833.733; 4165.661;  -10.113; 9189.790
834.298; 4302.988;  -13.583; 9052.608
834.863; 4380.050;  -12.703; 8895.087
835.428; 4360.341;  -10.523; 8824.266
835.993; 4212.081;   -6.963; 8845.385
836.558; 4042.147;  -10.763; 8888.563
837.123; 4145.304;   -9.903; 8966.582
837.688; 4371.410;   -9.913; 8617.860
838.253; 4616.005;  -10.283; 8590.699
838.817; 4812.707;  -12.963; 8443.797
839.382; 4729.535;  -14.243; 8799.356
839.947; 4426.532;  -10.733; 8810.595
840.511; 4134.328;   -9.383; 8796.394
841.076; 3771.837;  -12.563; 8347.231
841.641; 3829.455;  -12.953; 8224.330
842.205; 3926.688;   -7.043; 8223.349
842.770; 4012.107;   -8.163; 8622.107
843.334; 4153.334;  -12.503; 8410.386
843.898; 4092.977;  -11.693; 8337.465
844.463; 4117.128;  -10.203; 8506.283
845.027; 3915.071;   -9.533; 8280.962
845.591; 3745.895;  -13.443; 8231.141
846.156; 3724.791;  -13.143; 7969.179
846.720; 3608.692;   -9.433; 7768.278
847.284; 3487.698;  -11.033; 7630.957
847.848; 3370.994;  -10.403; 7472.395
848.412; 3293.592;  -11.553; 7437.394
848.976; 3340.588;   -8.393; 7674.592
849.540; 3274.439;   -8.713; 7836.011
850.104; 3383.606;  -12.463; 7913.669
850.668; 3731.632;  -12.973; 7694.508
851.232; 3827.476;  -10.793; 7756.887
851.796; 3665.738;  -10.662; 7926.545
852.359; 3382.150;  -13.082; 7827.844
852.923; 3223.940;  -12.192; 7641.163
853.487; 3047.224;  -11.912; 7342.501
854.050; 3007.361;  -10.892; 7042.820
854.614; 3150.160;  -13.992; 7151.338
855.177; 3270.660;  -11.732; 7105.077
855.741; 3301.708;   -8.962; 6989.675
856.304; 3193.642;   -9.442; 6596.634
856.868; 3149.207;  -14.192; 6356.272
857.431; 3243.196;  -12.702; 6468.571
857.995; 3356.754;   -9.942; 6373.210
858.558; 3368.546;   -9.112; 6324.448
859.121; 3110.585;  -12.932; 6408.327
859.684; 2988.515;  -13.442; 6347.886
860.247; 3089.863;  -10.632; 6321.264
860.810; 3091.574;  -11.272; 6301.903
861.374; 2846.293;   -9.832; 6607.881
861.937; 2602.992;  -11.762; 6408.200
862.500; 2603.977;   -9.722; 6572.639
863.062; 2774.667;  -10.512; 6387.297
863.625; 2945.133;  -11.232; 6190.836
864.188; 3098.318;  -14.112; 5807.254
864.751; 3152.015;  -11.302; 5682.413
865.314; 3044.729;  -10.112; 5547.492
865.876; 2836.973;  -12.182; 5500.150
866.439; 2814.851;  -10.722; 5415.909
867.002; 2763.990;   -9.252; 5501.567
867.564; 2566.192;   -9.572; 5413.946
868.127; 2351.887;  -13.142; 5160.325
868.689; 2252.415;  -12.902; 5133.183
869.252; 2155.526;   -9.732; 5252.382
869.814; 2063.986;   -9.432; 5297.141
870.377; 2076.226;  -11.552; 5390.919
870.939; 2145.209;   -9.052; 5599.898
871.501; 2207.250;  -10.982; 5248.336
872.063; 2206.104;  -12.292; 4854.235
872.626; 2163.653;  -14.912; 4817.074
873.188; 2188.257;  -13.112; 4987.732
873.750; 2155.466;  -13.442; 4868.651
874.312; 2056.962;   -9.402; 4779.330
874.874; 1965.606;  -11.062; 4866.348
875.436; 1880.827;  -13.931; 4718.887
875.998; 1873.138;   -9.561; 4660.005
876.560; 1896.523;  -11.321; 4462.964
877.122; 1839.856;  -12.221; 4145.042
877.683; 1746.657;  -12.191; 4056.481
878.245; 1674.985;  -12.101; 3950.740
878.807; 1717.899;   -8.971; 4058.958
879.369; 1742.623;  -12.071; 3954.677
879.930; 1646.719;  -14.621; 3941.495
880.492; 1582.090;  -10.311; 4067.014
881.053; 1546.169;  -10.901; 3859.633
881.615; 1439.603;  -14.411; 3776.071
882.176; 1341.166;  -13.761; 3734.750
882.738; 1292.989;   -9.181; 3678.489
883.299; 1267.323;  -11.791; 3405.407
883.860; 1271.694;  -13.121; 3351.106
884.422; 1273.299;  -11.211; 3394.044
884.983; 1230.487;  -10.091; 3166.443
885.544; 1156.133;   -8.461; 3189.802
886.105; 1078.523;  -12.361; 3160.360
886.666; 1010.007;  -14.141; 3093.059
887.227;  953.018;  -11.361; 2941.957
887.788;  892.444;  -11.401; 2974.836
888.349;  831.947;  -13.791; 2721.214
888.910;  828.410;  -13.191; 2696.493
889.471;  834.927;   -9.881; 2560.172
890.032;  817.571;   -9.881; 2558.190
890.593;  794.356;  -10.371; 2567.669
891.153;  767.981;  -13.301; 2460.307
891.714;  722.041;  -11.431; 2372.046
892.275;  683.707;  -11.291; 2309.505
892.835;  646.677;  -11.471; 2382.543
893.396;  596.086;  -11.541; 2295.502
893.956;  541.616;  -11.181; 2162.420
894.517;  505.387;  -11.741; 2125.439
895.077;  500.429;  -11.671; 2086.978
895.638;  502.022;  -11.311; 2126.316
896.198;  473.557;   -9.831; 1838.275
896.758;  432.038;   -8.421; 1892.813
897.319;  403.371;  -12.351; 1792.232
897.879;  387.494;  -13.511; 1762.751
898.439;  363.055;  -12.001; 1661.149
898.999;  340.207;  -10.180; 1781.468
899.559;  331.943;  -12.030; 1703.347
900.119;  327.193;  -15.710; 1537.525
900.679;  322.171;   -8.900; 1638.384
901.239;  308.585;   -8.340; 1527.902
901.799;  297.996;  -13.910; 1456.441
902.359;  294.378;  -13.460; 1357.140
902.919;  286.408;  -11.490; 1331.118
903.479;  274.430;  -12.110; 1317.257
904.038;  254.622;  -11.720; 1262.595
904.598;  240.280;  -13.610; 1152.034
905.158;  236.311;  -11.040; 1240.893
905.717;  229.685;  -10.900; 1233.691
906.277;  218.769;  -15.080; 1217.330
906.836;  208.898;  -13.380; 1222.408
907.396;  201.298;  -10.780; 1193.047
907.955;  194.437;   -8.500; 1182.526
908.515;  188.263;  -12.760; 1099.364
909.074;  182.792;  -11.900; 1092.863
909.633;  177.741;   -8.950; 1069.121
910.192;  172.907;   -8.770; 1196.460
910.752;  167.457;  -12.390; 1029.960
911.311;  164.473;  -13.680; 1009.780
911.870;  161.242;  -12.370;  971.460
912.429;  162.119;  -10.900; 1094.080
912.988;  161.272;  -11.690; 1081.060
913.547;  157.468;  -13.240;  940.380
914.106;  152.360;  -11.990;  999.420
914.665;  149.386;   -9.990;  984.020
915.224;  147.762;  -12.880; 1035.760
915.782;  148.232;  -12.350;  922.560
916.341;  148.181;   -9.110; 1049.840
916.900;  144.073;   -9.270;  925.260
917.458;  142.376;  -13.240;  884.220
918.017;  141.515;  -13.550;  942.600
918.576;  141.781;  -12.320;  904.440
919.134;  139.490;  -11.490;  837.980
919.693;  137.062;  -13.670;  893.060
920.251;  135.743;  -15.470;  876.500
920.809;  134.817;  -11.290;  839.580
921.368;  133.515;  -10.210;  885.360
921.926;  133.307;  -12.140;  842.940
922.484;  132.563;  -13.080;  903.360
923.042;  131.578;  -11.720;  880.340
923.601;  134.222;   -7.480;  998.680
924.159;  133.260;  -11.570;  935.560
924.717;  129.817;  -13.840;  841.080
925.275;  130.032;  -10.640;  903.240
925.833;  129.171;  -11.540;  779.320
926.391;  130.838;  -12.960;  938.380
926.949;  128.877;  -14.130;  857.680
927.506;  129.073;  -11.750;  903.500
928.064;  129.201;  -10.250;  877.580
928.622;  128.690;  -13.030;  880.100
929.180;  128.568;  -13.400;  814.180
929.737;  129.435;  -10.700;  808.540
930.295;  132.991;  -10.070;  928.480
930.853;  134.479;  -11.960;  849.100
931.410;  134.591;  -13.120;  821.120
931.968;  133.358;  -10.770;  940.660
932.525;  134.105;  -10.680;  909.380
933.082;  134.478;  -13.130;  811.440
933.640;  135.410;  -13.210;  925.900
934.197;  133.169;  -11.060;  886.360
934.754;  134.589;   -9.580;  897.780
935.312;  136.728;  -14.000;  863.340
935.869;  140.574;  -10.710; 1012.980
936.426;  141.612;   -9.860;  872.800
936.983;  142.928;   -9.710;  889.020
937.540;  142.133;  -13.990;  838.280
938.097;  140.696;  -14.040;  940.120
938.654;  141.440;  -10.310;  898.860
939.211;  143.296;  -10.560;  952.480
939.768;  146.821;  -13.900;  915.420
940.324;  150.184;  -14.760;  904.200
940.881;  150.692;  -10.370;  878.500
941.438;  152.486;   -8.260; 1021.200
941.995;  147.883;  -12.540;  992.560
942.551;  145.506;  -14.670;  875.620
943.108;  147.460;  -10.450;  937.920
943.664;  148.599;  -10.750;  869.340
944.221;  151.406;  -11.550; 1088.140
944.777;  149.613;  -14.770;  869.680
945.334;  150.010;  -12.820;  884.840
945.890;  151.815;  -10.130;  946.480
946.446;  151.927;  -13.470;  947.020
947.003;  153.736;  -12.120;  964.940
947.559;  155.597;   -9.980; 1063.040
948.115;  154.992;   -9.080; 1026.540
948.671;  153.416;  -10.830;  967.300
949.227;  151.097;  -12.440;  859.560
949.783;  148.440;  -12.910;  858.900
950.339;  148.499;  -10.270;  991.000
950.895;  149.519;  -13.630; 1023.840
951.451;  149.306;  -15.100;  925.280
952.007;  148.816;  -11.330;  998.540
952.563;  149.627;  -10.580;  937.780
953.118;  147.959;  -13.440;  904.940
953.674;  147.794;  -12.710;  935.780
954.230;  147.156;  -10.350;  949.640
954.785;  145.079;   -9.190;  936.640
955.341;  142.013;  -11.200;  998.160
955.897;  141.289;  -16.560;  834.660
956.452;  142.631;  -12.570;  953.840
957.008;  140.828;   -7.970; 1083.640
957.563;  139.226;  -11.940; 1009.540
958.118;  134.786;  -13.450;  877.700
958.674;  135.287;  -12.030;  946.780
959.229;  136.299;   -9.410; 1013.980
959.784;  134.237;  -12.000;  832.400
960.339;  133.816;  -14.780; 1001.280
960.894;  130.289;   -9.860;  963.760
961.449;  126.605;   -9.970;  859.960
962.004;  126.811;  -10.900; 1212.840
962.559;  121.434;  -13.150;  860.140
963.114;  119.047;  -13.740;  742.480
963.669;  119.319;   -9.820;  915.500
964.224;  117.074;  -13.890;  874.340
964.779;  116.077;  -12.600;  828.420
965.334;  117.038;  -10.950; 1017.860
965.888;  116.701;  -11.170;  875.360
966.443;  119.452;  -12.540;  972.380
966.998;  118.793;  -15.780;  819.460
967.552;  117.800;   -9.760;  908.380
968.107;  114.658;   -9.060;  868.300
968.661;  115.035;  -11.950;  922.440
969.216;  115.724;  -12.800;  856.280
969.770;  115.490;  -11.210;  917.200
970.324;  114.550;  -11.610;  923.140
970.879;  111.222;  -11.370;  947.180
971.433;  108.976;  -12.540;  952.720
971.987;  103.230;  -11.320;  895.340
972.541;  101.998;  -10.720;  917.100
973.095;  100.449;   -9.680; 1009.460
973.649;   99.301;  -11.440;  809.480
974.203;   97.944;  -11.210;  829.040
974.757;   97.916;  -10.240;  855.220
975.311;   98.163;  -13.720;  872.600
975.865;   97.433;  -13.770;  881.820
976.419;   95.713;  -11.690;  857.400
976.973;   95.459;   -9.510;  849.620
977.526;   97.182;  -12.620;  949.920
978.080;   96.330;  -12.010;  796.780
978.634;   98.002;  -10.170;  921.320
979.187;   95.098;   -9.020;  905.400
979.741;   93.184;   -9.820; 1018.380
980.294;   88.133;  -14.870;  789.160
980.848;   86.029;  -12.380;  717.220
981.401;   87.949;  -10.350;  816.540
981.955;   90.915;  -13.720;  844.300
982.508;   89.866;  -11.490;  746.340
983.061;   89.471;  -10.000;  915.260
983.615;   85.629;  -11.480;  798.800
984.168;   82.817;  -13.220;  770.080
984.721;   82.223;  -13.960;  880.760
985.274;   81.530;  -10.870;  867.500
985.827;   80.210;   -9.790;  834.220
986.380;   77.585;  -13.120;  721.340
986.933;   77.232;  -12.450;  864.800
987.486;   75.445;  -10.210;  861.920
988.039;   74.642;   -8.430;  863.100
988.591;   73.166;  -10.520;  893.260
989.144;   70.593;  -14.860;  737.260
989.697;   69.262;  -13.080;  758.740
990.250;   70.276;  -10.150;  858.100
990.802;   68.908;  -13.430;  755.860
991.355;   70.527;  -12.750;  974.880
991.907;   67.776;  -12.040;  864.320
992.460;   65.026;  -11.330;  753.760
993.012;   65.282;  -13.610;  749.540
993.565;   63.290;  -13.460;  711.360
994.117;   65.725;   -9.360;  950.780
994.669;   61.242;  -11.300;  701.320
995.221;   60.301;  -13.540;  791.920
995.774;   58.397;  -13.430;  787.580
996.326;   57.884;  -12.520;  740.220
996.878;   56.207;  -10.950;  838.420
997.430;   54.464;  -14.300;  699.860
997.982;   53.964;  -13.760;  750.140
998.534;   53.267;  -11.530;  739.060
999.086;   52.111;  -10.310;  738.220
999.638;   50.670;  -12.530;  661.380
1000.190;   50.484;  -11.840;  699.320
1000.741;   49.875;  -10.260;  742.700
1001.293;   49.459;   -8.860;  686.020
1001.845;   48.609;  -13.700;  676.640
1002.396;   48.415;  -12.100;  743.400
1002.948;   48.242;  -12.760;  737.400
1003.500;   46.682;  -10.380;  723.780
1004.051;   46.612;  -11.900;  907.580
1004.603;   45.383;  -12.250;  791.820
1005.154;   41.696;  -13.210;  608.980
1005.705;   40.218;  -10.950;  723.960
1006.257;   40.120;  -13.880;  707.220
1006.808;   40.027;  -12.840;  685.460
1007.359;   39.114;  -10.570;  763.240
1007.910;   38.289;   -9.620;  646.640
1008.461;   37.989;  -13.630;  732.940
1009.013;   37.549;  -17.200;  588.340
1009.564;   38.118;  -10.200;  793.520
1010.115;   35.517;  -12.570;  597.040
1010.665;   35.677;  -15.150;  602.160
1011.216;   36.028;  -14.480;  667.920
1011.767;   35.495;  -11.340;  697.920
1012.318;   34.824;   -9.780;  736.980
1012.869;   34.163;  -12.380;  679.000
1013.419;   33.898;  -15.560;  603.120
1013.970;   34.104;  -11.010;  666.640
1014.521;   33.285;  -11.610;  620.620
1015.071;   34.388;  -13.450;  670.380
1015.622;   33.252;  -13.870;  635.460
1016.172;   32.806;  -11.610;  596.820
1016.723;   31.920;  -12.120;  614.380
1017.273;   32.043;  -13.620;  604.160
1017.823;   32.157;  -14.140;  650.340
1018.374;   31.862;  -12.800;  611.760
1018.924;   31.560;  -12.340;  716.880
1019.474;   31.687;  -11.410;  718.880
1020.024;   30.960;  -14.770;  657.580
1020.574;   31.511;   -9.780;  726.160
1021.124;   31.112;   -8.560;  673.580
1021.674;   29.842;  -15.190;  559.120
1022.224;   30.709;  -13.530;  708.940
1022.774;   30.417;  -13.280;  668.820
1023.324;   30.889;  -10.690;  753.520
1023.874;   31.473;  -10.240;  875.760
1024.423;   29.164;  -12.540;  613.700
1024.973;   29.076;  -10.010;  610.760
1025.523;   28.690;  -10.550;  620.960
1026.072;   27.855;  -13.560;  606.420
1026.622;   28.193;  -15.120;  675.740
1027.172;   29.405;  -11.260;  715.660
1027.721;   27.779;  -11.410;  601.220
1028.270;   28.440;  -13.530;  663.400
1028.820;   28.413;  -13.680;  638.080
1029.369;   27.832;  -13.520;  612.700
1029.918;   27.904;  -10.980;  649.840
1030.468;   27.033;  -13.530;  564.780
1031.017;   26.778;  -13.170;  634.800
1031.566;   25.867;  -12.200;  608.900
1032.115;   27.299;   -9.960;  694.500
1032.664;   25.938;  -13.210;  596.480
1033.213;   26.764;  -12.500;  735.420
1033.762;   26.467;  -11.910;  635.620
1034.311;   25.817;   -9.640;  677.220
1034.860;   26.656;  -13.310;  691.000
1035.408;   25.628;  -11.830;  722.720
1035.957;   26.483;  -12.000;  719.540
1036.506;   23.948;  -11.690;  530.800
1037.055;   26.726;  -10.990;  844.320
1037.603;   25.392;  -15.120;  664.000
1038.152;   22.974;  -12.450;  534.760
1038.700;   24.014;  -10.560;  585.740
1039.249;   23.400;  -11.080;  681.220
1039.797;   24.833;  -12.540;  633.360
1040.345;   24.396;  -11.920;  705.420
1040.894;   23.819;  -11.410;  625.300
1041.442;   23.904;  -14.320;  632.200
1041.990;   22.929;  -16.240;  559.160
1042.538;   22.509;  -11.680;  536.180
1043.087;   21.989;  -10.760;  570.860
1043.635;   23.686;  -11.850;  670.500
1044.183;   23.031;  -15.480;  586.400
1044.731;   22.009;  -11.770;  576.000
1045.279;   22.580;  -13.090;  674.920
1045.827;   23.973;  -12.440;  892.400
1046.374;   21.130;  -13.840;  515.420
1046.922;   21.105;  -13.220;  590.580
1047.470;   22.448;  -10.230;  691.300
1048.018;   22.759;  -14.590;  647.960
1048.565;   22.469;  -12.050;  708.600
1049.113;   20.491;  -11.650;  557.000
1049.660;   20.380;  -10.510;  629.660
1050.208;   20.519;  -13.310;  675.640
1050.755;   20.705;  -15.900;  606.580
1051.303;   21.191;  -11.430;  686.820
1051.850;   20.616;   -8.480;  635.120
1052.397;   19.089;  -15.010;  473.960
1052.945;   19.504;  -13.960;  617.760
1053.492;   21.102;  -13.150;  741.840
1054.039;   20.906;   -9.630;  720.180
1054.586;   18.887;  -13.680;  557.240
1055.133;   19.836;  -14.570;  693.140
1055.680;   19.858;  -13.820;  646.620
1056.227;   18.879;  -11.730;  542.780
1056.774;   20.463;  -12.480;  794.980
1057.321;   18.915;  -13.930;  523.260
1057.868;   19.175;  -11.690;  651.320
1058.415;   18.216;   -9.520;  651.980
1058.961;   19.040;  -13.160;  678.940
1059.508;   18.456;  -12.920;  643.820
1060.055;   18.486;  -11.920;  581.780
1060.601;   18.121;  -11.500;  624.300
1061.148;   17.838;  -14.330;  616.820
1061.694;   17.340;  -16.870;  592.580
1062.241;   18.063;  -10.330;  596.320
1062.787;   17.259;  -10.620;  663.140
1063.334;   19.338;  -10.110;  808.560
1063.880;   18.022;  -13.400;  668.360
1064.426;   18.381;  -10.680;  706.820
1064.972;   16.550;   -9.920;  601.340
1065.518;   15.829;  -10.980;  566.640
1066.065;   18.292;  -14.890;  624.460
1066.611;   15.486;  -12.870;  598.800
1067.157;   16.813;  -12.950;  641.860
1067.703;   17.115;  -13.540;  668.480
1068.249;   17.477;  -13.540;  605.220
1068.794;   16.760;  -12.600;  626.880
1069.340;   15.408;  -10.620;  578.960
1069.886;   15.747;  -12.830;  590.700
1070.432;   15.114;  -14.870;  541.720
1070.977;   15.104;  -11.980;  601.080
1071.523;   15.400;   -8.200;  573.060
1072.068;   15.263;  -12.330;  582.000
1072.614;   14.620;  -16.370;  527.760
1073.160;   15.803;  -11.100;  687.040
1073.705;   14.181;  -10.480;  572.520
1074.250;   14.427;  -14.520;  559.900
1074.796;   15.836;  -11.460;  655.160
1075.341;   16.141;  -11.950;  664.100
1075.886;   14.832;  -11.460;  594.240
1076.431;   13.853;  -13.770;  649.880
1076.976;   14.747;  -12.680;  639.220
1077.521;   13.788;  -13.170;  583.080
1078.067;   13.270;  -10.860;  579.400
1078.612;   14.029;  -13.920;  661.620
1079.156;   14.629;  -13.880;  601.540
1079.701;   13.932;  -13.120;  693.260
1080.246;   13.996;   -9.940;  696.300
1080.791;   13.454;  -14.740;  625.020
1081.336;   13.642;  -13.750;  659.320
1081.880;   13.783;  -13.400;  649.680
1082.425;   12.855;  -12.220;  573.480
1082.970;   14.151;  -11.610;  717.040
1083.514;   12.960;  -13.580;  597.000
1084.059;   12.636;  -12.810;  586.720
1084.603;   11.861;  -12.320;  565.840
1085.147;   12.868;  -13.190;  645.220
1085.692;   13.397;  -12.480;  716.800
1086.236;   11.778;  -13.020;  503.140
1086.780;   13.398;   -9.190;  751.440
1087.325;   12.263;  -12.480;  654.620
1087.869;   12.500;  -12.450;  610.700
1088.413;   12.864;  -12.240;  705.040
1088.957;   10.567;   -9.020;  543.400
1089.501;   12.697;  -10.320;  766.640
1090.045;   12.242;  -12.720;  726.480
1090.589;   10.703;  -13.690;  569.920
1091.133;   11.622;  -10.020;  673.340
1091.676;   11.307;  -12.330;  591.940
1092.220;   11.278;  -14.970;  600.920
1092.764;   12.304;  -12.430;  706.960
1093.307;   11.241;   -9.800;  673.780
1093.851;   10.116;  -14.970;  556.540
1094.395;   11.112;  -15.310;  683.140
1094.938;   10.662;  -10.370;  632.520
1095.482;   10.472;  -11.050;  559.800
1096.025;   11.340;  -11.840;  710.880
1096.568;   11.139;  -12.840;  779.280
1097.112;    8.683;  -14.700;  508.180
1097.655;   10.688;   -8.720;  603.000
1098.198;    8.984;  -13.610;  600.180
1098.741;    8.827;  -13.350;  612.860
1099.285;   11.065;  -11.230;  657.300
1099.828;    8.181;  -11.840;  439.400
1100.371;    9.203;  -10.840;  608.160
1100.914;    9.359;  -14.190;  682.660
1101.457;    9.922;  -11.240;  679.900
1101.999;    8.051;  -11.270;  584.680
1102.542;    9.311;  -11.480;  641.440
1103.085;    8.796;  -11.750;  658.500
1103.628;    9.524;  -11.400;  762.060
1104.170;    8.680;  -10.490;  588.280
1104.713;    8.891;  -10.600;  646.700
1105.256;    8.437;  -14.360;  557.440
1105.798;    7.859;  -13.210;  499.980
1106.341;    9.495;  -10.270;  728.900
1106.883;    8.206;  -12.200;  521.340
1107.425;    8.519;  -13.110;  668.180
1107.968;    8.039;  -12.840;  612.380
1108.510;    8.366;   -6.480;  684.960
1109.052;    6.596;  -13.940;  612.620
1109.594;    7.583;  -13.690;  554.440
1110.136;    8.188;  -11.880;  643.220
1110.679;    6.801;   -9.500;  633.080
1111.221;    7.698;  -14.160;  604.460
1111.763;    6.858;  -13.980;  559.220
1112.304;    6.139;  -13.880;  547.140
1112.846;    6.801;  -12.210;  666.240
1113.388;   10.158;  -11.390;  942.180
1113.930;    7.617;  -14.540;  694.200
1114.472;    6.235;  -12.640;  606.540
1115.013;    5.011;  -11.620;  551.280
1115.555;    6.090;  -13.640;  587.100
1116.097;    5.408;  -15.380;  579.480
1116.638;    6.652;  -12.640;  684.600
1117.180;    6.716;   -9.850;  667.740
1117.721;    6.160;  -13.690;  568.580
1118.262;    6.611;  -12.680;  677.960
1118.804;    6.448;  -12.530;  637.340
1119.345;    4.959;  -11.690;  578.400
1119.886;    6.539;  -13.380;  704.040
1120.427;    5.213;  -14.070;  589.020
1120.969;    5.200;  -13.500;  597.920
1121.510;    4.709;  -11.480;  563.060
1122.051;    5.493;  -12.830;  723.580
1122.592;    4.446;  -14.290;  655.420
1123.133;    3.850;  -12.400;  547.940
1123.673;    5.703;  -10.130;  706.480
1124.214;    5.241;  -12.930;  612.460
1124.755;    5.744;  -14.380;  639.460
1125.296;    5.321;  -14.000;  627.320
1125.836;    5.785;  -10.070;  691.500
1126.377;    4.467;  -12.640;  599.660
1126.918;    5.098;  -12.960;  614.980
1127.458;    3.972;  -13.350;  622.220
1127.999;    4.608;  -10.750;  656.980
1128.539;    4.976;  -12.350;  694.240
1129.079;    3.843;  -14.860;  632.720
1129.620;    3.941;  -13.840;  558.100
1130.160;    3.668;  -12.330;  539.480
1130.700;    4.639;  -14.530;  640.840
1131.240;    4.700;  -12.530;  643.700
1131.781;    4.223;  -14.450;  619.680
1132.321;    3.180;   -9.790;  599.120
1132.861;    2.682;  -14.860;  564.200
1133.401;    3.305;  -14.290;  593.940
1133.941;    4.081;  -11.750;  626.280
1134.481;    2.451;   -9.920;  597.580
1135.020;    2.894;  -12.290;  609.160
1135.560;    3.625;  -11.650;  674.940
1136.100;    2.186;  -16.270;  501.160
1136.640;    2.441;  -10.890;  510.480
1137.179;    2.271;  -14.180;  537.960
1137.719;    2.859;  -16.250;  605.400
1138.258;    2.954;  -14.230;  587.360
1138.798;    3.110;   -9.090;  663.780
1139.337;    1.648;  -15.130;  482.840
1139.877;    2.728;  -13.680;  642.360
1140.416;    4.751;  -11.320;  878.060
1140.955;    1.612;  -10.860;  535.380
1141.494;    2.258;  -12.920;  669.280
1142.034;    1.415;  -13.930;  583.520
1142.573;    3.255;  -11.440;  646.280
1143.112;    1.602;  -12.000;  553.480
1143.651;    1.434;  -13.670;  536.480
1144.190;    2.738;  -12.730;  691.640
1144.729;    1.561;  -14.560;  607.420
1145.267;    1.577;  -11.830;  584.900
1145.806;    2.440;  -12.230;  637.040
1146.345;    0.940;  -14.130;  635.020
1146.884;    1.092;  -11.590;  622.500
1147.422;    0.323;  -12.550;  533.060
1147.961;    2.594;  -11.180;  708.460
1148.500;    2.136;  -11.510;  669.720
1149.038;    2.365;  -11.640;  632.500
1149.577;    2.400;  -10.130;  698.640
1150.115;   -0.350;  -13.970;  452.280
1150.653;    1.702;  -14.520;  607.340
1151.192;    0.920;  -12.810;  552.920
1151.730;    0.791;   -9.100;  652.560
1152.268;    0.370;  -12.220;  589.520
1152.806;    0.625;  -14.140;  571.180
1153.344;   -0.949;  -12.350;  577.640
1153.882;    0.325;   -8.980;  600.060
1154.421;   -1.034;  -15.190;  470.620
1154.958;   -0.045;  -15.210;  595.240
1155.496;    1.472;  -12.850;  645.280
1156.034;    0.532;   -9.940;  721.880
1156.572;    0.958;  -13.570;  667.060
1157.110;   -0.878;  -14.590;  473.940
1157.647;    0.739;  -13.030;  676.960
1158.185;   -0.836;  -12.140;  564.320
1158.723;   -1.362;  -14.390;  509.200
1159.260;   -0.580;  -14.090;  701.700
1159.798;    0.395;  -11.920;  658.160
1160.335;   -0.719;  -11.110;  631.820

