
Integration time [ms]:   3.276
Averaging Nr. [scans]: 1000
Smoothing Nr. [pixels]: 0
Data measured with spectrometer [name]: 7414430SP
Wave   ;Sample   ;Dark     ;Reference
[nm]   ;[counts] ;[counts] ;[counts] 

288.544;  149.144;    7.793;  793.890
289.143;  152.323;    7.462;  681.602
289.742;  153.154;    8.602;  828.814
290.341;  138.995;    1.321;  789.841
290.940;  127.545;   -0.709;  730.702
291.538;  128.227;    0.881;  881.108
292.137;  128.339;    0.122;  792.581
292.736;  132.840;   -1.929;  975.101
293.335;  129.182;   -8.229;  735.086
293.934;  129.649;   -5.279;  781.677
294.532;  128.268;   -1.369; 1031.958
295.131;  114.914;   -7.641;  834.394
295.730;  115.278;   -8.420;  809.588
296.328;  114.635;   -5.611;  783.442
296.927;  114.314;   -5.781;  779.652
297.525;  115.723;   -6.361;  781.236
298.124;  106.085;  -11.382;  654.009
298.722;  109.879;   -7.641;  761.933
299.321;  107.702;   -6.811;  708.597
299.919;  105.885;   -6.991;  751.918
300.518;  102.982;  -10.362;  689.338
301.116;  103.738;   -9.581;  691.381
301.715;  103.472;   -4.891;  730.222
302.313;  103.270;   -8.801;  704.943
302.911;   99.010;   -8.522;  733.830
303.509;  102.944;   -6.171;  925.627
304.108;  101.212;   -7.311;  760.383
304.706;  100.975;   -8.321;  801.664
305.304;   95.196;  -10.222;  796.707
305.902;  100.947;   -6.021;  784.484
306.500;   96.166;   -4.971;  728.200
307.098;   94.870;   -7.061;  746.560
307.696;   92.612;   -8.801;  780.432
308.294;   93.455;   -6.411;  731.359
308.892;   95.707;   -2.901;  759.769
309.490;   92.038;   -5.041;  712.161
310.088;   89.989;   -5.002;  788.444
310.686;   93.701;   -2.041;  821.749
311.284;   89.479;   -2.351;  766.040
311.882;   88.224;   -4.422;  731.225
312.480;   84.307;   -4.192;  697.167
313.078;   85.727;   -1.172;  808.331
313.675;   86.555;   -2.601;  691.600
314.273;   82.149;   -1.312;  797.837
314.871;   81.151;   -3.942;  589.829
315.468;   78.462;   -2.802;  652.090
316.066;   81.748;   -0.701;  694.427
316.664;   74.950;   -4.362;  656.351
317.261;   78.488;   -2.872;  910.128
317.859;   73.577;   -2.022;  768.735
318.456;   75.142;   -0.531;  830.096
319.054;   70.857;   -3.912;  787.828
319.651;   69.865;   -4.752;  759.928
320.249;   68.441;   -2.602;  810.188
320.846;   66.639;   -0.821;  714.286
321.443;   64.760;   -4.642;  832.135
322.041;   61.425;   -5.002;  812.315
322.638;   58.575;   -3.982;  701.456
323.235;   60.884;   -3.411;  665.683
323.833;   57.802;   -7.361;  740.354
324.430;   53.030;   -8.611;  615.900
325.027;   53.657;   -4.061;  876.855
325.624;   52.985;   -4.031;  644.532
326.221;   50.892;   -7.481;  689.717
326.818;   50.355;   -5.281;  818.332
327.415;   52.827;   -7.460;  748.828
328.012;   52.499;   -5.510;  690.585
328.609;   51.392;   -7.880;  731.389
329.206;   50.093;   -8.331;  778.621
329.803;   49.348;   -5.121;  737.841
330.400;   51.493;   -4.510;  704.260
330.997;   53.948;   -6.441;  817.147
331.594;   52.079;   -8.831;  788.185
332.191;   57.119;   -7.621;  728.722
332.787;   60.177;   -4.591;  844.463
333.384;   58.810;   -7.412;  763.093
333.981;   57.340;   -8.293;  815.687
334.578;   60.237;   -7.052;  708.378
335.174;   62.561;   -3.102;  731.469
335.771;   62.443;   -5.943;  836.456
336.367;   58.843;   -7.393;  710.631
336.964;   63.103;   -4.063;  793.266
337.561;   60.875;   -3.813;  731.112
338.157;   57.757;   -4.654;  911.916
338.754;   55.203;   -7.934;  796.589
339.350;   52.422;   -4.414;  722.493
339.946;   54.686;   -4.664;  773.135
340.543;   47.190;   -6.375;  846.136
341.139;   41.432;   -9.815;  720.836
341.735;   38.672;   -4.526;  772.593
342.332;   36.913;   -4.895;  691.472
342.928;   38.148;   -4.295;  795.394
343.524;   32.704;   -5.476;  761.684
344.120;   28.313;   -5.856;  738.562
344.716;   32.793;   -2.155;  723.717
345.313;   30.201;   -6.275;  795.342
345.909;   25.287;   -8.815;  627.336
346.505;   25.457;   -5.305;  740.247
347.101;   26.141;   -2.674;  827.864
347.697;   26.730;   -4.344;  785.398
348.293;   21.149;   -9.975;  627.244
348.889;   21.806;   -5.774;  745.914
349.485;   21.983;   -5.004;  688.205
350.081;   22.608;   -4.704;  772.592
350.676;   17.165;   -6.635;  691.606
351.272;   22.120;   -4.504;  809.530
351.868;   21.908;   -3.914;  780.497
352.464;   18.828;   -9.044;  723.932
353.059;   14.519;   -8.314;  646.017
353.655;   18.430;   -7.024;  777.063
354.251;   19.518;   -5.343;  759.845
354.846;   14.662;   -8.604;  740.646
355.442;   11.833;   -6.945;  753.071
356.038;   13.341;   -7.564;  751.708
356.633;   13.943;   -5.814;  728.594
357.229;   12.607;   -7.364;  724.757
357.824;    9.865;   -8.024;  703.600
358.420;    8.357;   -9.384;  679.726
359.015;    9.727;   -5.104;  695.357
359.610;   10.737;   -6.854;  763.920
360.206;    4.328;  -10.185;  603.240
360.801;    7.937;   -7.054;  646.503
361.396;    9.586;   -5.034;  725.975
361.992;    5.902;   -8.284;  668.220
362.587;    3.219;   -8.625;  670.160
363.182;    4.452;   -7.674;  689.631
363.777;    5.310;   -5.164;  738.242
364.372;    5.067;   -8.604;  737.314
364.967;    1.895;   -9.055;  680.744
365.563;    5.124;   -6.114;  815.567
366.158;    2.527;   -5.814;  685.161
366.753;    3.319;   -7.854;  649.263
367.348;    2.117;   -7.804;  746.056
367.942;    1.412;   -7.954;  697.298
368.537;    0.087;   -4.984;  754.245
369.132;    0.805;   -8.564;  703.428
369.727;   -3.251;   -8.855;  638.079
370.322;   -2.778;   -6.245;  580.186
370.917;   -1.937;   -6.425;  710.646
371.511;    0.630;   -6.294;  861.834
372.106;   -2.868;   -7.685;  776.964
372.701;   -6.316;   -7.335;  585.988
373.296;   -0.957;   -4.564;  863.135
373.890;   -5.044;  -10.235;  647.840
374.485;   -7.595;   -7.885;  691.199
375.079;   -3.442;   -7.324;  738.685
375.674;   -2.421;   -3.494;  812.970
376.268;   -6.066;   -8.525;  691.759
376.863;  -11.635;  -10.086;  580.327
377.457;   -6.378;   -7.025;  662.490
378.052;   -7.814;   -3.585;  764.884
378.646;   -9.141;   -7.595;  741.167
379.240;   -9.311;   -8.335;  721.176
379.835;   -8.016;   -5.785;  636.978
380.429;  -10.041;   -4.335;  562.557
381.023;   -9.958;   -6.805;  779.205
381.617;  -12.931;   -9.195;  680.106
382.212;   -9.450;   -6.905;  685.303
382.806;   -8.109;   -3.745;  760.690
383.400;  -12.377;   -7.745;  672.281
383.994;  -12.819;   -9.765;  664.870
384.588;   -9.907;   -6.564;  697.701
385.182;   -8.207;   -5.344;  726.624
385.776;   -9.756;   -8.514;  706.875
386.370;  -13.294;   -9.555;  681.968
386.964;  -11.889;   -8.715;  684.155
387.558;  -10.014;   -6.174;  598.360
388.152;  -13.435;   -8.725;  681.959
388.745;  -12.178;   -7.965;  814.707
389.339;  -10.743;   -5.924;  747.642
389.933;   -9.613;   -5.524;  695.370
390.527;   -9.729;   -7.114;  859.029
391.120;  -16.733;  -10.725;  595.318
391.714;  -13.811;   -8.035;  711.633
392.308;  -11.025;   -3.574;  780.253
392.901;  -13.942;   -7.245;  642.460
393.495;  -15.579;   -9.285;  595.414
394.089;  -14.338;   -5.895;  760.452
394.682;  -14.578;   -4.295;  697.188
395.275;  -14.678;   -9.875;  719.927
395.869;  -15.889;   -8.485;  667.314
396.462;  -15.014;   -7.455;  616.609
397.056;  -11.034;   -5.424;  776.621
397.649;  -15.371;   -6.605;  731.575
398.242;  -13.106;   -8.224;  712.645
398.836;  -12.051;   -7.474;  766.408
399.429;  -13.221;   -7.094;  631.041
400.022;  -16.615;   -9.475;  665.902
400.615;  -13.695;   -7.145;  805.609
401.208;  -11.773;   -7.174;  691.451
401.802;  -14.950;   -5.515;  699.329
402.395;  -15.880;   -9.875;  683.502
402.988;  -17.355;   -8.845;  696.627
403.581;  -13.812;   -8.874;  646.878
404.174;  -11.707;   -5.324;  686.568
404.767;  -14.409;   -9.575;  638.583
405.360;  -16.937;  -10.965;  621.445
405.953;  -11.957;   -8.764;  759.034
406.545;  -11.117;   -7.514;  725.342
407.138;  -15.149;  -10.025;  618.350
407.731;  -13.835;  -10.034;  613.303
408.324;   -9.388;   -9.374;  660.554
408.917;  -11.125;   -6.534;  681.864
409.509;  -11.944;   -8.004;  740.396
410.102;  -13.323;   -9.875;  643.948
410.695;   -9.182;   -8.604;  665.758
411.287;   -9.373;   -6.794;  599.821
411.880;  -11.220;   -9.334;  585.421
412.472;  -13.258;  -10.254;  613.092
413.065;  -11.757;   -6.714;  629.408
413.657;   -8.928;   -7.234;  576.678
414.250;   -8.427;  -10.544;  646.681
414.842;  -10.229;   -9.744;  676.353
415.434;   -8.895;   -6.994;  570.463
416.027;   -4.024;   -5.893;  652.196
416.619;   -6.828;   -7.264;  713.400
417.211;   -6.941;  -10.374;  599.352
417.804;   -3.287;   -7.993;  628.499
418.396;   -6.891;   -7.234;  607.643
418.988;   -4.979;   -9.443;  659.238
419.580;   -8.360;  -10.724;  568.276
420.172;   -6.687;  -10.323;  536.196
420.764;   -2.312;   -8.793;  672.482
421.356;   -3.455;  -11.143;  636.898
421.948;   -3.956;   -8.293;  677.661
422.540;    0.621;   -7.893;  680.027
423.132;    0.349;   -7.082;  600.641
423.724;   -2.670;   -8.653;  561.267
424.316;   -1.425;  -10.213;  621.345
424.908;    2.856;   -9.762;  591.517
425.500;    2.786;   -5.572;  647.978
426.092;    3.751;   -8.422;  648.268
426.683;    2.996;   -9.283;  684.836
427.275;    4.875;   -7.852;  641.471
427.867;    6.846;   -5.272;  668.948
428.458;    7.047;   -7.682;  732.344
429.050;    6.079;  -10.612;  680.749
429.642;    7.503;   -9.882;  743.124
430.233;    7.826;   -6.962;  569.356
430.825;    9.589;   -6.842;  724.809
431.416;    7.341;   -9.672;  698.241
432.008;   10.489;   -6.552;  651.723
432.599;   11.641;   -6.891;  656.073
433.190;    7.793;  -10.912;  637.670
433.782;    6.647;  -11.172;  590.395
434.373;   14.171;   -6.061;  884.765
434.964;   13.368;   -8.251;  602.920
435.556;   11.732;   -9.722;  634.537
436.147;   14.792;   -9.082;  758.490
436.738;   14.592;   -8.041;  701.099
437.329;   18.959;   -7.341;  721.723
437.920;   12.657;   -8.162;  666.688
438.511;   12.121;  -11.802;  564.526
439.103;   18.513;  -10.191;  623.998
439.694;   19.976;   -7.601;  681.583
440.285;   21.825;   -8.541;  764.432
440.876;   19.146;   -9.751;  845.738
441.466;   19.171;   -9.401;  575.162
442.057;   23.273;   -7.760;  665.814
442.648;   22.906;   -9.971;  746.255
443.239;   20.930;  -11.001;  620.477
443.830;   25.650;   -7.990;  704.958
444.421;   27.374;   -7.910;  655.474
445.011;   24.536;   -8.131;  693.619
445.602;   23.850;   -7.111;  743.126
446.193;   26.195;  -10.920;  488.117
446.783;   30.794;   -6.500;  640.397
447.374;   26.198;   -8.671;  692.759
447.964;   27.041;  -10.781;  713.770
448.555;   34.621;   -9.650;  822.742
449.145;   31.586;   -8.660;  662.853
449.736;   32.569;   -8.990;  803.179
450.326;   32.175;   -9.500;  713.626
450.917;   36.668;   -8.680;  675.324
451.507;   36.008;   -7.520;  600.661
452.097;   37.065;   -8.590;  746.267
452.688;   37.573;  -11.340;  742.160
453.278;   37.949;  -10.100;  566.840
453.868;   41.504;   -6.019;  793.550
454.458;   39.850;   -9.440;  651.141
455.048;   40.290;  -10.560;  711.783
455.639;   41.290;  -11.799;  567.096
456.229;   45.346;   -6.899;  710.694
456.819;   47.517;   -7.389;  751.158
457.409;   47.326;  -11.119;  773.993
457.999;   49.585;   -9.289;  737.505
458.589;   50.135;   -6.139;  686.606
459.179;   50.065;   -8.729;  717.658
459.769;   48.353;   -9.789;  627.099
460.358;   52.959;  -10.259;  797.262
460.948;   52.275;   -7.299;  689.503
461.538;   54.640;  -10.289;  660.677
462.128;   52.562;  -11.269;  664.934
462.717;   59.107;   -9.368;  710.326
463.307;   61.416;   -7.908;  705.846
463.897;   58.799;   -9.599;  656.942
464.486;   56.526;   -9.769;  837.128
465.076;   61.193;   -8.048;  733.776
465.666;   64.582;   -9.358;  652.900
466.255;   62.474;   -7.919;  785.651
466.845;   61.237;  -11.689;  666.749
467.434;   63.911;   -7.818;  725.873
468.023;   65.264;   -7.678;  658.357
468.613;   63.628;  -10.939;  713.946
469.202;   67.942;  -10.118;  646.507
469.791;   71.540;   -9.108;  737.811
470.381;   73.872;   -6.058;  742.813
470.970;   73.162;  -10.428;  711.099
471.559;   73.088;  -10.268;  733.291
472.148;   75.670;   -8.448;  675.737
472.738;   77.934;   -6.917;  765.466
473.327;   78.915;  -11.978;  637.529
473.916;   78.102;  -11.888;  737.446
474.505;   81.227;   -9.437;  751.703
475.094;   84.782;   -6.747;  806.570
475.683;   84.332;   -9.367;  797.699
476.272;   85.656;  -12.637;  730.632
476.861;   87.906;  -10.027;  706.754
477.449;   93.907;   -8.716;  728.487
478.038;   88.500;   -9.577;  692.513
478.627;   89.329;   -9.718;  714.852
479.216;   96.234;   -8.947;  769.441
479.805;   98.884;   -6.256;  783.375
480.393;   99.768;   -7.937; 1008.945
480.982;   97.864;   -7.717;  874.501
481.571;  104.551;   -9.266;  858.333
482.159;  105.004;   -7.636;  705.386
482.748;  105.908;   -9.667;  821.385
483.336;  109.950;  -10.376;  858.209
483.925;  110.618;   -7.147;  774.373
484.513;  116.592;   -7.996;  758.962
485.102;  113.628;  -10.027;  810.965
485.690;  121.580;  -10.446; 1011.050
486.278;  124.476;   -8.446;  979.329
486.867;  123.845;   -6.356;  809.662
487.455;  126.090;   -9.136;  898.229
488.043;  127.990;  -10.646;  748.361
488.631;  136.779;   -7.456; 1005.079
489.220;  140.117;   -6.636;  908.626
489.808;  141.406;  -11.036;  741.415
490.396;  148.222;  -10.246;  914.645
490.984;  154.652;   -8.556;  830.161
491.572;  163.594;   -5.886;  940.315
492.160;  170.293;   -9.486;  919.081
492.748;  182.451;  -10.976;  884.341
493.336;  206.233;   -8.776; 1019.693
493.924;  232.493;   -5.465;  958.077
494.512;  260.021;   -9.986; 1066.638
495.100;  298.524;  -10.636; 1103.280
495.687;  355.126;  -10.885; 1206.373
496.275;  420.371;   -8.126; 1150.796
496.863;  494.716;  -10.586; 1281.171
497.451;  598.913;  -11.926; 1386.805
498.038;  730.665;  -10.885; 1556.729
498.626;  838.875;   -6.315; 1741.407
499.214;  981.733;   -7.326; 2016.609
499.801; 1186.373;  -11.906; 2220.633
500.389; 1437.237;  -10.466; 2312.494
500.976; 1754.782;   -5.236; 2744.849
501.564; 2188.978;   -8.936; 3148.565
502.151; 2577.303;  -13.176; 3515.999
502.738; 3048.327;  -10.646; 3971.274
503.326; 3432.068;   -9.525; 4403.796
503.913; 3801.703;  -10.856; 5161.749
504.500; 4159.295;  -11.586; 5986.420
505.088; 4584.960;  -10.336; 6381.201
505.675; 5113.553;   -6.355; 6925.547
506.262; 5835.220;   -9.046; 7619.060
506.849; 6528.776;  -10.416; 8733.969
507.436; 6991.258;  -10.305; 9790.121
508.023; 7569.736;   -5.496; 9985.472
508.610; 7815.444;   -7.856;10434.618
509.197; 8451.050;  -10.097;11198.435
509.784; 9856.042;  -10.886;12391.194
510.371;10818.625;   -9.315;13603.713
510.958;11482.614;   -9.936;14426.586
511.545;12282.757;   -9.326;15243.775
512.132;13223.847;  -10.075;15945.876
512.719;13848.303;   -7.796;16340.369
513.305;14689.357;  -10.606;18011.766
513.892;15454.918;  -11.486;19754.971
514.479;16747.498;   -9.126;20967.805
515.066;18112.113;   -6.026;22299.793
515.652;19315.338;   -8.466;22908.660
516.239;20554.139;  -10.886;23798.875
516.825;21634.145;  -11.496;25567.275
517.412;22665.086;   -5.796;28154.959
517.998;23208.189;  -10.506;28344.111
518.585;23145.857;  -10.076;27134.219
519.171;23622.268;   -8.315;27268.576
519.758;25117.457;   -8.596;28964.129
520.344;26799.053;   -8.466;30664.494
520.930;26810.227;  -11.006;32550.605
521.516;28321.043;  -10.495;35422.895
522.103;30570.232;   -5.526;38280.004
522.689;31067.832;   -8.746;37835.117
523.275;30432.008;  -11.376;37288.613
523.861;31458.031;  -11.156;37281.395
524.447;32687.096;   -8.135;37846.949
525.033;32452.197;   -7.896;38321.949
525.619;32806.641;  -12.476;38579.285
526.205;34429.414;   -9.516;40622.875
526.791;36308.637;   -6.926;42258.836
527.377;36451.723;   -8.346;42966.902
527.963;38179.605;   -8.717;42018.949
528.549;36598.309;  -11.016;42476.828
529.135;35384.879;   -8.536;41854.852
529.721;34863.340;   -9.666;41237.711
530.306;34229.863;  -10.066;41259.445
530.892;34095.945;  -11.356;41506.047
531.478;35472.941;   -6.596;43559.613
532.063;38172.043;   -8.836;47695.563
532.649;38257.996;  -10.047;50808.324
533.235;39323.301;   -9.746;51787.500
533.820;40298.512;   -6.566;52145.035
534.406;41675.063;  -10.817;51133.488
534.991;41398.949;   -9.416;49996.805
535.576;39996.809;   -9.036;48882.852
536.162;40313.273;   -6.156;46942.285
536.747;41450.195;  -11.607;45711.746
537.333;45204.180;  -11.787;48510.180
537.918;47702.082;  -12.437;50439.891
538.503;46184.359;   -7.196;50863.711
539.088;43151.059;  -10.556;50906.922
539.673;43129.047;   -8.767;52621.965
540.259;43143.184;  -10.026;52368.094
540.844;40611.035;   -7.416;50879.109
541.429;41650.195;   -9.467;52077.777
542.014;44668.121;   -9.527;52716.695
542.599;44133.578;   -9.946;52363.281
543.184;41984.570;   -7.927;53187.137
543.769;43494.832;   -9.297;54697.605
544.354;42864.957;  -10.127;53913.914
544.938;41672.719;   -9.267;49680.164
545.523;43316.758;   -6.506;47386.277
546.108;45622.590;   -9.787;49151.949
546.693;47828.898;  -11.587;51384.637
547.278;47855.047;  -10.986;51853.254
547.862;44868.293;   -8.206;51173.750
548.447;40608.809;  -10.067;51691.395
549.031;40573.445;   -9.637;52456.703
549.616;45298.543;   -9.926;52714.516
550.201;44176.043;   -6.347;52414.598
550.785;45148.227;   -7.917;52355.059
551.370;44541.359;  -10.867;54589.453
551.954;44763.160;   -9.047;58267.348
552.538;45526.680;   -7.827;59062.176
553.123;43963.633;  -10.287;58115.285
553.707;42075.516;  -12.178;56556.285
554.291;43331.570;   -8.717;56201.668
554.876;45370.430;   -7.457;55335.762
555.460;45832.344;  -10.387;54155.703
556.044;46828.512;   -9.618;53721.484
556.628;45463.059;  -11.567;53731.016
557.212;44221.906;   -8.097;54312.531
557.796;42827.938;  -11.077;53797.773
558.380;42642.102;  -11.108;56145.984
558.964;42904.672;   -9.057;57277.930
559.548;43932.656;   -6.977;56459.641
560.132;42696.723;  -11.457;54434.543
560.716;41603.133;  -11.378;54800.617
561.300;42721.129;   -9.577;57606.945
561.884;43700.016;   -7.127;58972.445
562.467;42183.203;   -7.118;57327.570
563.051;41482.691;  -13.358;54962.434
563.635;42201.750;  -10.178;52594.473
564.219;42654.070;   -7.837;50610.410
564.802;43575.750;  -11.398;49551.180
565.386;43605.730;  -12.788;48370.953
565.969;42956.598;   -9.077;48178.871
566.553;42756.117;   -6.207;49957.305
567.136;43101.547;   -8.568;50369.594
567.720;39327.289;  -11.868;49492.004
568.303;37531.152;   -8.268;50616.352
568.887;37686.465;   -8.698;50727.148
569.470;37751.363;   -6.808;51698.379
570.053;36300.637;  -13.188;52122.078
570.637;35001.484;  -12.037;52536.438
571.220;34761.371;   -8.577;51186.098
571.803;35075.734;   -8.498;51032.762
572.386;37347.113;  -10.498;49609.887
572.969;39750.555;   -9.388;48285.926
573.552;37804.738;   -8.338;47624.285
574.135;36607.102;   -8.518;45498.641
574.718;34167.402;  -13.628;41970.434
575.301;32891.754;  -10.893;41447.137
575.884;31616.107;   -8.158;40923.836
576.467;32673.254;  -10.328;45267.723
577.050;34371.969;  -13.058;48175.543
577.633;34825.078;   -9.458;47729.328
578.216;33625.445;   -8.928;47579.793
578.799;33575.699;   -9.358;47820.996
579.381;33053.727;  -11.388;48115.551
579.964;32062.123;  -11.718;47333.766
580.547;34010.449;   -8.588;46668.969
581.129;35390.563;   -8.859;44466.141
581.712;36132.000;  -10.729;44164.922
582.294;36833.914;  -11.118;46477.855
582.877;36478.043;   -5.218;48244.254
583.459;33792.375;   -8.679;47437.895
584.042;32098.674;  -10.709;46943.219
584.624;32938.117;  -11.669;46792.227
585.206;32328.459;   -8.218;46557.250
585.789;32370.178;  -10.569;45793.773
586.371;34908.941;  -11.859;43836.391
586.953;35065.355;  -10.719;42972.492
587.536;36112.656;   -7.198;42487.211
588.118;35350.836;   -8.720;42086.414
588.700;31278.453;  -10.439;43389.930
589.282;29139.803;   -9.198;43646.039
589.864;28068.713;   -9.199;43438.109
590.446;28311.703;  -11.319;43151.926
591.028;30148.787;  -11.159;42781.867
591.610;31792.648;  -11.779;42839.098
592.192;30911.168;   -7.668;42820.402
592.774;30006.484;  -11.949;40724.277
593.356;28798.471;  -12.129;39874.789
593.937;27841.730;  -10.669;39980.648
594.519;30123.973;   -6.509;42069.633
595.101;32231.320;  -10.849;42976.031
595.683;32286.045;  -11.679;44084.441
596.264;33478.703;   -9.049;43478.797
596.846;32594.578;   -8.849;43803.672
597.427;32426.203;   -9.570;42986.934
598.009;34074.098;  -12.620;42832.219
598.591;34165.012;  -10.039;42580.086
599.172;33115.074;  -10.369;43061.805
599.753;33237.094;   -9.140;41691.469
600.335;35013.563;  -11.430;40692.520
600.916;33493.383;   -9.939;39982.422
601.498;30998.744;   -8.479;40318.617
602.079;29553.547;  -10.920;40670.609
602.660;29711.156;  -11.480;41450.898
603.241;31217.570;  -11.699;41137.738
603.823;29891.586;   -9.579;38868.797
604.404;29710.166;  -10.620;38182.785
604.985;31042.844;  -10.450;38078.047
605.566;30615.939;   -9.129;38056.633
606.147;30760.002;   -7.510;37020.418
606.728;32339.166;  -10.660;37883.359
607.309;30960.121;  -11.740;38748.273
607.890;30405.719;   -9.759;38850.230
608.471;29876.461;   -8.250;37457.918
609.051;28969.123;   -9.240;36066.457
609.632;28065.217;  -12.120;35991.074
610.213;29065.445;   -9.110;37402.641
610.794;29545.994;   -8.030;38383.363
611.374;28956.146;   -8.110;40562.387
611.955;29336.971;  -13.560;38533.727
612.536;30571.582;  -11.400;36951.789
613.116;30615.883;   -8.070;37197.891
613.697;30884.504;  -10.830;38411.125
614.277;29704.543;  -11.641;38673.938
614.858;30651.857;  -13.310;37075.863
615.438;29543.461;   -7.460;35092.906
616.019;26697.646;   -7.601;33666.301
616.599;27452.400;  -12.020;34189.023
617.179;29293.418;  -11.780;36952.047
617.760;30196.645;   -8.570;39582.574
618.340;31345.957;  -11.471;38943.977
618.920;32695.506;  -11.170;37594.156
619.500;32475.109;  -11.071;37866.938
620.080;31591.973;   -7.750;37869.043
620.660;32867.215;  -12.711;36868.617
621.241;34224.844;  -10.211;36352.309
621.821;34446.902;  -10.961;35459.520
622.401;33377.813;   -7.720;35207.414
622.980;32495.051;   -8.981;35980.422
623.560;31107.668;   -9.331;37351.328
624.140;30171.963;   -9.850;34388.582
624.720;24889.848;   -7.451;32368.764
625.300;21438.480;   -9.070;32638.629
625.880;24764.631;  -12.601;34599.035
626.459;28698.740;  -11.751;36831.738
627.039;31804.910;   -9.281;38299.098
627.619;31570.633;   -8.801;38289.574
628.198;29959.504;  -12.071;37220.695
628.778;29186.303;   -9.461;37632.563
629.357;29939.168;   -8.491;38003.012
629.937;30097.111;   -9.721;38402.039
630.516;29695.246;   -9.951;37868.801
631.096;29320.314;  -11.731;35760.410
631.675;32377.896;   -8.572;35225.219
632.254;37448.820;  -11.282;35130.289
632.834;36688.516;  -13.322;35794.570
633.413;34501.285;  -10.301;35788.922
633.992;31393.561;   -8.582;34532.863
634.571;32404.367;   -8.352;33590.113
635.151;35357.168;  -11.912;34943.863
635.730;33636.672;  -10.511;35352.523
636.309;30278.977;   -7.731;35366.605
636.888;28096.561;   -9.952;36165.637
637.467;29038.855;  -11.672;37515.902
638.046;30727.018;   -8.901;39288.695
638.625;33799.105;   -7.912;38279.699
639.204;33371.891;  -10.022;37741.598
639.782;31839.615;  -12.252;38364.551
640.361;28221.393;  -10.041;36740.621
640.940;25379.227;  -11.161;34950.082
641.519;25974.570;   -9.701;34137.398
642.097;28829.600;  -11.271;35654.258
642.676;31535.109;   -8.651;35637.957
643.255;31986.762;   -8.711;36567.074
643.833;31098.652;   -9.581;37809.434
644.412;31248.436;  -13.711;37337.293
644.990;30454.391;  -11.811;37018.531
645.569;30587.885;   -9.411;36518.469
646.147;29268.365;  -10.291;36186.430
646.726;28738.301;  -12.401;36267.688
647.304;29853.354;  -10.411;36647.625
647.882;31884.326;   -9.651;39286.742
648.461;33467.664;   -9.631;39157.703
649.039;31557.980;  -11.881;35412.883
649.617;31053.055;   -9.661;34744.918
650.195;30868.246;   -9.301;35403.098
650.773;29308.852;  -10.511;35053.797
651.352;26948.910;  -11.521;33756.816
651.930;24827.152;  -12.211;31868.773
652.508;23433.809;   -9.171;33121.551
653.086;27382.756;   -9.371;33564.793
653.663;29847.959;  -13.161;34054.668
654.241;28842.656;  -13.031;35693.309
654.819;30629.303;   -9.371;36422.906
655.397;30656.617;  -10.511;38213.484
655.975;30449.742;  -10.371;39507.625
656.553;30140.846;  -10.051;39498.223
657.130;28441.320;  -10.061;40395.480
657.708;27836.441;   -9.561;39242.020
658.286;27890.637;  -11.511;38920.020
658.863;29153.246;  -10.261;40202.898
659.441;32124.752;   -7.531;39677.938
660.018;31413.988;   -9.501;40413.355
660.596;30333.555;  -13.301;39931.414
661.173;32324.795;  -11.211;39604.531
661.750;32300.299;   -9.951;39700.070
662.328;31257.232;   -9.390;39292.809
662.905;30489.963;  -11.330;38235.648
663.482;26053.086;   -9.050;36212.305
664.060;24297.252;   -8.240;35944.945
664.637;27120.492;  -10.050;35170.785
665.214;28973.461;  -11.760;34197.523
665.791;30354.609;  -10.530;34549.520
666.368;29057.535;   -9.690;35118.578
666.945;29946.520;   -9.320;36019.418
667.522;31364.729;  -11.860;36048.438
668.099;31199.531;  -10.770;36243.914
668.676;30120.361;   -6.260;35958.875
669.253;28729.549;   -7.000;37384.730
669.830;29395.564;  -10.190;36779.629
670.407;29056.400;   -9.550;35231.289
670.984;29166.166;   -9.260;35544.270
671.560;29590.484;   -9.280;35466.867
672.137;28828.020;  -11.810;34280.863
672.714;29711.648;  -11.490;34632.863
673.290;29981.352;   -7.740;35135.422
673.867;30367.383;  -10.660;36114.480
674.443;29963.225;  -12.230;36152.859
675.020;28277.850;  -10.450;35327.238
675.596;29513.863;   -9.260;35795.176
676.173;29871.717;  -10.780;35430.355
676.749;29817.537;  -13.690;33549.516
677.326;30022.652;  -11.980;32210.012
677.902;29965.801;   -8.630;32068.871
678.478;29282.188;  -10.730;32583.891
679.054;28922.311;  -10.520;32088.928
679.631;29121.563;  -11.920;30978.848
680.207;30653.574;   -7.490;33160.887
680.783;32188.482;   -9.860;35570.363
681.359;31254.797;  -13.380;36125.184
681.935;30609.963;  -12.480;35240.922
682.511;29608.041;   -7.900;34429.961
683.087;29792.262;   -7.710;34463.680
683.663;29540.252;  -11.480;34648.898
684.239;28158.520;  -14.090;34546.457
684.815;27746.676;   -7.560;35586.375
685.390;28105.732;   -9.910;35821.895
685.966;28545.723;  -11.159;35085.871
686.542;31124.652;  -11.169;34198.230
687.118;33289.887;   -5.959;32847.707
687.693;33503.992;  -10.329;32794.027
688.269;33175.199;  -12.059;33072.367
688.844;31054.273;  -10.909;33141.664
689.420;28607.654;   -8.019;33965.742
689.995;26286.018;   -8.399;34655.523
690.571;25129.240;  -10.949;33576.742
691.146;25803.357;   -9.619;32657.219
691.722;25310.855;   -8.999;32526.979
692.297;25550.271;  -11.589;33014.617
692.872;27567.730;  -11.739;34012.254
693.448;26951.607;  -11.059;34237.434
694.023;26188.697;  -10.139;34142.672
694.598;28168.357;   -9.029;34132.031
695.173;28300.775;  -13.319;34205.250
695.748;27525.217;  -10.169;32882.488
696.323;27436.129;   -8.339;32864.906
696.898;27719.189;   -8.169;33170.004
697.473;27606.262;  -12.309;32432.984
698.048;27139.430;  -10.989;31649.303
698.623;27239.781;   -9.329;30778.141
699.198;29352.436;   -9.849;31140.119
699.773;30081.207;  -12.329;31764.299
700.348;28376.973;  -10.389;31780.816
700.922;28362.268;   -9.269;32046.375
701.497;29040.404;   -9.329;32603.574
702.072;29216.215;  -10.789;34799.871
702.646;27897.463;  -10.839;35793.172
703.221;26056.857;   -9.099;35201.590
703.795;28082.311;  -10.939;34764.527
704.370;28362.510;  -12.859;34307.367
704.944;28863.314;  -11.559;33509.887
705.519;29811.506;   -7.939;31388.584
706.093;31328.512;  -10.499;31340.104
706.668;31450.266;  -11.289;32630.281
707.242;30473.090;  -11.509;32728.779
707.816;28990.221;   -9.639;32947.238
708.390;27510.650;  -11.429;33277.855
708.965;28223.496;  -11.869;33834.336
709.539;28524.467;  -11.689;33709.273
710.113;28963.520;  -10.478;33044.313
710.687;28145.105;  -10.228;31953.992
711.261;26375.371;  -13.698;30505.949
711.835;26253.516;  -13.378;30262.369
712.409;27221.895;   -9.698;31254.447
712.983;29082.018;  -11.898;32754.986
713.557;29849.932;  -15.138;34018.824
714.131;29448.828;  -14.098;34579.625
714.704;28530.676;   -9.958;33890.262
715.278;26320.885;  -10.028;33531.102
715.852;25431.521;  -11.148;33601.660
716.425;26319.131;   -9.068;33515.117
716.999;26948.770;  -10.038;33185.555
717.573;27986.939;   -9.798;33905.996
718.146;29057.646;  -12.378;35199.293
718.720;29002.275;  -11.918;35060.551
719.293;28458.168;   -8.088;34973.230
719.867;31290.283;  -10.888;36394.449
720.440;30718.467;  -11.938;36663.008
721.013;29014.525;  -12.818;35102.426
721.587;27793.914;  -10.298;33985.266
722.160;26977.043;  -10.048;33524.965
722.733;25947.689;  -12.108;32987.043
723.306;26250.170;  -10.818;33066.301
723.880;28678.797;   -8.908;33399.500
724.453;30336.320;   -9.878;33468.297
725.026;29180.949;  -11.188;33816.637
725.599;26686.393;  -11.678;32797.996
726.172;27402.830;   -9.618;33187.434
726.745;28555.086;   -8.258;35136.613
727.318;29979.881;  -12.978;35751.730
727.891;30368.201;  -12.148;35890.430
728.463;29955.961;   -8.968;34822.090
729.036;29080.814;  -10.188;32895.086
729.609;29501.264;  -11.788;31823.225
730.182;26262.611;  -11.788;31445.283
730.754;23702.965;  -10.268;32373.223
731.327;23715.059;   -9.998;33676.820
731.900;24138.893;  -12.228;33417.000
732.472;25626.867;  -13.848;31978.498
733.045;27429.859;   -8.698;30368.777
733.617;27471.314;  -10.607;30574.215
734.190;26852.703;  -11.507;31280.975
734.762;23735.916;  -13.647;31674.412
735.334;22249.563;   -9.767;31247.291
735.907;23109.301;   -9.897;29876.211
736.479;23084.416;  -11.637;29808.488
737.051;22762.029;   -9.567;30233.547
737.623;23802.258;   -8.187;31469.086
738.195;24733.576;  -11.187;31784.225
738.768;26645.578;  -12.337;32120.523
739.340;26513.168;  -12.227;32094.342
739.912;25179.244;  -11.057;31312.680
740.484;23797.842;  -10.207;31946.238
741.056;22974.758;  -10.047;32984.059
741.628;24842.438;  -13.627;33897.715
742.199;27034.098;   -7.177;33213.016
742.771;25268.746;  -10.797;31369.113
743.343;22781.879;  -11.997;31865.473
743.915;21814.990;  -12.867;32388.631
744.487;22106.439;   -7.617;31079.568
745.058;22345.520;   -9.557;30570.107
745.630;22782.016;   -9.877;29970.127
746.201;23457.881;  -14.177;29186.766
746.773;23699.232;   -9.237;28805.723
747.344;23510.969;   -9.847;29591.223
747.916;22332.654;  -11.657;31412.201
748.487;22847.080;  -10.587;32194.898
749.059;24072.000;   -8.707;32533.719
749.630;24685.445;  -10.537;32158.518
750.201;23732.246;  -11.687;30855.395
750.773;21929.268;  -11.647;28622.555
751.344;21841.010;   -7.147;28405.732
751.915;23070.324;   -9.757;28461.551
752.486;22713.205;  -12.427;27842.850
753.057;20417.305;  -12.227;27845.008
753.628;19368.811;  -10.417;27728.107
754.199;20618.090;  -11.767;27381.086
754.770;21560.748;  -11.187;25882.203
755.341;21441.777;  -10.507;25886.184
755.912;21378.783;   -9.387;26050.861
756.483;20877.859;  -10.647;26798.779
757.054;19120.602;  -11.837;27048.238
757.625;17884.645;  -12.716;26294.838
758.195;17667.588;   -9.666;26142.076
758.766;17383.994;   -8.656;26392.234
759.337;18195.340;  -12.856;26334.594
759.907;20002.617;  -13.366;27579.652
760.478;20852.486;   -8.576;28352.770
761.048;20107.355;  -10.526;27325.088
761.619;19341.320;  -11.116;26460.428
762.189;19531.451;  -12.136;26029.826
762.760;20764.590;   -9.456;26430.145
763.330;21710.660;   -7.136;26670.902
763.900;20942.986;  -11.786;26603.021
764.471;18268.137;  -11.546;25542.740
765.041;17021.324;   -8.096;24358.459
765.611;17116.834;   -8.876;23991.297
766.181;17550.049;  -12.196;24470.236
766.751;18485.336;  -11.636;24845.975
767.321;18179.400;  -10.156;24533.633
767.891;16218.333;  -11.766;24916.492
768.461;15719.694;  -14.936;24776.771
769.031;16278.573;  -12.356;24757.988
769.601;17761.256;   -7.526;24181.088
770.171;17572.881;  -10.766;23670.387
770.741;17018.281;  -13.176;22960.045
771.311;17303.355;  -10.616;22917.523
771.880;17546.100;   -9.576;23562.941
772.450;17180.949;  -10.336;24216.500
773.020;17274.801;  -13.516;24140.398
773.589;16634.799;  -13.466;24414.857
774.159;15970.087;   -8.686;23858.717
774.729;15594.706;   -9.476;22942.135
775.298;15097.904;  -13.666;22324.033
775.867;14696.859;  -11.716;21140.313
776.437;14673.406;   -9.906;20838.092
777.006;14453.892;  -12.166;20599.510
777.576;14392.462;  -12.356;20508.809
778.145;14549.144;  -11.646;20732.947
778.714;14372.050;   -8.226;21062.465
779.283;13600.508;   -9.556;20949.664
779.853;13191.471;  -14.116;20508.623
780.422;13685.015;  -11.506;20649.082
780.991;13208.053;   -9.556;21527.520
781.560;12085.871;   -9.095;22632.658
782.129;11991.887;  -12.135;23048.277
782.698;12052.855;  -10.865;23438.555
783.267;11661.368;   -9.335;23267.734
783.836;11652.469;  -11.045;22415.133
784.404;12665.889;  -13.865;20443.152
784.973;13166.424;  -13.095;19699.150
785.542;13062.967;  -11.575;19763.828
786.111;12906.181;   -9.705;20341.408
786.679;12359.371;  -12.105;20207.967
787.248;12117.594;  -12.455;19516.465
787.817;11906.170;  -11.535;18900.363
788.385;11475.129;   -9.765;17879.121
788.954;10906.740;  -14.005;17658.301
789.522;10445.707;  -11.955;17788.879
790.090;11027.881;  -10.135;18118.277
790.659;11378.026;  -10.975;18338.736
791.227;10900.813;  -13.375;18508.615
791.795;11400.667;  -12.375;17898.254
792.364;11747.997;  -10.725;17295.133
792.932;11975.788;   -9.715;16822.051
793.500;12093.705;  -12.675;17040.148
794.068;12293.923;  -13.495;17179.787
794.636;12354.321;  -10.885;16664.246
795.204;11830.896;  -11.045;16524.545
795.772;11891.900;  -13.175;17274.564
796.340;11438.461;  -12.445;17891.002
796.908;11310.325;   -9.735;17648.561
797.476;11149.015;   -9.815;17064.080
798.044;10664.308;  -13.985;16672.777
798.612; 9823.217;  -13.115;17023.996
799.180; 9478.367;  -10.185;16561.615
799.747; 9453.796;   -9.055;15962.773
800.315; 9190.639;  -12.385;15296.992
800.883; 8819.608;  -15.035;14801.771
801.450; 8775.726;  -10.365;14534.430
802.018; 8812.907;   -9.855;14173.248
802.585; 8949.443;  -11.905;14029.547
803.153; 9024.168;  -11.585;13836.846
803.720; 8893.803;   -9.095;13567.324
804.287; 8483.776;   -9.135;13360.622
804.855; 8094.968;  -11.604;13681.981
805.422; 7965.041;  -11.794;13536.560
805.989; 7965.118;  -10.734;13355.958
806.556; 8179.221;  -10.444;13747.896
807.124; 8446.512;  -12.764;13987.376
807.691; 8420.226;  -12.964;14038.674
808.258; 8212.292;  -11.134;14120.152
808.825; 7879.884;   -9.854;13860.111
809.392; 7920.701;  -10.504;13268.790
809.959; 7460.048;  -13.054;12680.389
810.526; 7095.024;   -8.294;12427.308
811.093; 7206.207;   -8.394;12030.105
811.659; 7805.558;  -12.304;11653.664
812.226; 8234.757;  -13.944;11637.183
812.793; 7862.049;  -10.484;11611.521
813.360; 7240.143;  -10.144;11885.181
813.926; 6958.155;  -11.684;12770.539
814.493; 6732.423;  -13.644;12677.638
815.060; 6348.878;   -9.724;11974.336
815.626; 6391.004;   -9.854;11594.715
816.193; 6795.944;  -13.254;11579.474
816.759; 6849.560;  -13.204;11666.972
817.325; 7010.543;   -9.434;11325.530
817.892; 7460.893;  -10.134;11105.369
818.458; 7900.178;  -13.474;10843.928
819.024; 7480.226;  -11.854;10714.406
819.591; 7145.393;  -10.244;10469.165
820.157; 6927.128;  -10.704;10235.523
820.723; 6435.030;  -12.324;10847.563
821.289; 6119.437;   -9.444;11040.980
821.855; 5983.258;   -8.374;10357.100
822.421; 5911.277;  -10.234; 9978.918
822.987; 5923.140;  -13.294; 9754.177
823.553; 5658.794;  -10.884;10065.755
824.119; 5511.684;   -8.884;10036.294
824.685; 5597.707;   -6.784;10029.192
825.251; 5686.734;  -12.004;10199.230
825.816; 5640.675;  -11.474; 9820.189
826.382; 5442.072;   -9.174; 9297.248
826.948; 5710.392;   -9.214; 9381.347
827.513; 6071.907;  -10.774; 9450.726
828.079; 5820.367;  -11.924; 9472.444
828.645; 5254.092;  -10.543; 9292.643
829.210; 5238.141;  -10.533; 9065.341
829.776; 5234.708;  -10.753; 9132.620
830.341; 5111.846;  -10.173; 9092.878
830.906; 5332.280;  -10.743; 9078.557
831.472; 5669.668;  -11.113; 8534.535
832.037; 5340.247;  -10.603; 8677.874
832.602; 4750.376;  -13.323; 8628.692
833.167; 4500.468;  -10.823; 8879.031
833.733; 4455.078;  -10.113; 9189.790
834.298; 4589.027;  -13.583; 9052.608
834.863; 4636.027;  -12.703; 8895.087
835.428; 4614.629;  -10.523; 8824.266
835.993; 4490.870;   -6.963; 8845.385
836.558; 4369.898;  -10.763; 8888.563
837.123; 4540.470;   -9.903; 8966.582
837.688; 4765.349;   -9.913; 8617.860
838.253; 4984.295;  -10.283; 8590.699
838.817; 5188.719;  -12.963; 8443.797
839.382; 5095.684;  -14.243; 8799.356
839.947; 4777.637;  -10.733; 8810.595
840.511; 4472.863;   -9.383; 8796.394
841.076; 4084.433;  -12.563; 8347.231
841.641; 4134.262;  -12.953; 8224.330
842.205; 4213.636;   -7.043; 8223.349
842.770; 4344.802;   -8.163; 8622.107
843.334; 4528.748;  -12.503; 8410.386
843.898; 4467.780;  -11.693; 8337.465
844.463; 4483.442;  -10.203; 8506.283
845.027; 4247.272;   -9.533; 8280.962
845.591; 4074.257;  -13.443; 8231.141
846.156; 4038.247;  -13.143; 7969.179
846.720; 3909.542;   -9.433; 7768.278
847.284; 3770.481;  -11.033; 7630.957
847.848; 3634.618;  -10.403; 7472.395
848.412; 3533.243;  -11.553; 7437.394
848.976; 3568.364;   -8.393; 7674.592
849.540; 3506.551;   -8.713; 7836.011
850.104; 3651.552;  -12.463; 7913.669
850.668; 4008.915;  -12.973; 7694.508
851.232; 4078.826;  -10.793; 7756.887
851.796; 3898.089;  -10.662; 7926.545
852.359; 3598.709;  -13.082; 7827.844
852.923; 3433.334;  -12.192; 7641.163
853.487; 3239.262;  -11.912; 7342.501
854.050; 3188.337;  -10.892; 7042.820
854.614; 3315.752;  -13.992; 7151.338
855.177; 3440.435;  -11.732; 7105.077
855.741; 3468.155;   -8.962; 6989.675
856.304; 3345.590;   -9.442; 6596.634
856.868; 3291.825;  -14.192; 6356.272
857.431; 3386.582;  -12.702; 6468.571
857.995; 3492.684;   -9.942; 6373.210
858.558; 3482.933;   -9.112; 6324.448
859.121; 3209.913;  -12.932; 6408.327
859.684; 3097.214;  -13.442; 6347.886
860.247; 3203.060;  -10.632; 6321.264
860.810; 3175.903;  -11.272; 6301.903
861.374; 2909.132;   -9.832; 6607.881
861.937; 2658.745;  -11.762; 6408.200
862.500; 2669.506;   -9.722; 6572.639
863.062; 2865.053;  -10.512; 6387.297
863.625; 3037.982;  -11.232; 6190.836
864.188; 3189.551;  -14.112; 5807.254
864.751; 3233.893;  -11.302; 5682.413
865.314; 3105.972;  -10.112; 5547.492
865.876; 2900.950;  -12.182; 5500.150
866.439; 2902.460;  -10.722; 5415.909
867.002; 2834.079;   -9.252; 5501.567
867.564; 2619.043;   -9.572; 5413.946
868.127; 2397.769;  -13.142; 5160.325
868.689; 2300.580;  -12.902; 5133.183
869.252; 2193.035;   -9.732; 5252.382
869.814; 2099.599;   -9.432; 5297.141
870.377; 2111.087;  -11.552; 5390.919
870.939; 2177.781;   -9.052; 5599.898
871.501; 2233.402;  -10.982; 5248.336
872.063; 2237.344;  -12.292; 4854.235
872.626; 2208.456;  -14.912; 4817.074
873.188; 2240.738;  -13.112; 4987.732
873.750; 2204.435;  -13.442; 4868.651
874.312; 2110.688;   -9.402; 4779.330
874.874; 2017.116;  -11.062; 4866.348
875.436; 1924.279;  -13.931; 4718.887
875.998; 1907.758;   -9.561; 4660.005
876.560; 1921.229;  -11.321; 4462.964
877.122; 1860.201;  -12.221; 4145.042
877.683; 1779.981;  -12.191; 4056.481
878.245; 1716.991;  -12.101; 3950.740
878.807; 1767.729;   -8.971; 4058.958
879.369; 1795.416;  -12.071; 3954.677
879.930; 1693.652;  -14.621; 3941.495
880.492; 1630.241;  -10.311; 4067.014
881.053; 1583.476;  -10.901; 3859.633
881.615; 1475.484;  -14.411; 3776.071
882.176; 1385.593;  -13.761; 3734.750
882.738; 1345.693;   -9.181; 3678.489
883.299; 1322.954;  -11.791; 3405.407
883.860; 1331.373;  -13.121; 3351.106
884.422; 1330.704;  -11.211; 3394.044
884.983; 1279.886;  -10.091; 3166.443
885.544; 1198.595;   -8.461; 3189.802
886.105; 1119.391;  -12.361; 3160.360
886.666; 1055.318;  -14.141; 3093.059
887.227;  998.028;  -11.361; 2941.957
887.788;  935.911;  -11.401; 2974.836
888.349;  874.173;  -13.791; 2721.214
888.910;  877.174;  -13.191; 2696.493
889.471;  888.490;   -9.881; 2560.172
890.032;  868.215;   -9.881; 2558.190
890.593;  846.639;  -10.371; 2567.669
891.153;  820.565;  -13.301; 2460.307
891.714;  766.580;  -11.431; 2372.046
892.275;  723.672;  -11.291; 2309.505
892.835;  679.397;  -11.471; 2382.543
893.396;  624.226;  -11.541; 2295.502
893.956;  568.176;  -11.181; 2162.420
894.517;  532.005;  -11.741; 2125.439
895.077;  529.227;  -11.671; 2086.978
895.638;  527.773;  -11.311; 2126.316
896.198;  497.746;   -9.831; 1838.275
896.758;  454.300;   -8.421; 1892.813
897.319;  424.114;  -12.351; 1792.232
897.879;  407.967;  -13.511; 1762.751
898.439;  380.413;  -12.001; 1661.149
898.999;  357.791;  -10.180; 1781.468
899.559;  348.335;  -12.030; 1703.347
900.119;  343.135;  -15.710; 1537.525
900.679;  338.027;   -8.900; 1638.384
901.239;  323.637;   -8.340; 1527.902
901.799;  313.587;  -13.910; 1456.441
902.359;  307.413;  -13.460; 1357.140
902.919;  300.703;  -11.490; 1331.118
903.479;  287.594;  -12.110; 1317.257
904.038;  265.905;  -11.720; 1262.595
904.598;  250.542;  -13.610; 1152.034
905.158;  246.630;  -11.040; 1240.893
905.717;  239.447;  -10.900; 1233.691
906.277;  228.662;  -15.080; 1217.330
906.836;  217.593;  -13.380; 1222.408
907.396;  208.727;  -10.780; 1193.047
907.955;  201.696;   -8.500; 1182.526
908.515;  196.165;  -12.760; 1099.364
909.074;  189.682;  -11.900; 1092.863
909.633;  183.437;   -8.950; 1069.121
910.192;  179.718;   -8.770; 1196.460
910.752;  173.450;  -12.390; 1029.960
911.311;  170.058;  -13.680; 1009.780
911.870;  168.001;  -12.370;  971.460
912.429;  169.285;  -10.900; 1094.080
912.988;  168.199;  -11.690; 1081.060
913.547;  162.267;  -13.240;  940.380
914.106;  156.841;  -11.990;  999.420
914.665;  154.151;   -9.990;  984.020
915.224;  153.969;  -12.880; 1035.760
915.782;  154.132;  -12.350;  922.560
916.341;  152.785;   -9.110; 1049.840
916.900;  149.210;   -9.270;  925.260
917.458;  147.549;  -13.240;  884.220
918.017;  146.941;  -13.550;  942.600
918.576;  146.139;  -12.320;  904.440
919.134;  144.846;  -11.490;  837.980
919.693;  142.925;  -13.670;  893.060
920.251;  140.243;  -15.470;  876.500
920.809;  139.399;  -11.290;  839.580
921.368;  139.408;  -10.210;  885.360
921.926;  138.156;  -12.140;  842.940
922.484;  135.980;  -13.080;  903.360
923.042;  136.778;  -11.720;  880.340
923.601;  139.434;   -7.480;  998.680
924.159;  137.819;  -11.570;  935.560
924.717;  134.615;  -13.840;  841.080
925.275;  134.051;  -10.640;  903.240
925.833;  134.698;  -11.540;  779.320
926.391;  135.288;  -12.960;  938.380
926.949;  133.886;  -14.130;  857.680
927.506;  133.386;  -11.750;  903.500
928.064;  133.261;  -10.250;  877.580
928.622;  133.586;  -13.030;  880.100
929.180;  132.507;  -13.400;  814.180
929.737;  133.691;  -10.700;  808.540
930.295;  138.518;  -10.070;  928.480
930.853;  139.463;  -11.960;  849.100
931.410;  139.983;  -13.120;  821.120
931.968;  139.180;  -10.770;  940.660
932.525;  138.904;  -10.680;  909.380
933.082;  140.141;  -13.130;  811.440
933.640;  139.479;  -13.210;  925.900
934.197;  137.747;  -11.060;  886.360
934.754;  139.541;   -9.580;  897.780
935.312;  143.298;  -14.000;  863.340
935.869;  147.124;  -10.710; 1012.980
936.426;  147.485;   -9.860;  872.800
936.983;  148.899;   -9.710;  889.020
937.540;  147.767;  -13.990;  838.280
938.097;  145.551;  -14.040;  940.120
938.654;  145.865;  -10.310;  898.860
939.211;  148.721;  -10.560;  952.480
939.768;  153.654;  -13.900;  915.420
940.324;  156.379;  -14.760;  904.200
940.881;  157.006;  -10.370;  878.500
941.438;  158.219;   -8.260; 1021.200
941.995;  153.834;  -12.540;  992.560
942.551;  151.040;  -14.670;  875.620
943.108;  151.908;  -10.450;  937.920
943.664;  155.032;  -10.750;  869.340
944.221;  158.776;  -11.550; 1088.140
944.777;  156.345;  -14.770;  869.680
945.334;  156.574;  -12.820;  884.840
945.890;  158.731;  -10.130;  946.480
946.446;  158.459;  -13.470;  947.020
947.003;  160.010;  -12.120;  964.940
947.559;  162.191;   -9.980; 1063.040
948.115;  162.843;   -9.080; 1026.540
948.671;  161.014;  -10.830;  967.300
949.227;  158.149;  -12.440;  859.560
949.783;  155.161;  -12.910;  858.900
950.339;  156.896;  -10.270;  991.000
950.895;  157.614;  -13.630; 1023.840
951.451;  157.618;  -15.100;  925.280
952.007;  157.451;  -11.330;  998.540
952.563;  158.164;  -10.580;  937.780
953.118;  158.217;  -13.440;  904.940
953.674;  157.399;  -12.710;  935.780
954.230;  157.139;  -10.350;  949.640
954.785;  154.166;   -9.190;  936.640
955.341;  152.487;  -11.200;  998.160
955.897;  150.324;  -16.560;  834.660
956.452;  152.060;  -12.570;  953.840
957.008;  150.535;   -7.970; 1083.640
957.563;  148.782;  -11.940; 1009.540
958.118;  143.375;  -13.450;  877.700
958.674;  143.434;  -12.030;  946.780
959.229;  145.100;   -9.410; 1013.980
959.784;  144.104;  -12.000;  832.400
960.339;  142.548;  -14.780; 1001.280
960.894;  139.294;   -9.860;  963.760
961.449;  135.824;   -9.970;  859.960
962.004;  135.032;  -10.900; 1212.840
962.559;  130.484;  -13.150;  860.140
963.114;  127.305;  -13.740;  742.480
963.669;  128.201;   -9.820;  915.500
964.224;  126.329;  -13.890;  874.340
964.779;  126.022;  -12.600;  828.420
965.334;  127.055;  -10.950; 1017.860
965.888;  126.854;  -11.170;  875.360
966.443;  130.387;  -12.540;  972.380
966.998;  128.663;  -15.780;  819.460
967.552;  127.190;   -9.760;  908.380
968.107;  123.637;   -9.060;  868.300
968.661;  125.196;  -11.950;  922.440
969.216;  126.588;  -12.800;  856.280
969.770;  128.336;  -11.210;  917.200
970.324;  129.601;  -11.610;  923.140
970.879;  127.131;  -11.370;  947.180
971.433;  120.388;  -12.540;  952.720
971.987;  108.625;  -11.320;  895.340
972.541;   98.926;  -10.720;  917.100
973.095;   91.938;   -9.680; 1009.460
973.649;   84.080;  -11.440;  809.480
974.203;   81.890;  -11.210;  829.040
974.757;   83.754;  -10.240;  855.220
975.311;   86.073;  -13.720;  872.600
975.865;   87.761;  -13.770;  881.820
976.419;   87.757;  -11.690;  857.400
976.973;   89.761;   -9.510;  849.620
977.526;   92.746;  -12.620;  949.920
978.080;   91.833;  -12.010;  796.780
978.634;   94.557;  -10.170;  921.320
979.187;   92.212;   -9.020;  905.400
979.741;   90.648;   -9.820; 1018.380
980.294;   86.442;  -14.870;  789.160
980.848;   84.817;  -12.380;  717.220
981.401;   87.022;  -10.350;  816.540
981.955;   89.707;  -13.720;  844.300
982.508;   88.715;  -11.490;  746.340
983.061;   89.031;  -10.000;  915.260
983.615;   85.278;  -11.480;  798.800
984.168;   83.580;  -13.220;  770.080
984.721;   82.279;  -13.960;  880.760
985.274;   81.370;  -10.870;  867.500
985.827;   81.521;   -9.790;  834.220
986.380;   79.326;  -13.120;  721.340
986.933;   77.872;  -12.450;  864.800
987.486;   76.917;  -10.210;  861.920
988.039;   76.569;   -8.430;  863.100
988.591;   74.373;  -10.520;  893.260
989.144;   71.802;  -14.860;  737.260
989.697;   70.457;  -13.080;  758.740
990.250;   72.072;  -10.150;  858.100
990.802;   71.180;  -13.430;  755.860
991.355;   71.940;  -12.750;  974.880
991.907;   69.881;  -12.040;  864.320
992.460;   67.821;  -11.330;  753.760
993.012;   67.429;  -13.610;  749.540
993.565;   66.106;  -13.460;  711.360
994.117;   67.739;   -9.360;  950.780
994.669;   63.750;  -11.300;  701.320
995.221;   62.557;  -13.540;  791.920
995.774;   60.897;  -13.430;  787.580
996.326;   58.229;  -12.520;  740.220
996.878;   59.302;  -10.950;  838.420
997.430;   57.618;  -14.300;  699.860
997.982;   56.873;  -13.760;  750.140
998.534;   54.767;  -11.530;  739.060
999.086;   53.000;  -10.310;  738.220
999.638;   51.592;  -12.530;  661.380
1000.190;   49.631;  -11.840;  699.320
1000.741;   48.387;  -10.260;  742.700
1001.293;   48.477;   -8.860;  686.020
1001.845;   48.080;  -13.700;  676.640
1002.396;   48.241;  -12.100;  743.400
1002.948;   48.084;  -12.760;  737.400
1003.500;   46.189;  -10.380;  723.780
1004.051;   48.291;  -11.900;  907.580
1004.603;   46.669;  -12.250;  791.820
1005.154;   42.121;  -13.210;  608.980
1005.705;   42.279;  -10.950;  723.960
1006.257;   41.622;  -13.880;  707.220
1006.808;   40.741;  -12.840;  685.460
1007.359;   40.429;  -10.570;  763.240
1007.910;   39.406;   -9.620;  646.640
1008.461;   40.269;  -13.630;  732.940
1009.013;   38.633;  -17.200;  588.340
1009.564;   39.295;  -10.200;  793.520
1010.115;   37.018;  -12.570;  597.040
1010.665;   37.367;  -15.150;  602.160
1011.216;   36.482;  -14.480;  667.920
1011.767;   36.683;  -11.340;  697.920
1012.318;   36.330;   -9.780;  736.980
1012.869;   35.255;  -12.380;  679.000
1013.419;   35.201;  -15.560;  603.120
1013.970;   34.741;  -11.010;  666.640
1014.521;   34.642;  -11.610;  620.620
1015.071;   35.545;  -13.450;  670.380
1015.622;   34.783;  -13.870;  635.460
1016.172;   33.442;  -11.610;  596.820
1016.723;   33.373;  -12.120;  614.380
1017.273;   33.692;  -13.620;  604.160
1017.823;   33.584;  -14.140;  650.340
1018.374;   32.533;  -12.800;  611.760
1018.924;   32.720;  -12.340;  716.880
1019.474;   32.860;  -11.410;  718.880
1020.024;   31.838;  -14.770;  657.580
1020.574;   32.774;   -9.780;  726.160
1021.124;   33.076;   -8.560;  673.580
1021.674;   31.149;  -15.190;  559.120
1022.224;   32.467;  -13.530;  708.940
1022.774;   31.670;  -13.280;  668.820
1023.324;   31.979;  -10.690;  753.520
1023.874;   33.549;  -10.240;  875.760
1024.423;   30.473;  -12.540;  613.700
1024.973;   30.069;  -10.010;  610.760
1025.523;   29.404;  -10.550;  620.960
1026.072;   29.853;  -13.560;  606.420
1026.622;   29.895;  -15.120;  675.740
1027.172;   29.946;  -11.260;  715.660
1027.721;   28.516;  -11.410;  601.220
1028.270;   29.642;  -13.530;  663.400
1028.820;   29.532;  -13.680;  638.080
1029.369;   29.257;  -13.520;  612.700
1029.918;   28.862;  -10.980;  649.840
1030.468;   28.896;  -13.530;  564.780
1031.017;   28.654;  -13.170;  634.800
1031.566;   27.454;  -12.200;  608.900
1032.115;   28.139;   -9.960;  694.500
1032.664;   27.888;  -13.210;  596.480
1033.213;   28.116;  -12.500;  735.420
1033.762;   27.251;  -11.910;  635.620
1034.311;   27.015;   -9.640;  677.220
1034.860;   27.298;  -13.310;  691.000
1035.408;   27.296;  -11.830;  722.720
1035.957;   27.780;  -12.000;  719.540
1036.506;   25.329;  -11.690;  530.800
1037.055;   27.980;  -10.990;  844.320
1037.603;   26.123;  -15.120;  664.000
1038.152;   24.548;  -12.450;  534.760
1038.700;   25.420;  -10.560;  585.740
1039.249;   25.426;  -11.080;  681.220
1039.797;   25.621;  -12.540;  633.360
1040.345;   24.773;  -11.920;  705.420
1040.894;   25.114;  -11.410;  625.300
1041.442;   25.237;  -14.320;  632.200
1041.990;   23.914;  -16.240;  559.160
1042.538;   23.506;  -11.680;  536.180
1043.087;   22.975;  -10.760;  570.860
1043.635;   24.508;  -11.850;  670.500
1044.183;   23.309;  -15.480;  586.400
1044.731;   22.834;  -11.770;  576.000
1045.279;   23.668;  -13.090;  674.920
1045.827;   25.006;  -12.440;  892.400
1046.374;   22.841;  -13.840;  515.420
1046.922;   21.278;  -13.220;  590.580
1047.470;   23.369;  -10.230;  691.300
1048.018;   23.087;  -14.590;  647.960
1048.565;   23.589;  -12.050;  708.600
1049.113;   21.704;  -11.650;  557.000
1049.660;   21.457;  -10.510;  629.660
1050.208;   22.443;  -13.310;  675.640
1050.755;   21.024;  -15.900;  606.580
1051.303;   21.905;  -11.430;  686.820
1051.850;   20.747;   -8.480;  635.120
1052.397;   20.349;  -15.010;  473.960
1052.945;   21.354;  -13.960;  617.760
1053.492;   22.132;  -13.150;  741.840
1054.039;   22.035;   -9.630;  720.180
1054.586;   20.522;  -13.680;  557.240
1055.133;   20.834;  -14.570;  693.140
1055.680;   20.658;  -13.820;  646.620
1056.227;   19.869;  -11.730;  542.780
1056.774;   21.433;  -12.480;  794.980
1057.321;   19.328;  -13.930;  523.260
1057.868;   19.969;  -11.690;  651.320
1058.415;   20.071;   -9.520;  651.980
1058.961;   20.084;  -13.160;  678.940
1059.508;   19.841;  -12.920;  643.820
1060.055;   18.666;  -11.920;  581.780
1060.601;   19.525;  -11.500;  624.300
1061.148;   19.495;  -14.330;  616.820
1061.694;   18.584;  -16.870;  592.580
1062.241;   18.728;  -10.330;  596.320
1062.787;   19.722;  -10.620;  663.140
1063.334;   20.574;  -10.110;  808.560
1063.880;   18.944;  -13.400;  668.360
1064.426;   18.275;  -10.680;  706.820
1064.972;   17.663;   -9.920;  601.340
1065.518;   17.329;  -10.980;  566.640
1066.065;   18.264;  -14.890;  624.460
1066.611;   17.580;  -12.870;  598.800
1067.157;   18.662;  -12.950;  641.860
1067.703;   17.699;  -13.540;  668.480
1068.249;   17.151;  -13.540;  605.220
1068.794;   17.221;  -12.600;  626.880
1069.340;   16.448;  -10.620;  578.960
1069.886;   17.178;  -12.830;  590.700
1070.432;   16.126;  -14.870;  541.720
1070.977;   16.034;  -11.980;  601.080
1071.523;   16.586;   -8.200;  573.060
1072.068;   16.645;  -12.330;  582.000
1072.614;   16.133;  -16.370;  527.760
1073.160;   16.332;  -11.100;  687.040
1073.705;   15.272;  -10.480;  572.520
1074.250;   15.541;  -14.520;  559.900
1074.796;   16.145;  -11.460;  655.160
1075.341;   15.574;  -11.950;  664.100
1075.886;   15.528;  -11.460;  594.240
1076.431;   15.341;  -13.770;  649.880
1076.976;   14.831;  -12.680;  639.220
1077.521;   14.477;  -13.170;  583.080
1078.067;   13.597;  -10.860;  579.400
1078.612;   15.693;  -13.920;  661.620
1079.156;   15.717;  -13.880;  601.540
1079.701;   15.081;  -13.120;  693.260
1080.246;   15.743;   -9.940;  696.300
1080.791;   14.907;  -14.740;  625.020
1081.336;   14.491;  -13.750;  659.320
1081.880;   13.515;  -13.400;  649.680
1082.425;   13.787;  -12.220;  573.480
1082.970;   15.016;  -11.610;  717.040
1083.514;   14.204;  -13.580;  597.000
1084.059;   12.867;  -12.810;  586.720
1084.603;   12.681;  -12.320;  565.840
1085.147;   13.520;  -13.190;  645.220
1085.692;   14.625;  -12.480;  716.800
1086.236;   12.854;  -13.020;  503.140
1086.780;   14.523;   -9.190;  751.440
1087.325;   14.008;  -12.480;  654.620
1087.869;   12.997;  -12.450;  610.700
1088.413;   13.652;  -12.240;  705.040
1088.957;   11.073;   -9.020;  543.400
1089.501;   13.821;  -10.320;  766.640
1090.045;   12.394;  -12.720;  726.480
1090.589;   11.380;  -13.690;  569.920
1091.133;   11.988;  -10.020;  673.340
1091.676;   13.200;  -12.330;  591.940
1092.220;   11.456;  -14.970;  600.920
1092.764;   13.256;  -12.430;  706.960
1093.307;   12.200;   -9.800;  673.780
1093.851;   11.122;  -14.970;  556.540
1094.395;   11.656;  -15.310;  683.140
1094.938;   10.885;  -10.370;  632.520
1095.482;   11.289;  -11.050;  559.800
1096.025;   12.546;  -11.840;  710.880
1096.568;   11.993;  -12.840;  779.280
1097.112;    9.872;  -14.700;  508.180
1097.655;   11.504;   -8.720;  603.000
1098.198;   10.303;  -13.610;  600.180
1098.741;   10.023;  -13.350;  612.860
1099.285;   10.795;  -11.230;  657.300
1099.828;    8.511;  -11.840;  439.400
1100.371;   10.471;  -10.840;  608.160
1100.914;   10.545;  -14.190;  682.660
1101.457;   10.382;  -11.240;  679.900
1101.999;    8.682;  -11.270;  584.680
1102.542;    9.815;  -11.480;  641.440
1103.085;   10.331;  -11.750;  658.500
1103.628;   10.174;  -11.400;  762.060
1104.170;    9.172;  -10.490;  588.280
1104.713;    9.690;  -10.600;  646.700
1105.256;    8.862;  -14.360;  557.440
1105.798;    8.390;  -13.210;  499.980
1106.341;   10.090;  -10.270;  728.900
1106.883;    9.699;  -12.200;  521.340
1107.425;    9.469;  -13.110;  668.180
1107.968;    7.880;  -12.840;  612.380
1108.510;    9.120;   -6.480;  684.960
1109.052;    7.647;  -13.940;  612.620
1109.594;    8.354;  -13.690;  554.440
1110.136;    8.738;  -11.880;  643.220
1110.679;    8.681;   -9.500;  633.080
1111.221;    8.925;  -14.160;  604.460
1111.763;    7.244;  -13.980;  559.220
1112.304;    6.906;  -13.880;  547.140
1112.846;    7.658;  -12.210;  666.240
1113.388;   10.765;  -11.390;  942.180
1113.930;    7.795;  -14.540;  694.200
1114.472;    7.394;  -12.640;  606.540
1115.013;    5.741;  -11.620;  551.280
1115.555;    7.264;  -13.640;  587.100
1116.097;    5.789;  -15.380;  579.480
1116.638;    7.577;  -12.640;  684.600
1117.180;    6.870;   -9.850;  667.740
1117.721;    6.930;  -13.690;  568.580
1118.262;    7.412;  -12.680;  677.960
1118.804;    7.387;  -12.530;  637.340
1119.345;    6.735;  -11.690;  578.400
1119.886;    6.892;  -13.380;  704.040
1120.427;    6.225;  -14.070;  589.020
1120.969;    4.750;  -13.500;  597.920
1121.510;    4.898;  -11.480;  563.060
1122.051;    6.532;  -12.830;  723.580
1122.592;    5.650;  -14.290;  655.420
1123.133;    4.577;  -12.400;  547.940
1123.673;    6.034;  -10.130;  706.480
1124.214;    5.299;  -12.930;  612.460
1124.755;    6.225;  -14.380;  639.460
1125.296;    5.817;  -14.000;  627.320
1125.836;    6.101;  -10.070;  691.500
1126.377;    5.412;  -12.640;  599.660
1126.918;    5.542;  -12.960;  614.980
1127.458;    4.465;  -13.350;  622.220
1127.999;    5.047;  -10.750;  656.980
1128.539;    6.576;  -12.350;  694.240
1129.079;    5.280;  -14.860;  632.720
1129.620;    3.905;  -13.840;  558.100
1130.160;    4.097;  -12.330;  539.480
1130.700;    4.771;  -14.530;  640.840
1131.240;    5.177;  -12.530;  643.700
1131.781;    3.590;  -14.450;  619.680
1132.321;    4.482;   -9.790;  599.120
1132.861;    3.827;  -14.860;  564.200
1133.401;    3.196;  -14.290;  593.940
1133.941;    4.407;  -11.750;  626.280
1134.481;    3.226;   -9.920;  597.580
1135.020;    3.897;  -12.290;  609.160
1135.560;    4.212;  -11.650;  674.940
1136.100;    2.777;  -16.270;  501.160
1136.640;    2.994;  -10.890;  510.480
1137.179;    3.935;  -14.180;  537.960
1137.719;    3.834;  -16.250;  605.400
1138.258;    3.281;  -14.230;  587.360
1138.798;    3.813;   -9.090;  663.780
1139.337;    2.188;  -15.130;  482.840
1139.877;    3.147;  -13.680;  642.360
1140.416;    4.858;  -11.320;  878.060
1140.955;    2.351;  -10.860;  535.380
1141.494;    3.618;  -12.920;  669.280
1142.034;    2.347;  -13.930;  583.520
1142.573;    2.953;  -11.440;  646.280
1143.112;    2.262;  -12.000;  553.480
1143.651;    3.051;  -13.670;  536.480
1144.190;    3.021;  -12.730;  691.640
1144.729;    1.916;  -14.560;  607.420
1145.267;    1.688;  -11.830;  584.900
1145.806;    3.647;  -12.230;  637.040
1146.345;    2.287;  -14.130;  635.020
1146.884;    1.891;  -11.590;  622.500
1147.422;    1.409;  -12.550;  533.060
1147.961;    3.705;  -11.180;  708.460
1148.500;    2.605;  -11.510;  669.720
1149.038;    2.257;  -11.640;  632.500
1149.577;    2.493;  -10.130;  698.640
1150.115;    0.231;  -13.970;  452.280
1150.653;    2.306;  -14.520;  607.340
1151.192;    1.084;  -12.810;  552.920
1151.730;    1.578;   -9.100;  652.560
1152.268;    1.127;  -12.220;  589.520
1152.806;    1.007;  -14.140;  571.180
1153.344;    0.121;  -12.350;  577.640
1153.882;    1.149;   -8.980;  600.060
1154.421;    0.330;  -15.190;  470.620
1154.958;    0.080;  -15.210;  595.240
1155.496;    2.316;  -12.850;  645.280
1156.034;    0.930;   -9.940;  721.880
1156.572;    2.310;  -13.570;  667.060
1157.110;   -0.215;  -14.590;  473.940
1157.647;    1.428;  -13.030;  676.960
1158.185;   -0.017;  -12.140;  564.320
1158.723;   -0.073;  -14.390;  509.200
1159.260;    1.192;  -14.090;  701.700
1159.798;    0.750;  -11.920;  658.160
1160.335;    0.224;  -11.110;  631.820

