
Integration time [ms]:   3.276
Averaging Nr. [scans]: 1000
Smoothing Nr. [pixels]: 0
Data measured with spectrometer [name]: 7414430SP
Wave   ;Sample   ;Dark     ;Reference
[nm]   ;[counts] ;[counts] ;[counts] 

288.544;  149.484;    7.793;  793.890
289.143;  153.703;    7.462;  681.602
289.742;  154.583;    8.602;  828.814
290.341;  139.235;    1.321;  789.841
290.940;  128.890;   -0.709;  730.702
291.538;  129.675;    0.881;  881.108
292.137;  130.111;    0.122;  792.581
292.736;  135.270;   -1.929;  975.101
293.335;  130.626;   -8.229;  735.086
293.934;  131.785;   -5.279;  781.677
294.532;  129.711;   -1.369; 1031.958
295.131;  115.766;   -7.641;  834.394
295.730;  115.545;   -8.420;  809.588
296.328;  115.049;   -5.611;  783.442
296.927;  114.951;   -5.781;  779.652
297.525;  115.977;   -6.361;  781.236
298.124;  107.019;  -11.382;  654.009
298.722;  111.646;   -7.641;  761.933
299.321;  108.722;   -6.811;  708.597
299.919;  106.955;   -6.991;  751.918
300.518;  103.607;  -10.362;  689.338
301.116;  105.072;   -9.581;  691.381
301.715;  105.864;   -4.891;  730.222
302.313;  102.755;   -8.801;  704.943
302.911;   99.523;   -8.522;  733.830
303.509;  104.729;   -6.171;  925.627
304.108;  102.495;   -7.311;  760.383
304.706;  101.842;   -8.321;  801.664
305.304;   96.151;  -10.222;  796.707
305.902;  102.230;   -6.021;  784.484
306.500;   96.589;   -4.971;  728.200
307.098;   95.755;   -7.061;  746.560
307.696;   93.407;   -8.801;  780.432
308.294;   93.632;   -6.411;  731.359
308.892;   96.232;   -2.901;  759.769
309.490;   92.471;   -5.041;  712.161
310.088;   90.488;   -5.002;  788.444
310.686;   94.976;   -2.041;  821.749
311.284;   90.373;   -2.351;  766.040
311.882;   87.588;   -4.422;  731.225
312.480;   84.867;   -4.192;  697.167
313.078;   86.319;   -1.172;  808.331
313.675;   87.610;   -2.601;  691.600
314.273;   82.806;   -1.312;  797.837
314.871;   81.894;   -3.942;  589.829
315.468;   80.118;   -2.802;  652.090
316.066;   82.482;   -0.701;  694.427
316.664;   75.141;   -4.362;  656.351
317.261;   80.289;   -2.872;  910.128
317.859;   74.669;   -2.022;  768.735
318.456;   76.168;   -0.531;  830.096
319.054;   71.369;   -3.912;  787.828
319.651;   70.055;   -4.752;  759.928
320.249;   69.885;   -2.602;  810.188
320.846;   66.850;   -0.821;  714.286
321.443;   64.118;   -4.642;  832.135
322.041;   61.791;   -5.002;  812.315
322.638;   59.727;   -3.982;  701.456
323.235;   60.239;   -3.411;  665.683
323.833;   58.065;   -7.361;  740.354
324.430;   53.054;   -8.611;  615.900
325.027;   54.405;   -4.061;  876.855
325.624;   53.802;   -4.031;  644.532
326.221;   50.590;   -7.481;  689.717
326.818;   50.166;   -5.281;  818.332
327.415;   53.926;   -7.460;  748.828
328.012;   52.218;   -5.510;  690.585
328.609;   51.380;   -7.880;  731.389
329.206;   49.107;   -8.331;  778.621
329.803;   50.550;   -5.121;  737.841
330.400;   52.281;   -4.510;  704.260
330.997;   53.841;   -6.441;  817.147
331.594;   52.502;   -8.831;  788.185
332.191;   57.917;   -7.621;  728.722
332.787;   60.892;   -4.591;  844.463
333.384;   58.705;   -7.412;  763.093
333.981;   57.278;   -8.293;  815.687
334.578;   60.831;   -7.052;  708.378
335.174;   64.142;   -3.102;  731.469
335.771;   62.664;   -5.943;  836.456
336.367;   60.175;   -7.393;  710.631
336.964;   62.925;   -4.063;  793.266
337.561;   61.354;   -3.813;  731.112
338.157;   57.295;   -4.654;  911.916
338.754;   54.528;   -7.934;  796.589
339.350;   52.700;   -4.414;  722.493
339.946;   54.446;   -4.664;  773.135
340.543;   46.826;   -6.375;  846.136
341.139;   41.474;   -9.815;  720.836
341.735;   39.523;   -4.526;  772.593
342.332;   37.373;   -4.895;  691.472
342.928;   38.180;   -4.295;  795.394
343.524;   32.022;   -5.476;  761.684
344.120;   29.199;   -5.856;  738.562
344.716;   32.120;   -2.155;  723.717
345.313;   30.267;   -6.275;  795.342
345.909;   24.565;   -8.815;  627.336
346.505;   25.941;   -5.305;  740.247
347.101;   26.882;   -2.674;  827.864
347.697;   26.940;   -4.344;  785.398
348.293;   22.475;   -9.975;  627.244
348.889;   23.029;   -5.774;  745.914
349.485;   22.185;   -5.004;  688.205
350.081;   22.086;   -4.704;  772.592
350.676;   17.616;   -6.635;  691.606
351.272;   22.125;   -4.504;  809.530
351.868;   21.098;   -3.914;  780.497
352.464;   19.496;   -9.044;  723.932
353.059;   15.051;   -8.314;  646.017
353.655;   19.116;   -7.024;  777.063
354.251;   19.164;   -5.343;  759.845
354.846;   14.509;   -8.604;  740.646
355.442;   11.950;   -6.945;  753.071
356.038;   14.342;   -7.564;  751.708
356.633;   13.772;   -5.814;  728.594
357.229;   12.181;   -7.364;  724.757
357.824;   10.013;   -8.024;  703.600
358.420;    9.003;   -9.384;  679.726
359.015;    9.612;   -5.104;  695.357
359.610;   11.154;   -6.854;  763.920
360.206;    4.371;  -10.185;  603.240
360.801;    8.537;   -7.054;  646.503
361.396;   10.732;   -5.034;  725.975
361.992;    5.184;   -8.284;  668.220
362.587;    3.182;   -8.625;  670.160
363.182;    4.912;   -7.674;  689.631
363.777;    5.761;   -5.164;  738.242
364.372;    4.859;   -8.604;  737.314
364.967;    1.196;   -9.055;  680.744
365.563;    5.311;   -6.114;  815.567
366.158;    2.681;   -5.814;  685.161
366.753;    2.522;   -7.854;  649.263
367.348;    1.420;   -7.804;  746.056
367.942;    1.240;   -7.954;  697.298
368.537;   -0.166;   -4.984;  754.245
369.132;    0.862;   -8.564;  703.428
369.727;   -4.085;   -8.855;  638.079
370.322;   -2.381;   -6.245;  580.186
370.917;   -3.064;   -6.425;  710.646
371.511;    0.401;   -6.294;  861.834
372.106;   -3.361;   -7.685;  776.964
372.701;   -5.556;   -7.335;  585.988
373.296;   -0.780;   -4.564;  863.135
373.890;   -4.927;  -10.235;  647.840
374.485;   -7.846;   -7.885;  691.199
375.079;   -3.268;   -7.324;  738.685
375.674;   -1.431;   -3.494;  812.970
376.268;   -6.806;   -8.525;  691.759
376.863;  -12.081;  -10.086;  580.327
377.457;   -5.964;   -7.025;  662.490
378.052;   -7.676;   -3.585;  764.884
378.646;   -9.258;   -7.595;  741.167
379.240;   -9.017;   -8.335;  721.176
379.835;   -8.650;   -5.785;  636.978
380.429;  -10.170;   -4.335;  562.557
381.023;  -10.191;   -6.805;  779.205
381.617;  -12.855;   -9.195;  680.106
382.212;   -8.510;   -6.905;  685.303
382.806;   -8.335;   -3.745;  760.690
383.400;  -12.521;   -7.745;  672.281
383.994;  -13.445;   -9.765;  664.870
384.588;   -9.400;   -6.564;  697.701
385.182;   -7.456;   -5.344;  726.624
385.776;   -9.584;   -8.514;  706.875
386.370;  -13.017;   -9.555;  681.968
386.964;  -12.112;   -8.715;  684.155
387.558;   -9.628;   -6.174;  598.360
388.152;  -13.826;   -8.725;  681.959
388.745;  -11.884;   -7.965;  814.707
389.339;   -9.601;   -5.924;  747.642
389.933;   -8.052;   -5.524;  695.370
390.527;  -10.456;   -7.114;  859.029
391.120;  -17.071;  -10.725;  595.318
391.714;  -13.003;   -8.035;  711.633
392.308;  -10.599;   -3.574;  780.253
392.901;  -13.903;   -7.245;  642.460
393.495;  -16.295;   -9.285;  595.414
394.089;  -13.293;   -5.895;  760.452
394.682;  -14.636;   -4.295;  697.188
395.275;  -15.268;   -9.875;  719.927
395.869;  -16.434;   -8.485;  667.314
396.462;  -14.210;   -7.455;  616.609
397.056;  -10.553;   -5.424;  776.621
397.649;  -15.444;   -6.605;  731.575
398.242;  -12.638;   -8.224;  712.645
398.836;  -12.062;   -7.474;  766.408
399.429;  -12.815;   -7.094;  631.041
400.022;  -16.614;   -9.475;  665.902
400.615;  -14.125;   -7.145;  805.609
401.208;  -12.422;   -7.174;  691.451
401.802;  -14.009;   -5.515;  699.329
402.395;  -16.044;   -9.875;  683.502
402.988;  -16.662;   -8.845;  696.627
403.581;  -13.838;   -8.874;  646.878
404.174;  -10.687;   -5.324;  686.568
404.767;  -13.959;   -9.575;  638.583
405.360;  -16.821;  -10.965;  621.445
405.953;  -10.960;   -8.764;  759.034
406.545;  -10.437;   -7.514;  725.342
407.138;  -14.884;  -10.025;  618.350
407.731;  -13.401;  -10.034;  613.303
408.324;   -9.088;   -9.374;  660.554
408.917;  -10.523;   -6.534;  681.864
409.509;  -12.329;   -8.004;  740.396
410.102;  -14.686;   -9.875;  643.948
410.695;   -8.034;   -8.604;  665.758
411.287;   -9.319;   -6.794;  599.821
411.880;  -10.100;   -9.334;  585.421
412.472;  -14.311;  -10.254;  613.092
413.065;  -11.447;   -6.714;  629.408
413.657;   -8.796;   -7.234;  576.678
414.250;   -8.825;  -10.544;  646.681
414.842;  -10.295;   -9.744;  676.353
415.434;   -7.651;   -6.994;  570.463
416.027;   -4.123;   -5.893;  652.196
416.619;   -5.560;   -7.264;  713.400
417.211;   -7.334;  -10.374;  599.352
417.804;   -3.210;   -7.993;  628.499
418.396;   -7.112;   -7.234;  607.643
418.988;   -4.840;   -9.443;  659.238
419.580;   -7.862;  -10.724;  568.276
420.172;   -6.080;  -10.323;  536.196
420.764;   -2.304;   -8.793;  672.482
421.356;   -3.262;  -11.143;  636.898
421.948;   -3.811;   -8.293;  677.661
422.540;    1.878;   -7.893;  680.027
423.132;   -0.121;   -7.082;  600.641
423.724;   -3.041;   -8.653;  561.267
424.316;   -0.317;  -10.213;  621.345
424.908;    2.073;   -9.762;  591.517
425.500;    3.077;   -5.572;  647.978
426.092;    3.462;   -8.422;  648.268
426.683;    2.481;   -9.283;  684.836
427.275;    6.130;   -7.852;  641.471
427.867;    7.134;   -5.272;  668.948
428.458;    7.364;   -7.682;  732.344
429.050;    6.202;  -10.612;  680.749
429.642;    8.306;   -9.882;  743.124
430.233;    8.800;   -6.962;  569.356
430.825;   10.047;   -6.842;  724.809
431.416;    6.930;   -9.672;  698.241
432.008;   10.660;   -6.552;  651.723
432.599;   11.560;   -6.891;  656.073
433.190;    8.403;  -10.912;  637.670
433.782;    7.295;  -11.172;  590.395
434.373;   14.754;   -6.061;  884.765
434.964;   13.543;   -8.251;  602.920
435.556;   12.091;   -9.722;  634.537
436.147;   14.480;   -9.082;  758.490
436.738;   14.564;   -8.041;  701.099
437.329;   20.316;   -7.341;  721.723
437.920;   12.794;   -8.162;  666.688
438.511;   12.795;  -11.802;  564.526
439.103;   19.424;  -10.191;  623.998
439.694;   20.946;   -7.601;  681.583
440.285;   21.940;   -8.541;  764.432
440.876;   19.342;   -9.751;  845.738
441.466;   19.427;   -9.401;  575.162
442.057;   24.464;   -7.760;  665.814
442.648;   23.481;   -9.971;  746.255
443.239;   21.647;  -11.001;  620.477
443.830;   26.175;   -7.990;  704.958
444.421;   28.380;   -7.910;  655.474
445.011;   24.457;   -8.131;  693.619
445.602;   24.565;   -7.111;  743.126
446.193;   26.262;  -10.920;  488.117
446.783;   30.686;   -6.500;  640.397
447.374;   25.637;   -8.671;  692.759
447.964;   27.600;  -10.781;  713.770
448.555;   34.964;   -9.650;  822.742
449.145;   31.975;   -8.660;  662.853
449.736;   32.609;   -8.990;  803.179
450.326;   32.420;   -9.500;  713.626
450.917;   37.105;   -8.680;  675.324
451.507;   36.203;   -7.520;  600.661
452.097;   37.111;   -8.590;  746.267
452.688;   38.423;  -11.340;  742.160
453.278;   38.585;  -10.100;  566.840
453.868;   42.374;   -6.019;  793.550
454.458;   40.343;   -9.440;  651.141
455.048;   39.977;  -10.560;  711.783
455.639;   41.980;  -11.799;  567.096
456.229;   45.144;   -6.899;  710.694
456.819;   47.890;   -7.389;  751.158
457.409;   47.826;  -11.119;  773.993
457.999;   50.388;   -9.289;  737.505
458.589;   50.757;   -6.139;  686.606
459.179;   49.762;   -8.729;  717.658
459.769;   48.142;   -9.789;  627.099
460.358;   53.399;  -10.259;  797.262
460.948;   53.040;   -7.299;  689.503
461.538;   54.233;  -10.289;  660.677
462.128;   52.411;  -11.269;  664.934
462.717;   59.500;   -9.368;  710.326
463.307;   61.828;   -7.908;  705.846
463.897;   58.386;   -9.599;  656.942
464.486;   56.594;   -9.769;  837.128
465.076;   62.298;   -8.048;  733.776
465.666;   65.376;   -9.358;  652.900
466.255;   63.180;   -7.919;  785.651
466.845;   61.654;  -11.689;  666.749
467.434;   65.386;   -7.818;  725.873
468.023;   65.897;   -7.678;  658.357
468.613;   63.562;  -10.939;  713.946
469.202;   67.585;  -10.118;  646.507
469.791;   72.609;   -9.108;  737.811
470.381;   73.188;   -6.058;  742.813
470.970;   73.936;  -10.428;  711.099
471.559;   73.791;  -10.268;  733.291
472.148;   76.772;   -8.448;  675.737
472.738;   78.335;   -6.917;  765.466
473.327;   78.700;  -11.978;  637.529
473.916;   77.845;  -11.888;  737.446
474.505;   82.928;   -9.437;  751.703
475.094;   86.091;   -6.747;  806.570
475.683;   84.559;   -9.367;  797.699
476.272;   86.055;  -12.637;  730.632
476.861;   88.709;  -10.027;  706.754
477.449;   95.152;   -8.716;  728.487
478.038;   89.437;   -9.577;  692.513
478.627;   90.396;   -9.718;  714.852
479.216;   96.592;   -8.947;  769.441
479.805;  100.038;   -6.256;  783.375
480.393;  100.277;   -7.937; 1008.945
480.982;   97.972;   -7.717;  874.501
481.571;  105.372;   -9.266;  858.333
482.159;  105.667;   -7.636;  705.386
482.748;  105.907;   -9.667;  821.385
483.336;  109.038;  -10.376;  858.209
483.925;  110.832;   -7.147;  774.373
484.513;  116.923;   -7.996;  758.962
485.102;  113.557;  -10.027;  810.965
485.690;  121.904;  -10.446; 1011.050
486.278;  124.457;   -8.446;  979.329
486.867;  125.315;   -6.356;  809.662
487.455;  126.871;   -9.136;  898.229
488.043;  127.232;  -10.646;  748.361
488.631;  136.913;   -7.456; 1005.079
489.220;  140.895;   -6.636;  908.626
489.808;  141.005;  -11.036;  741.415
490.396;  148.003;  -10.246;  914.645
490.984;  154.434;   -8.556;  830.161
491.572;  163.903;   -5.886;  940.315
492.160;  169.877;   -9.486;  919.081
492.748;  180.944;  -10.976;  884.341
493.336;  203.363;   -8.776; 1019.693
493.924;  228.243;   -5.465;  958.077
494.512;  255.953;   -9.986; 1066.638
495.100;  291.210;  -10.636; 1103.280
495.687;  345.645;  -10.885; 1206.373
496.275;  407.064;   -8.126; 1150.796
496.863;  473.524;  -10.586; 1281.171
497.451;  569.454;  -11.926; 1386.805
498.038;  702.449;  -10.885; 1556.729
498.626;  806.059;   -6.315; 1741.407
499.214;  951.608;   -7.326; 2016.609
499.801; 1151.159;  -11.906; 2220.633
500.389; 1379.515;  -10.466; 2312.494
500.976; 1668.693;   -5.236; 2744.849
501.564; 2092.034;   -8.936; 3148.565
502.151; 2452.731;  -13.176; 3515.999
502.738; 2867.936;  -10.646; 3971.274
503.326; 3248.187;   -9.525; 4403.796
503.913; 3639.345;  -10.856; 5161.749
504.500; 4010.096;  -11.586; 5986.420
505.088; 4368.103;  -10.336; 6381.201
505.675; 4919.189;   -6.355; 6925.547
506.262; 5577.485;   -9.046; 7619.060
506.849; 6257.487;  -10.416; 8733.969
507.436; 6776.724;  -10.305; 9790.121
508.023; 7371.567;   -5.496; 9985.472
508.610; 7599.774;   -7.856;10434.618
509.197; 8162.258;  -10.097;11198.435
509.784; 9500.598;  -10.886;12391.194
510.371;10600.181;   -9.315;13603.713
510.958;11252.763;   -9.936;14426.586
511.545;11908.733;   -9.326;15243.775
512.132;12831.460;  -10.075;15945.876
512.719;13434.912;   -7.796;16340.369
513.305;14515.626;  -10.606;18011.766
513.892;15180.221;  -11.486;19754.971
514.479;16336.433;   -9.126;20967.805
515.066;17767.881;   -6.026;22299.793
515.652;19293.572;   -8.466;22908.660
516.239;20591.746;  -10.886;23798.875
516.825;21479.410;  -11.496;25567.275
517.412;22604.414;   -5.796;28154.959
517.998;23337.813;  -10.506;28344.111
518.585;23179.807;  -10.076;27134.219
519.171;23688.936;   -8.315;27268.576
519.758;25646.125;   -8.596;28964.129
520.344;27677.184;   -8.466;30664.494
520.930;27311.428;  -11.006;32550.605
521.516;28493.109;  -10.495;35422.895
522.103;30333.596;   -5.526;38280.004
522.689;31027.402;   -8.746;37835.117
523.275;30459.465;  -11.376;37288.613
523.861;31725.299;  -11.156;37281.395
524.447;33532.277;   -8.135;37846.949
525.033;33402.625;   -7.896;38321.949
525.619;33516.285;  -12.476;38579.285
526.205;34911.246;   -9.516;40622.875
526.791;37715.129;   -6.926;42258.836
527.377;37591.668;   -8.346;42966.902
527.963;38657.227;   -8.717;42018.949
528.549;37777.133;  -11.016;42476.828
529.135;36693.719;   -8.536;41854.852
529.721;35881.684;   -9.666;41237.711
530.306;35382.871;  -10.066;41259.445
530.892;34922.918;  -11.356;41506.047
531.478;35962.852;   -6.596;43559.613
532.063;39351.637;   -8.836;47695.563
532.649;40319.680;  -10.047;50808.324
533.235;40983.434;   -9.746;51787.500
533.820;41377.410;   -6.566;52145.035
534.406;42555.906;  -10.817;51133.488
534.991;42573.965;   -9.416;49996.805
535.576;40942.387;   -9.036;48882.852
536.162;41601.824;   -6.156;46942.285
536.747;42936.113;  -11.607;45711.746
537.333;45993.934;  -11.787;48510.180
537.918;48471.492;  -12.437;50439.891
538.503;47580.410;   -7.196;50863.711
539.088;44612.969;  -10.556;50906.922
539.673;44968.238;   -8.767;52621.965
540.259;45277.012;  -10.026;52368.094
540.844;42754.117;   -7.416;50879.109
541.429;44459.559;   -9.467;52077.777
542.014;46696.246;   -9.527;52716.695
542.599;45743.809;   -9.946;52363.281
543.184;42736.457;   -7.927;53187.137
543.769;44024.008;   -9.297;54697.605
544.354;44017.766;  -10.127;53913.914
544.938;42479.383;   -9.267;49680.164
545.523;44131.969;   -6.506;47386.277
546.108;46905.438;   -9.787;49151.949
546.693;49041.910;  -11.587;51384.637
547.278;49198.020;  -10.986;51853.254
547.862;46164.836;   -8.206;51173.750
548.447;41669.359;  -10.067;51691.395
549.031;40829.555;   -9.637;52456.703
549.616;45530.383;   -9.926;52714.516
550.201;45213.617;   -6.347;52414.598
550.785;46657.238;   -7.917;52355.059
551.370;45997.039;  -10.867;54589.453
551.954;45689.055;   -9.047;58267.348
552.538;46300.090;   -7.827;59062.176
553.123;44644.145;  -10.287;58115.285
553.707;42719.102;  -12.178;56556.285
554.291;44218.746;   -8.717;56201.668
554.876;47014.355;   -7.457;55335.762
555.460;47340.020;  -10.387;54155.703
556.044;47648.922;   -9.618;53721.484
556.628;45402.188;  -11.567;53731.016
557.212;44044.867;   -8.097;54312.531
557.796;42991.926;  -11.077;53797.773
558.380;43201.148;  -11.108;56145.984
558.964;43282.145;   -9.057;57277.930
559.548;43779.852;   -6.977;56459.641
560.132;41996.484;  -11.457;54434.543
560.716;40730.371;  -11.378;54800.617
561.300;42095.332;   -9.577;57606.945
561.884;43068.574;   -7.127;58972.445
562.467;41169.590;   -7.118;57327.570
563.051;40340.059;  -13.358;54962.434
563.635;41716.469;  -10.178;52594.473
564.219;42608.707;   -7.837;50610.410
564.802;43345.922;  -11.398;49551.180
565.386;42876.039;  -12.788;48370.953
565.969;42254.719;   -9.077;48178.871
566.553;41227.465;   -6.207;49957.305
567.136;42094.520;   -8.568;50369.594
567.720;38870.461;  -11.868;49492.004
568.303;36840.539;   -8.268;50616.352
568.887;36833.871;   -8.698;50727.148
569.470;37385.250;   -6.808;51698.379
570.053;36564.816;  -13.188;52122.078
570.637;34040.973;  -12.037;52536.438
571.220;33518.664;   -8.577;51186.098
571.803;34470.809;   -8.498;51032.762
572.386;36982.074;  -10.498;49609.887
572.969;39354.973;   -9.388;48285.926
573.552;37536.152;   -8.338;47624.285
574.135;35846.359;   -8.518;45498.641
574.718;33408.453;  -13.628;41970.434
575.301;32818.496;  -10.893;41447.137
575.884;32228.535;   -8.158;40923.836
576.467;33442.145;  -10.328;45267.723
577.050;35054.406;  -13.058;48175.543
577.633;35863.574;   -9.458;47729.328
578.216;34940.102;   -8.928;47579.793
578.799;33987.285;   -9.358;47820.996
579.381;32823.508;  -11.388;48115.551
579.964;30831.174;  -11.718;47333.766
580.547;32514.900;   -8.588;46668.969
581.129;33534.512;   -8.859;44466.141
581.712;34546.918;  -10.729;44164.922
582.294;35027.211;  -11.118;46477.855
582.877;35041.324;   -5.218;48244.254
583.459;33265.316;   -8.679;47437.895
584.042;31154.789;  -10.709;46943.219
584.624;30994.732;  -11.669;46792.227
585.206;30394.242;   -8.218;46557.250
585.789;30066.920;  -10.569;45793.773
586.371;30697.758;  -11.859;43836.391
586.953;28925.691;  -10.719;42972.492
587.536;27917.789;   -7.198;42487.211
588.118;29310.051;   -8.720;42086.414
588.700;29462.287;  -10.439;43389.930
589.282;31051.400;   -9.198;43646.039
589.864;33119.938;   -9.199;43438.109
590.446;34339.613;  -11.319;43151.926
591.028;34002.027;  -11.159;42781.867
591.610;32826.590;  -11.779;42839.098
592.192;30310.477;   -7.668;42820.402
592.774;29103.932;  -11.949;40724.277
593.356;28057.957;  -12.129;39874.789
593.937;27120.080;  -10.669;39980.648
594.519;29360.637;   -6.509;42069.633
595.101;31447.441;  -10.849;42976.031
595.683;31466.346;  -11.679;44084.441
596.264;32421.883;   -9.049;43478.797
596.846;32290.213;   -8.849;43803.672
597.427;32052.699;   -9.570;42986.934
598.009;33162.828;  -12.620;42832.219
598.591;33348.914;  -10.039;42580.086
599.172;32846.438;  -10.369;43061.805
599.753;32739.916;   -9.140;41691.469
600.335;33900.980;  -11.430;40692.520
600.916;32277.813;   -9.939;39982.422
601.498;30403.441;   -8.479;40318.617
602.079;28982.900;  -10.920;40670.609
602.660;28834.570;  -11.480;41450.898
603.241;30583.686;  -11.699;41137.738
603.823;29373.539;   -9.579;38868.797
604.404;28692.682;  -10.620;38182.785
604.985;30212.480;  -10.450;38078.047
605.566;30123.027;   -9.129;38056.633
606.147;30151.955;   -7.510;37020.418
606.728;31654.965;  -10.660;37883.359
607.309;30487.943;  -11.740;38748.273
607.890;30398.385;   -9.759;38850.230
608.471;29968.125;   -8.250;37457.918
609.051;29055.260;   -9.240;36066.457
609.632;27707.924;  -12.120;35991.074
610.213;28093.891;   -9.110;37402.641
610.794;28961.965;   -8.030;38383.363
611.374;28948.256;   -8.110;40562.387
611.955;29649.719;  -13.560;38533.727
612.536;30810.141;  -11.400;36951.789
613.116;30425.805;   -8.070;37197.891
613.697;30604.209;  -10.830;38411.125
614.277;29157.711;  -11.641;38673.938
614.858;30181.855;  -13.310;37075.863
615.438;29643.504;   -7.460;35092.906
616.019;27241.305;   -7.601;33666.301
616.599;27384.770;  -12.020;34189.023
617.179;28974.045;  -11.780;36952.047
617.760;30223.938;   -8.570;39582.574
618.340;30966.096;  -11.471;38943.977
618.920;31771.041;  -11.170;37594.156
619.500;31993.307;  -11.071;37866.938
620.080;31320.896;   -7.750;37869.043
620.660;32373.787;  -12.711;36868.617
621.241;34010.262;  -10.211;36352.309
621.821;34400.688;  -10.961;35459.520
622.401;33064.367;   -7.720;35207.414
622.980;31928.236;   -8.981;35980.422
623.560;30603.207;   -9.331;37351.328
624.140;29382.396;   -9.850;34388.582
624.720;24536.008;   -7.451;32368.764
625.300;21109.246;   -9.070;32638.629
625.880;24496.381;  -12.601;34599.035
626.459;28752.508;  -11.751;36831.738
627.039;31663.109;   -9.281;38299.098
627.619;31481.701;   -8.801;38289.574
628.198;29800.184;  -12.071;37220.695
628.778;28756.488;   -9.461;37632.563
629.357;29485.943;   -8.491;38003.012
629.937;29809.584;   -9.721;38402.039
630.516;29239.840;   -9.951;37868.801
631.096;28766.721;  -11.731;35760.410
631.675;31271.277;   -8.572;35225.219
632.254;36554.805;  -11.282;35130.289
632.834;36208.582;  -13.322;35794.570
633.413;34447.887;  -10.301;35788.922
633.992;31652.363;   -8.582;34532.863
634.571;31970.842;   -8.352;33590.113
635.151;34532.676;  -11.912;34943.863
635.730;33200.313;  -10.511;35352.523
636.309;30292.645;   -7.731;35366.605
636.888;27873.949;   -9.952;36165.637
637.467;28433.490;  -11.672;37515.902
638.046;29744.633;   -8.901;39288.695
638.625;32415.916;   -7.912;38279.699
639.204;32415.576;  -10.022;37741.598
639.782;31638.234;  -12.252;38364.551
640.361;27774.303;  -10.041;36740.621
640.940;25055.611;  -11.161;34950.082
641.519;25780.467;   -9.701;34137.398
642.097;28683.211;  -11.271;35654.258
642.676;31481.434;   -8.651;35637.957
643.255;32485.717;   -8.711;36567.074
643.833;31790.623;   -9.581;37809.434
644.412;31978.145;  -13.711;37337.293
644.990;31085.586;  -11.811;37018.531
645.569;30986.150;   -9.411;36518.469
646.147;30346.400;  -10.291;36186.430
646.726;30294.031;  -12.401;36267.688
647.304;31167.533;  -10.411;36647.625
647.882;32548.736;   -9.651;39286.742
648.461;34227.574;   -9.631;39157.703
649.039;32506.170;  -11.881;35412.883
649.617;31573.383;   -9.661;34744.918
650.195;30861.926;   -9.301;35403.098
650.773;29436.541;  -10.511;35053.797
651.352;27325.971;  -11.521;33756.816
651.930;25121.793;  -12.211;31868.773
652.508;23416.898;   -9.171;33121.551
653.086;27119.504;   -9.371;33564.793
653.663;30108.469;  -13.161;34054.668
654.241;28975.371;  -13.031;35693.309
654.819;30364.904;   -9.371;36422.906
655.397;30289.037;  -10.511;38213.484
655.975;29909.008;  -10.371;39507.625
656.553;29458.105;  -10.051;39498.223
657.130;27966.031;  -10.061;40395.480
657.708;27360.482;   -9.561;39242.020
658.286;27550.273;  -11.511;38920.020
658.863;28626.508;  -10.261;40202.898
659.441;31828.984;   -7.531;39677.938
660.018;31825.117;   -9.501;40413.355
660.596;30376.734;  -13.301;39931.414
661.173;32017.188;  -11.211;39604.531
661.750;32547.359;   -9.951;39700.070
662.328;31657.932;   -9.390;39292.809
662.905;30691.016;  -11.330;38235.648
663.482;26352.420;   -9.050;36212.305
664.060;24547.459;   -8.240;35944.945
664.637;27387.998;  -10.050;35170.785
665.214;28696.441;  -11.760;34197.523
665.791;30073.711;  -10.530;34549.520
666.368;29233.000;   -9.690;35118.578
666.945;29935.672;   -9.320;36019.418
667.522;31387.230;  -11.860;36048.438
668.099;31153.400;  -10.770;36243.914
668.676;29960.697;   -6.260;35958.875
669.253;28651.475;   -7.000;37384.730
669.830;28849.770;  -10.190;36779.629
670.407;28742.654;   -9.550;35231.289
670.984;29041.990;   -9.260;35544.270
671.560;30092.102;   -9.280;35466.867
672.137;29230.492;  -11.810;34280.863
672.714;29983.207;  -11.490;34632.863
673.290;31098.547;   -7.740;35135.422
673.867;31188.789;  -10.660;36114.480
674.443;30682.246;  -12.230;36152.859
675.020;28685.828;  -10.450;35327.238
675.596;29723.311;   -9.260;35795.176
676.173;30437.719;  -10.780;35430.355
676.749;30184.721;  -13.690;33549.516
677.326;29984.391;  -11.980;32210.012
677.902;29971.266;   -8.630;32068.871
678.478;29378.473;  -10.730;32583.891
679.054;28447.369;  -10.520;32088.928
679.631;28669.811;  -11.920;30978.848
680.207;30032.404;   -7.490;33160.887
680.783;31487.678;   -9.860;35570.363
681.359;30649.729;  -13.380;36125.184
681.935;30464.740;  -12.480;35240.922
682.511;30270.672;   -7.900;34429.961
683.087;30639.559;   -7.710;34463.680
683.663;30037.080;  -11.480;34648.898
684.239;28543.090;  -14.090;34546.457
684.815;27756.457;   -7.560;35586.375
685.390;27888.277;   -9.910;35821.895
685.966;28514.391;  -11.159;35085.871
686.542;31150.475;  -11.169;34198.230
687.118;33355.391;   -5.959;32847.707
687.693;33520.508;  -10.329;32794.027
688.269;33167.195;  -12.059;33072.367
688.844;31546.174;  -10.909;33141.664
689.420;29710.545;   -8.019;33965.742
689.995;27887.555;   -8.399;34655.523
690.571;26444.525;  -10.949;33576.742
691.146;26402.258;   -9.619;32657.219
691.722;26193.660;   -8.999;32526.979
692.297;25929.395;  -11.589;33014.617
692.872;27406.086;  -11.739;34012.254
693.448;27116.990;  -11.059;34237.434
694.023;26129.867;  -10.139;34142.672
694.598;28191.324;   -9.029;34132.031
695.173;28902.193;  -13.319;34205.250
695.748;27867.439;  -10.169;32882.488
696.323;27615.936;   -8.339;32864.906
696.898;27892.361;   -8.169;33170.004
697.473;28063.420;  -12.309;32432.984
698.048;27428.896;  -10.989;31649.303
698.623;27253.137;   -9.329;30778.141
699.198;28746.994;   -9.849;31140.119
699.773;29900.521;  -12.329;31764.299
700.348;28639.350;  -10.389;31780.816
700.922;28557.600;   -9.269;32046.375
701.497;29491.057;   -9.329;32603.574
702.072;29743.092;  -10.789;34799.871
702.646;28447.244;  -10.839;35793.172
703.221;26507.914;   -9.099;35201.590
703.795;28240.904;  -10.939;34764.527
704.370;28582.658;  -12.859;34307.367
704.944;28904.061;  -11.559;33509.887
705.519;29520.750;   -7.939;31388.584
706.093;30788.473;  -10.499;31340.104
706.668;31129.656;  -11.289;32630.281
707.242;29936.119;  -11.509;32728.779
707.816;28621.266;   -9.639;32947.238
708.390;27176.369;  -11.429;33277.855
708.965;27934.361;  -11.869;33834.336
709.539;28400.898;  -11.689;33709.273
710.113;28366.482;  -10.478;33044.313
710.687;27494.533;  -10.228;31953.992
711.261;25870.162;  -13.698;30505.949
711.835;25726.902;  -13.378;30262.369
712.409;26254.166;   -9.698;31254.447
712.983;28176.887;  -11.898;32754.986
713.557;29379.418;  -15.138;34018.824
714.131;29331.559;  -14.098;34579.625
714.704;28362.586;   -9.958;33890.262
715.278;25758.225;  -10.028;33531.102
715.852;24762.023;  -11.148;33601.660
716.425;26006.055;   -9.068;33515.117
716.999;27166.965;  -10.038;33185.555
717.573;28081.783;   -9.798;33905.996
718.146;29087.873;  -12.378;35199.293
718.720;29098.051;  -11.918;35060.551
719.293;29177.719;   -8.088;34973.230
719.867;32197.391;  -10.888;36394.449
720.440;31670.518;  -11.938;36663.008
721.013;29579.795;  -12.818;35102.426
721.587;27933.600;  -10.298;33985.266
722.160;26794.930;  -10.048;33524.965
722.733;25921.674;  -12.108;32987.043
723.306;26373.902;  -10.818;33066.301
723.880;28325.803;   -8.908;33399.500
724.453;30178.059;   -9.878;33468.297
725.026;29366.047;  -11.188;33816.637
725.599;26785.748;  -11.678;32797.996
726.172;27203.949;   -9.618;33187.434
726.745;28477.373;   -8.258;35136.613
727.318;29690.191;  -12.978;35751.730
727.891;30116.773;  -12.148;35890.430
728.463;29525.990;   -8.968;34822.090
729.036;28287.295;  -10.188;32895.086
729.609;28822.096;  -11.788;31823.225
730.182;26051.699;  -11.788;31445.283
730.754;23550.461;  -10.268;32373.223
731.327;23856.525;   -9.998;33676.820
731.900;24394.422;  -12.228;33417.000
732.472;25183.883;  -13.848;31978.498
733.045;26537.627;   -8.698;30368.777
733.617;26657.424;  -10.607;30574.215
734.190;26983.686;  -11.507;31280.975
734.762;24569.834;  -13.647;31674.412
735.334;22719.629;   -9.767;31247.291
735.907;23149.514;   -9.897;29876.211
736.479;23309.713;  -11.637;29808.488
737.051;22920.361;   -9.567;30233.547
737.623;23404.512;   -8.187;31469.086
738.195;23966.662;  -11.187;31784.225
738.768;26209.180;  -12.337;32120.523
739.340;26872.078;  -12.227;32094.342
739.912;25948.299;  -11.057;31312.680
740.484;24525.275;  -10.207;31946.238
741.056;22972.008;  -10.047;32984.059
741.628;24145.336;  -13.627;33897.715
742.199;26274.705;   -7.177;33213.016
742.771;25188.678;  -10.797;31369.113
743.343;23191.047;  -11.997;31865.473
743.915;22130.256;  -12.867;32388.631
744.487;22073.527;   -7.617;31079.568
745.058;22047.021;   -9.557;30570.107
745.630;22685.014;   -9.877;29970.127
746.201;23933.291;  -14.177;29186.766
746.773;24534.633;   -9.237;28805.723
747.344;24327.350;   -9.847;29591.223
747.916;22548.547;  -11.657;31412.201
748.487;22627.914;  -10.587;32194.898
749.059;24017.877;   -8.707;32533.719
749.630;24826.041;  -10.537;32158.518
750.201;23949.236;  -11.687;30855.395
750.773;22185.252;  -11.647;28622.555
751.344;21845.361;   -7.147;28405.732
751.915;22635.283;   -9.757;28461.551
752.486;22639.303;  -12.427;27842.850
753.057;20849.531;  -12.227;27845.008
753.628;19815.979;  -10.417;27728.107
754.199;20747.131;  -11.767;27381.086
754.770;21715.697;  -11.187;25882.203
755.341;21946.809;  -10.507;25886.184
755.912;21935.344;   -9.387;26050.861
756.483;21337.754;  -10.647;26798.779
757.054;19482.832;  -11.837;27048.238
757.625;18082.049;  -12.716;26294.838
758.195;17991.486;   -9.666;26142.076
758.766;17784.121;   -8.656;26392.234
759.337;18407.199;  -12.856;26334.594
759.907;19929.115;  -13.366;27579.652
760.478;20857.738;   -8.576;28352.770
761.048;20241.500;  -10.526;27325.088
761.619;19191.824;  -11.116;26460.428
762.189;19328.482;  -12.136;26029.826
762.760;20483.785;   -9.456;26430.145
763.330;21504.035;   -7.136;26670.902
763.900;20962.695;  -11.786;26603.021
764.471;18458.008;  -11.546;25542.740
765.041;17046.039;   -8.096;24358.459
765.611;16869.309;   -8.876;23991.297
766.181;17213.674;  -12.196;24470.236
766.751;18404.270;  -11.636;24845.975
767.321;18212.361;  -10.156;24533.633
767.891;16121.938;  -11.766;24916.492
768.461;15533.072;  -14.936;24776.771
769.031;16092.688;  -12.356;24757.988
769.601;17777.955;   -7.526;24181.088
770.171;17802.434;  -10.766;23670.387
770.741;16923.910;  -13.176;22960.045
771.311;17013.031;  -10.616;22917.523
771.880;17530.775;   -9.576;23562.941
772.450;17475.877;  -10.336;24216.500
773.020;17525.648;  -13.516;24140.398
773.589;16780.020;  -13.466;24414.857
774.159;16154.935;   -8.686;23858.717
774.729;15804.309;   -9.476;22942.135
775.298;15380.064;  -13.666;22324.033
775.867;14891.960;  -11.716;21140.313
776.437;15040.800;   -9.906;20838.092
777.006;14817.988;  -12.166;20599.510
777.576;14424.146;  -12.356;20508.809
778.145;14402.511;  -11.646;20732.947
778.714;14495.435;   -8.226;21062.465
779.283;13948.071;   -9.556;20949.664
779.853;13382.691;  -14.116;20508.623
780.422;13712.468;  -11.506;20649.082
780.991;13329.662;   -9.556;21527.520
781.560;12070.047;   -9.095;22632.658
782.129;11907.140;  -12.135;23048.277
782.698;11955.828;  -10.865;23438.555
783.267;11562.583;   -9.335;23267.734
783.836;11485.474;  -11.045;22415.133
784.404;12544.961;  -13.865;20443.152
784.973;13244.343;  -13.095;19699.150
785.542;13308.811;  -11.575;19763.828
786.111;13167.330;   -9.705;20341.408
786.679;12630.930;  -12.105;20207.967
787.248;12293.251;  -12.455;19516.465
787.817;12101.687;  -11.535;18900.363
788.385;11764.733;   -9.765;17879.121
788.954;11185.592;  -14.005;17658.301
789.522;10529.776;  -11.955;17788.879
790.090;10911.929;  -10.135;18118.277
790.659;11503.269;  -10.975;18338.736
791.227;11123.726;  -13.375;18508.615
791.795;11482.146;  -12.375;17898.254
792.364;11739.471;  -10.725;17295.133
792.932;12027.395;   -9.715;16822.051
793.500;12358.445;  -12.675;17040.148
794.068;12657.321;  -13.495;17179.787
794.636;12812.845;  -10.885;16664.246
795.204;12234.895;  -11.045;16524.545
795.772;12217.915;  -13.175;17274.564
796.340;11675.713;  -12.445;17891.002
796.908;11438.946;   -9.735;17648.561
797.476;11344.571;   -9.815;17064.080
798.044;10999.761;  -13.985;16672.777
798.612;10246.558;  -13.115;17023.996
799.180; 9781.021;  -10.185;16561.615
799.747; 9569.936;   -9.055;15962.773
800.315; 9286.001;  -12.385;15296.992
800.883; 9102.760;  -15.035;14801.771
801.450; 9283.930;  -10.365;14534.430
802.018; 9369.825;   -9.855;14173.248
802.585; 9381.695;  -11.905;14029.547
803.153; 9450.651;  -11.585;13836.846
803.720; 9293.435;   -9.095;13567.324
804.287; 8745.290;   -9.135;13360.622
804.855; 8229.606;  -11.604;13681.981
805.422; 8092.993;  -11.794;13536.560
805.989; 8133.007;  -10.734;13355.958
806.556; 8377.706;  -10.444;13747.896
807.124; 8684.480;  -12.764;13987.376
807.691; 8641.283;  -12.964;14038.674
808.258; 8434.097;  -11.134;14120.152
808.825; 8039.159;   -9.854;13860.111
809.392; 8144.145;  -10.504;13268.790
809.959; 7716.595;  -13.054;12680.389
810.526; 7233.828;   -8.294;12427.308
811.093; 7214.817;   -8.394;12030.105
811.659; 7812.924;  -12.304;11653.664
812.226; 8385.175;  -13.944;11637.183
812.793; 8142.556;  -10.484;11611.521
813.360; 7493.272;  -10.144;11885.181
813.926; 7185.856;  -11.684;12770.539
814.493; 6993.542;  -13.644;12677.638
815.060; 6613.165;   -9.724;11974.336
815.626; 6560.038;   -9.854;11594.715
816.193; 6917.863;  -13.254;11579.474
816.759; 6945.243;  -13.204;11666.972
817.325; 7004.068;   -9.434;11325.530
817.892; 7385.322;  -10.134;11105.369
818.458; 7823.801;  -13.474;10843.928
819.024; 7444.039;  -11.854;10714.406
819.591; 7125.532;  -10.244;10469.165
820.157; 6956.086;  -10.704;10235.523
820.723; 6476.826;  -12.324;10847.563
821.289; 6200.779;   -9.444;11040.980
821.855; 6111.195;   -8.374;10357.100
822.421; 5998.562;  -10.234; 9978.918
822.987; 5890.900;  -13.294; 9754.177
823.553; 5516.259;  -10.884;10065.755
824.119; 5325.553;   -8.884;10036.294
824.685; 5469.887;   -6.784;10029.192
825.251; 5638.370;  -12.004;10199.230
825.816; 5613.805;  -11.474; 9820.189
826.382; 5309.415;   -9.174; 9297.248
826.948; 5469.788;   -9.214; 9381.347
827.513; 5896.160;  -10.774; 9450.726
828.079; 5777.094;  -11.924; 9472.444
828.645; 5175.089;  -10.543; 9292.643
829.210; 4988.170;  -10.533; 9065.341
829.776; 4948.362;  -10.753; 9132.620
830.341; 4828.480;  -10.173; 9092.878
830.906; 4992.947;  -10.743; 9078.557
831.472; 5343.495;  -11.113; 8534.535
832.037; 5131.744;  -10.603; 8677.874
832.602; 4591.040;  -13.323; 8628.692
833.167; 4315.150;  -10.823; 8879.031
833.733; 4237.955;  -10.113; 9189.790
834.298; 4348.796;  -13.583; 9052.608
834.863; 4463.621;  -12.703; 8895.087
835.428; 4475.886;  -10.523; 8824.266
835.993; 4351.095;   -6.963; 8845.385
836.558; 4213.696;  -10.763; 8888.563
837.123; 4314.612;   -9.903; 8966.582
837.688; 4578.190;   -9.913; 8617.860
838.253; 4827.381;  -10.283; 8590.699
838.817; 4995.337;  -12.963; 8443.797
839.382; 4900.056;  -14.243; 8799.356
839.947; 4593.423;  -10.733; 8810.595
840.511; 4283.902;   -9.383; 8796.394
841.076; 3905.567;  -12.563; 8347.231
841.641; 3984.364;  -12.953; 8224.330
842.205; 4099.512;   -7.043; 8223.349
842.770; 4141.306;   -8.163; 8622.107
843.334; 4279.917;  -12.503; 8410.386
843.898; 4248.641;  -11.693; 8337.465
844.463; 4245.477;  -10.203; 8506.283
845.027; 4034.503;   -9.533; 8280.962
845.591; 3861.226;  -13.443; 8231.141
846.156; 3847.200;  -13.143; 7969.179
846.720; 3750.272;   -9.433; 7768.278
847.284; 3653.035;  -11.033; 7630.957
847.848; 3514.097;  -10.403; 7472.395
848.412; 3411.832;  -11.553; 7437.394
848.976; 3444.498;   -8.393; 7674.592
849.540; 3364.010;   -8.713; 7836.011
850.104; 3424.360;  -12.463; 7913.669
850.668; 3774.122;  -12.973; 7694.508
851.232; 3919.910;  -10.793; 7756.887
851.796; 3783.304;  -10.662; 7926.545
852.359; 3465.789;  -13.082; 7827.844
852.923; 3286.996;  -12.192; 7641.163
853.487; 3150.543;  -11.912; 7342.501
854.050; 3132.026;  -10.892; 7042.820
854.614; 3247.358;  -13.992; 7151.338
855.177; 3345.146;  -11.732; 7105.077
855.741; 3385.756;   -8.962; 6989.675
856.304; 3298.873;   -9.442; 6596.634
856.868; 3281.048;  -14.192; 6356.272
857.431; 3420.520;  -12.702; 6468.571
857.995; 3577.488;   -9.942; 6373.210
858.558; 3624.296;   -9.112; 6324.448
859.121; 3353.375;  -12.932; 6408.327
859.684; 3164.212;  -13.442; 6347.886
860.247; 3244.377;  -10.632; 6321.264
860.810; 3259.051;  -11.272; 6301.903
861.374; 3008.275;   -9.832; 6607.881
861.937; 2746.099;  -11.762; 6408.200
862.500; 2743.633;   -9.722; 6572.639
863.062; 2892.684;  -10.512; 6387.297
863.625; 3029.193;  -11.232; 6190.836
864.188; 3191.352;  -14.112; 5807.254
864.751; 3278.263;  -11.302; 5682.413
865.314; 3194.857;  -10.112; 5547.492
865.876; 2977.045;  -12.182; 5500.150
866.439; 2954.398;  -10.722; 5415.909
867.002; 2921.060;   -9.252; 5501.567
867.564; 2730.956;   -9.572; 5413.946
868.127; 2505.581;  -13.142; 5160.325
868.689; 2373.607;  -12.902; 5133.183
869.252; 2260.073;   -9.732; 5252.382
869.814; 2153.870;   -9.432; 5297.141
870.377; 2164.552;  -11.552; 5390.919
870.939; 2235.417;   -9.052; 5599.898
871.501; 2305.261;  -10.982; 5248.336
872.063; 2309.464;  -12.292; 4854.235
872.626; 2244.355;  -14.912; 4817.074
873.188; 2240.125;  -13.112; 4987.732
873.750; 2220.667;  -13.442; 4868.651
874.312; 2145.112;   -9.402; 4779.330
874.874; 2061.453;  -11.062; 4866.348
875.436; 1982.445;  -13.931; 4718.887
875.998; 1974.829;   -9.561; 4660.005
876.560; 2002.633;  -11.321; 4462.964
877.122; 1939.537;  -12.221; 4145.042
877.683; 1834.349;  -12.191; 4056.481
878.245; 1757.148;  -12.101; 3950.740
878.807; 1796.310;   -8.971; 4058.958
879.369; 1818.655;  -12.071; 3954.677
879.930; 1726.592;  -14.621; 3941.495
880.492; 1660.778;  -10.311; 4067.014
881.053; 1625.877;  -10.901; 3859.633
881.615; 1523.628;  -14.411; 3776.071
882.176; 1422.041;  -13.761; 3734.750
882.738; 1372.504;   -9.181; 3678.489
883.299; 1347.779;  -11.791; 3405.407
883.860; 1342.781;  -13.121; 3351.106
884.422; 1330.089;  -11.211; 3394.044
884.983; 1284.502;  -10.091; 3166.443
885.544; 1209.031;   -8.461; 3189.802
886.105; 1131.260;  -12.361; 3160.360
886.666; 1067.191;  -14.141; 3093.059
887.227; 1010.237;  -11.361; 2941.957
887.788;  947.724;  -11.401; 2974.836
888.349;  880.010;  -13.791; 2721.214
888.910;  873.348;  -13.191; 2696.493
889.471;  878.566;   -9.881; 2560.172
890.032;  857.683;   -9.881; 2558.190
890.593;  827.069;  -10.371; 2567.669
891.153;  802.392;  -13.301; 2460.307
891.714;  756.014;  -11.431; 2372.046
892.275;  716.782;  -11.291; 2309.505
892.835;  679.687;  -11.471; 2382.543
893.396;  626.305;  -11.541; 2295.502
893.956;  568.577;  -11.181; 2162.420
894.517;  528.343;  -11.741; 2125.439
895.077;  522.690;  -11.671; 2086.978
895.638;  524.212;  -11.311; 2126.316
896.198;  499.176;   -9.831; 1838.275
896.758;  455.910;   -8.421; 1892.813
897.319;  423.079;  -12.351; 1792.232
897.879;  405.891;  -13.511; 1762.751
898.439;  379.932;  -12.001; 1661.149
898.999;  354.357;  -10.180; 1781.468
899.559;  343.700;  -12.030; 1703.347
900.119;  338.690;  -15.710; 1537.525
900.679;  335.130;   -8.900; 1638.384
901.239;  320.113;   -8.340; 1527.902
901.799;  311.616;  -13.910; 1456.441
902.359;  303.368;  -13.460; 1357.140
902.919;  296.871;  -11.490; 1331.118
903.479;  283.049;  -12.110; 1317.257
904.038;  263.063;  -11.720; 1262.595
904.598;  248.153;  -13.610; 1152.034
905.158;  244.716;  -11.040; 1240.893
905.717;  238.585;  -10.900; 1233.691
906.277;  226.934;  -15.080; 1217.330
906.836;  217.442;  -13.380; 1222.408
907.396;  208.039;  -10.780; 1193.047
907.955;  201.254;   -8.500; 1182.526
908.515;  195.095;  -12.760; 1099.364
909.074;  188.797;  -11.900; 1092.863
909.633;  184.451;   -8.950; 1069.121
910.192;  178.600;   -8.770; 1196.460
910.752;  173.268;  -12.390; 1029.960
911.311;  168.794;  -13.680; 1009.780
911.870;  165.908;  -12.370;  971.460
912.429;  168.027;  -10.900; 1094.080
912.988;  167.184;  -11.690; 1081.060
913.547;  162.343;  -13.240;  940.380
914.106;  158.164;  -11.990;  999.420
914.665;  154.396;   -9.990;  984.020
915.224;  153.573;  -12.880; 1035.760
915.782;  153.806;  -12.350;  922.560
916.341;  153.218;   -9.110; 1049.840
916.900;  148.266;   -9.270;  925.260
917.458;  146.195;  -13.240;  884.220
918.017;  146.039;  -13.550;  942.600
918.576;  145.948;  -12.320;  904.440
919.134;  145.129;  -11.490;  837.980
919.693;  142.288;  -13.670;  893.060
920.251;  141.416;  -15.470;  876.500
920.809;  140.269;  -11.290;  839.580
921.368;  139.957;  -10.210;  885.360
921.926;  138.244;  -12.140;  842.940
922.484;  136.864;  -13.080;  903.360
923.042;  136.834;  -11.720;  880.340
923.601;  139.493;   -7.480;  998.680
924.159;  138.043;  -11.570;  935.560
924.717;  133.994;  -13.840;  841.080
925.275;  134.233;  -10.640;  903.240
925.833;  133.612;  -11.540;  779.320
926.391;  134.718;  -12.960;  938.380
926.949;  133.159;  -14.130;  857.680
927.506;  133.519;  -11.750;  903.500
928.064;  134.503;  -10.250;  877.580
928.622;  132.827;  -13.030;  880.100
929.180;  132.070;  -13.400;  814.180
929.737;  134.512;  -10.700;  808.540
930.295;  137.344;  -10.070;  928.480
930.853;  139.073;  -11.960;  849.100
931.410;  139.783;  -13.120;  821.120
931.968;  139.132;  -10.770;  940.660
932.525;  139.567;  -10.680;  909.380
933.082;  139.679;  -13.130;  811.440
933.640;  141.214;  -13.210;  925.900
934.197;  139.343;  -11.060;  886.360
934.754;  140.446;   -9.580;  897.780
935.312;  143.994;  -14.000;  863.340
935.869;  147.468;  -10.710; 1012.980
936.426;  148.040;   -9.860;  872.800
936.983;  149.777;   -9.710;  889.020
937.540;  149.391;  -13.990;  838.280
938.097;  147.598;  -14.040;  940.120
938.654;  147.899;  -10.310;  898.860
939.211;  150.681;  -10.560;  952.480
939.768;  153.964;  -13.900;  915.420
940.324;  157.960;  -14.760;  904.200
940.881;  159.789;  -10.370;  878.500
941.438;  160.330;   -8.260; 1021.200
941.995;  156.050;  -12.540;  992.560
942.551;  153.138;  -14.670;  875.620
943.108;  153.812;  -10.450;  937.920
943.664;  156.036;  -10.750;  869.340
944.221;  159.497;  -11.550; 1088.140
944.777;  156.487;  -14.770;  869.680
945.334;  157.739;  -12.820;  884.840
945.890;  159.347;  -10.130;  946.480
946.446;  159.081;  -13.470;  947.020
947.003;  161.390;  -12.120;  964.940
947.559;  164.141;   -9.980; 1063.040
948.115;  163.040;   -9.080; 1026.540
948.671;  162.891;  -10.830;  967.300
949.227;  159.900;  -12.440;  859.560
949.783;  157.762;  -12.910;  858.900
950.339;  159.725;  -10.270;  991.000
950.895;  159.463;  -13.630; 1023.840
951.451;  158.331;  -15.100;  925.280
952.007;  158.089;  -11.330;  998.540
952.563;  157.800;  -10.580;  937.780
953.118;  154.665;  -13.440;  904.940
953.674;  155.497;  -12.710;  935.780
954.230;  155.189;  -10.350;  949.640
954.785;  152.876;   -9.190;  936.640
955.341;  150.619;  -11.200;  998.160
955.897;  149.407;  -16.560;  834.660
956.452;  151.238;  -12.570;  953.840
957.008;  151.128;   -7.970; 1083.640
957.563;  147.926;  -11.940; 1009.540
958.118;  143.371;  -13.450;  877.700
958.674;  144.991;  -12.030;  946.780
959.229;  146.590;   -9.410; 1013.980
959.784;  144.653;  -12.000;  832.400
960.339;  144.004;  -14.780; 1001.280
960.894;  140.498;   -9.860;  963.760
961.449;  136.398;   -9.970;  859.960
962.004;  134.937;  -10.900; 1212.840
962.559;  129.883;  -13.150;  860.140
963.114;  127.838;  -13.740;  742.480
963.669;  127.020;   -9.820;  915.500
964.224;  124.631;  -13.890;  874.340
964.779;  124.360;  -12.600;  828.420
965.334;  125.003;  -10.950; 1017.860
965.888;  124.705;  -11.170;  875.360
966.443;  128.050;  -12.540;  972.380
966.998;  128.470;  -15.780;  819.460
967.552;  127.257;   -9.760;  908.380
968.107;  123.305;   -9.060;  868.300
968.661;  124.781;  -11.950;  922.440
969.216;  125.912;  -12.800;  856.280
969.770;  125.790;  -11.210;  917.200
970.324;  124.974;  -11.610;  923.140
970.879;  121.670;  -11.370;  947.180
971.433;  117.703;  -12.540;  952.720
971.987;  112.975;  -11.320;  895.340
972.541;  109.366;  -10.720;  917.100
973.095;  109.127;   -9.680; 1009.460
973.649;  107.426;  -11.440;  809.480
974.203;  106.052;  -11.210;  829.040
974.757;  105.030;  -10.240;  855.220
975.311;  105.393;  -13.720;  872.600
975.865;  104.678;  -13.770;  881.820
976.419;  101.617;  -11.690;  857.400
976.973;   98.401;   -9.510;  849.620
977.526;   93.250;  -12.620;  949.920
978.080;   84.921;  -12.010;  796.780
978.634;   79.849;  -10.170;  921.320
979.187;   76.302;   -9.020;  905.400
979.741;   76.907;   -9.820; 1018.380
980.294;   75.440;  -14.870;  789.160
980.848;   75.800;  -12.380;  717.220
981.401;   78.214;  -10.350;  816.540
981.955;   81.874;  -13.720;  844.300
982.508;   81.620;  -11.490;  746.340
983.061;   83.683;  -10.000;  915.260
983.615;   80.210;  -11.480;  798.800
984.168;   78.312;  -13.220;  770.080
984.721;   79.169;  -13.960;  880.760
985.274;   79.285;  -10.870;  867.500
985.827;   77.856;   -9.790;  834.220
986.380;   76.021;  -13.120;  721.340
986.933;   75.838;  -12.450;  864.800
987.486;   74.486;  -10.210;  861.920
988.039;   74.215;   -8.430;  863.100
988.591;   72.218;  -10.520;  893.260
989.144;   70.589;  -14.860;  737.260
989.697;   69.689;  -13.080;  758.740
990.250;   70.435;  -10.150;  858.100
990.802;   69.817;  -13.430;  755.860
991.355;   70.593;  -12.750;  974.880
991.907;   68.176;  -12.040;  864.320
992.460;   65.760;  -11.330;  753.760
993.012;   65.897;  -13.610;  749.540
993.565;   64.496;  -13.460;  711.360
994.117;   66.055;   -9.360;  950.780
994.669;   61.507;  -11.300;  701.320
995.221;   59.508;  -13.540;  791.920
995.774;   57.219;  -13.430;  787.580
996.326;   56.941;  -12.520;  740.220
996.878;   57.351;  -10.950;  838.420
997.430;   55.396;  -14.300;  699.860
997.982;   55.323;  -13.760;  750.140
998.534;   54.705;  -11.530;  739.060
999.086;   53.452;  -10.310;  738.220
999.638;   52.471;  -12.530;  661.380
1000.190;   50.579;  -11.840;  699.320
1000.741;   50.765;  -10.260;  742.700
1001.293;   50.434;   -8.860;  686.020
1001.845;   49.979;  -13.700;  676.640
1002.396;   49.540;  -12.100;  743.400
1002.948;   49.367;  -12.760;  737.400
1003.500;   48.181;  -10.380;  723.780
1004.051;   48.453;  -11.900;  907.580
1004.603;   46.558;  -12.250;  791.820
1005.154;   42.705;  -13.210;  608.980
1005.705;   42.006;  -10.950;  723.960
1006.257;   42.050;  -13.880;  707.220
1006.808;   41.149;  -12.840;  685.460
1007.359;   41.133;  -10.570;  763.240
1007.910;   39.557;   -9.620;  646.640
1008.461;   39.953;  -13.630;  732.940
1009.013;   38.174;  -17.200;  588.340
1009.564;   39.494;  -10.200;  793.520
1010.115;   37.543;  -12.570;  597.040
1010.665;   37.099;  -15.150;  602.160
1011.216;   37.211;  -14.480;  667.920
1011.767;   37.199;  -11.340;  697.920
1012.318;   36.911;   -9.780;  736.980
1012.869;   35.602;  -12.380;  679.000
1013.419;   35.634;  -15.560;  603.120
1013.970;   35.995;  -11.010;  666.640
1014.521;   34.414;  -11.610;  620.620
1015.071;   34.616;  -13.450;  670.380
1015.622;   34.711;  -13.870;  635.460
1016.172;   34.174;  -11.610;  596.820
1016.723;   34.032;  -12.120;  614.380
1017.273;   33.059;  -13.620;  604.160
1017.823;   33.946;  -14.140;  650.340
1018.374;   33.119;  -12.800;  611.760
1018.924;   33.431;  -12.340;  716.880
1019.474;   33.034;  -11.410;  718.880
1020.024;   32.394;  -14.770;  657.580
1020.574;   32.841;   -9.780;  726.160
1021.124;   33.008;   -8.560;  673.580
1021.674;   31.370;  -15.190;  559.120
1022.224;   32.549;  -13.530;  708.940
1022.774;   31.920;  -13.280;  668.820
1023.324;   32.320;  -10.690;  753.520
1023.874;   33.481;  -10.240;  875.760
1024.423;   30.679;  -12.540;  613.700
1024.973;   30.344;  -10.010;  610.760
1025.523;   29.762;  -10.550;  620.960
1026.072;   29.571;  -13.560;  606.420
1026.622;   29.111;  -15.120;  675.740
1027.172;   31.083;  -11.260;  715.660
1027.721;   28.919;  -11.410;  601.220
1028.270;   29.065;  -13.530;  663.400
1028.820;   28.677;  -13.680;  638.080
1029.369;   28.917;  -13.520;  612.700
1029.918;   28.983;  -10.980;  649.840
1030.468;   28.092;  -13.530;  564.780
1031.017;   28.961;  -13.170;  634.800
1031.566;   27.391;  -12.200;  608.900
1032.115;   28.210;   -9.960;  694.500
1032.664;   27.193;  -13.210;  596.480
1033.213;   28.203;  -12.500;  735.420
1033.762;   27.867;  -11.910;  635.620
1034.311;   27.575;   -9.640;  677.220
1034.860;   27.695;  -13.310;  691.000
1035.408;   27.257;  -11.830;  722.720
1035.957;   27.549;  -12.000;  719.540
1036.506;   25.196;  -11.690;  530.800
1037.055;   27.769;  -10.990;  844.320
1037.603;   25.584;  -15.120;  664.000
1038.152;   25.543;  -12.450;  534.760
1038.700;   25.922;  -10.560;  585.740
1039.249;   25.100;  -11.080;  681.220
1039.797;   25.755;  -12.540;  633.360
1040.345;   25.817;  -11.920;  705.420
1040.894;   24.925;  -11.410;  625.300
1041.442;   24.729;  -14.320;  632.200
1041.990;   24.955;  -16.240;  559.160
1042.538;   24.128;  -11.680;  536.180
1043.087;   23.955;  -10.760;  570.860
1043.635;   24.875;  -11.850;  670.500
1044.183;   22.709;  -15.480;  586.400
1044.731;   23.559;  -11.770;  576.000
1045.279;   23.445;  -13.090;  674.920
1045.827;   24.986;  -12.440;  892.400
1046.374;   23.249;  -13.840;  515.420
1046.922;   22.079;  -13.220;  590.580
1047.470;   23.455;  -10.230;  691.300
1048.018;   23.123;  -14.590;  647.960
1048.565;   23.728;  -12.050;  708.600
1049.113;   22.039;  -11.650;  557.000
1049.660;   22.032;  -10.510;  629.660
1050.208;   22.858;  -13.310;  675.640
1050.755;   21.196;  -15.900;  606.580
1051.303;   21.921;  -11.430;  686.820
1051.850;   20.989;   -8.480;  635.120
1052.397;   19.354;  -15.010;  473.960
1052.945;   20.168;  -13.960;  617.760
1053.492;   22.331;  -13.150;  741.840
1054.039;   21.811;   -9.630;  720.180
1054.586;   20.954;  -13.680;  557.240
1055.133;   21.627;  -14.570;  693.140
1055.680;   21.505;  -13.820;  646.620
1056.227;   20.084;  -11.730;  542.780
1056.774;   21.789;  -12.480;  794.980
1057.321;   19.403;  -13.930;  523.260
1057.868;   20.304;  -11.690;  651.320
1058.415;   19.711;   -9.520;  651.980
1058.961;   19.985;  -13.160;  678.940
1059.508;   19.820;  -12.920;  643.820
1060.055;   19.735;  -11.920;  581.780
1060.601;   20.460;  -11.500;  624.300
1061.148;   18.915;  -14.330;  616.820
1061.694;   19.042;  -16.870;  592.580
1062.241;   18.821;  -10.330;  596.320
1062.787;   19.130;  -10.620;  663.140
1063.334;   20.652;  -10.110;  808.560
1063.880;   19.140;  -13.400;  668.360
1064.426;   18.267;  -10.680;  706.820
1064.972;   18.132;   -9.920;  601.340
1065.518;   17.271;  -10.980;  566.640
1066.065;   18.118;  -14.890;  624.460
1066.611;   17.491;  -12.870;  598.800
1067.157;   18.361;  -12.950;  641.860
1067.703;   17.961;  -13.540;  668.480
1068.249;   17.827;  -13.540;  605.220
1068.794;   17.413;  -12.600;  626.880
1069.340;   15.841;  -10.620;  578.960
1069.886;   17.235;  -12.830;  590.700
1070.432;   16.101;  -14.870;  541.720
1070.977;   16.195;  -11.980;  601.080
1071.523;   16.859;   -8.200;  573.060
1072.068;   16.013;  -12.330;  582.000
1072.614;   15.622;  -16.370;  527.760
1073.160;   17.148;  -11.100;  687.040
1073.705;   15.752;  -10.480;  572.520
1074.250;   15.990;  -14.520;  559.900
1074.796;   15.980;  -11.460;  655.160
1075.341;   16.967;  -11.950;  664.100
1075.886;   15.810;  -11.460;  594.240
1076.431;   15.686;  -13.770;  649.880
1076.976;   15.239;  -12.680;  639.220
1077.521;   15.192;  -13.170;  583.080
1078.067;   14.192;  -10.860;  579.400
1078.612;   15.262;  -13.920;  661.620
1079.156;   14.933;  -13.880;  601.540
1079.701;   15.552;  -13.120;  693.260
1080.246;   15.451;   -9.940;  696.300
1080.791;   15.145;  -14.740;  625.020
1081.336;   13.479;  -13.750;  659.320
1081.880;   14.661;  -13.400;  649.680
1082.425;   13.663;  -12.220;  573.480
1082.970;   15.125;  -11.610;  717.040
1083.514;   13.663;  -13.580;  597.000
1084.059;   13.187;  -12.810;  586.720
1084.603;   12.688;  -12.320;  565.840
1085.147;   14.198;  -13.190;  645.220
1085.692;   14.150;  -12.480;  716.800
1086.236;   12.965;  -13.020;  503.140
1086.780;   14.921;   -9.190;  751.440
1087.325;   13.120;  -12.480;  654.620
1087.869;   13.393;  -12.450;  610.700
1088.413;   14.337;  -12.240;  705.040
1088.957;   11.967;   -9.020;  543.400
1089.501;   14.091;  -10.320;  766.640
1090.045;   12.305;  -12.720;  726.480
1090.589;   10.726;  -13.690;  569.920
1091.133;   13.074;  -10.020;  673.340
1091.676;   12.605;  -12.330;  591.940
1092.220;   12.270;  -14.970;  600.920
1092.764;   13.331;  -12.430;  706.960
1093.307;   12.302;   -9.800;  673.780
1093.851;   11.537;  -14.970;  556.540
1094.395;   12.295;  -15.310;  683.140
1094.938;   11.321;  -10.370;  632.520
1095.482;   11.133;  -11.050;  559.800
1096.025;   12.443;  -11.840;  710.880
1096.568;   12.490;  -12.840;  779.280
1097.112;    9.284;  -14.700;  508.180
1097.655;   11.458;   -8.720;  603.000
1098.198;   10.088;  -13.610;  600.180
1098.741;   10.410;  -13.350;  612.860
1099.285;   11.721;  -11.230;  657.300
1099.828;    9.317;  -11.840;  439.400
1100.371;   10.409;  -10.840;  608.160
1100.914;   11.194;  -14.190;  682.660
1101.457;   10.549;  -11.240;  679.900
1101.999;    9.183;  -11.270;  584.680
1102.542;    9.794;  -11.480;  641.440
1103.085;    9.486;  -11.750;  658.500
1103.628;   10.047;  -11.400;  762.060
1104.170;    9.395;  -10.490;  588.280
1104.713;    9.640;  -10.600;  646.700
1105.256;    9.004;  -14.360;  557.440
1105.798;    8.504;  -13.210;  499.980
1106.341;    9.771;  -10.270;  728.900
1106.883;    8.908;  -12.200;  521.340
1107.425;    8.851;  -13.110;  668.180
1107.968;    8.535;  -12.840;  612.380
1108.510;    9.682;   -6.480;  684.960
1109.052;    7.026;  -13.940;  612.620
1109.594;    7.970;  -13.690;  554.440
1110.136;    9.231;  -11.880;  643.220
1110.679;    8.071;   -9.500;  633.080
1111.221;    8.380;  -14.160;  604.460
1111.763;    7.798;  -13.980;  559.220
1112.304;    7.054;  -13.880;  547.140
1112.846;    8.024;  -12.210;  666.240
1113.388;   10.607;  -11.390;  942.180
1113.930;    8.193;  -14.540;  694.200
1114.472;    7.605;  -12.640;  606.540
1115.013;    6.434;  -11.620;  551.280
1115.555;    6.569;  -13.640;  587.100
1116.097;    5.876;  -15.380;  579.480
1116.638;    7.141;  -12.640;  684.600
1117.180;    7.760;   -9.850;  667.740
1117.721;    7.146;  -13.690;  568.580
1118.262;    7.438;  -12.680;  677.960
1118.804;    7.075;  -12.530;  637.340
1119.345;    6.360;  -11.690;  578.400
1119.886;    7.197;  -13.380;  704.040
1120.427;    6.191;  -14.070;  589.020
1120.969;    5.932;  -13.500;  597.920
1121.510;    5.358;  -11.480;  563.060
1122.051;    6.274;  -12.830;  723.580
1122.592;    5.446;  -14.290;  655.420
1123.133;    5.481;  -12.400;  547.940
1123.673;    7.306;  -10.130;  706.480
1124.214;    5.514;  -12.930;  612.460
1124.755;    6.369;  -14.380;  639.460
1125.296;    6.414;  -14.000;  627.320
1125.836;    7.088;  -10.070;  691.500
1126.377;    5.048;  -12.640;  599.660
1126.918;    5.238;  -12.960;  614.980
1127.458;    5.205;  -13.350;  622.220
1127.999;    6.206;  -10.750;  656.980
1128.539;    5.540;  -12.350;  694.240
1129.079;    4.612;  -14.860;  632.720
1129.620;    4.187;  -13.840;  558.100
1130.160;    4.804;  -12.330;  539.480
1130.700;    5.042;  -14.530;  640.840
1131.240;    5.393;  -12.530;  643.700
1131.781;    4.412;  -14.450;  619.680
1132.321;    4.641;   -9.790;  599.120
1132.861;    4.027;  -14.860;  564.200
1133.401;    3.412;  -14.290;  593.940
1133.941;    4.450;  -11.750;  626.280
1134.481;    3.889;   -9.920;  597.580
1135.020;    3.730;  -12.290;  609.160
1135.560;    3.911;  -11.650;  674.940
1136.100;    3.131;  -16.270;  501.160
1136.640;    3.339;  -10.890;  510.480
1137.179;    2.875;  -14.180;  537.960
1137.719;    3.191;  -16.250;  605.400
1138.258;    3.260;  -14.230;  587.360
1138.798;    4.091;   -9.090;  663.780
1139.337;    2.202;  -15.130;  482.840
1139.877;    3.175;  -13.680;  642.360
1140.416;    5.491;  -11.320;  878.060
1140.955;    2.262;  -10.860;  535.380
1141.494;    3.408;  -12.920;  669.280
1142.034;    2.357;  -13.930;  583.520
1142.573;    3.725;  -11.440;  646.280
1143.112;    2.681;  -12.000;  553.480
1143.651;    2.253;  -13.670;  536.480
1144.190;    3.460;  -12.730;  691.640
1144.729;    2.559;  -14.560;  607.420
1145.267;    3.121;  -11.830;  584.900
1145.806;    2.862;  -12.230;  637.040
1146.345;    1.687;  -14.130;  635.020
1146.884;    2.059;  -11.590;  622.500
1147.422;    1.050;  -12.550;  533.060
1147.961;    2.459;  -11.180;  708.460
1148.500;    2.638;  -11.510;  669.720
1149.038;    3.295;  -11.640;  632.500
1149.577;    1.889;  -10.130;  698.640
1150.115;    0.262;  -13.970;  452.280
1150.653;    1.619;  -14.520;  607.340
1151.192;    1.672;  -12.810;  552.920
1151.730;    1.728;   -9.100;  652.560
1152.268;    0.705;  -12.220;  589.520
1152.806;    1.135;  -14.140;  571.180
1153.344;    0.156;  -12.350;  577.640
1153.882;    1.229;   -8.980;  600.060
1154.421;   -0.276;  -15.190;  470.620
1154.958;    0.390;  -15.210;  595.240
1155.496;    1.829;  -12.850;  645.280
1156.034;    0.562;   -9.940;  721.880
1156.572;    2.543;  -13.570;  667.060
1157.110;   -0.561;  -14.590;  473.940
1157.647;    1.359;  -13.030;  676.960
1158.185;    0.495;  -12.140;  564.320
1158.723;   -0.465;  -14.390;  509.200
1159.260;    0.245;  -14.090;  701.700
1159.798;    1.127;  -11.920;  658.160
1160.335;    0.798;  -11.110;  631.820

