
Integration time [ms]:   3.276
Averaging Nr. [scans]: 1000
Smoothing Nr. [pixels]: 0
Data measured with spectrometer [name]: 7414430SP
Wave   ;Sample   ;Dark     ;Reference
[nm]   ;[counts] ;[counts] ;[counts] 

288.544;  157.012;    7.793;  793.890
289.143;  160.346;    7.462;  681.602
289.742;  160.803;    8.602;  828.814
290.341;  147.889;    1.321;  789.841
290.940;  137.563;   -0.709;  730.702
291.538;  137.959;    0.881;  881.108
292.137;  137.915;    0.122;  792.581
292.736;  141.525;   -1.929;  975.101
293.335;  138.406;   -8.229;  735.086
293.934;  138.064;   -5.279;  781.677
294.532;  137.559;   -1.369; 1031.958
295.131;  123.454;   -7.641;  834.394
295.730;  124.264;   -8.420;  809.588
296.328;  123.317;   -5.611;  783.442
296.927;  122.363;   -5.781;  779.652
297.525;  122.331;   -6.361;  781.236
298.124;  113.248;  -11.382;  654.009
298.722;  117.733;   -7.641;  761.933
299.321;  115.641;   -6.811;  708.597
299.919;  113.637;   -6.991;  751.918
300.518;  110.358;  -10.362;  689.338
301.116;  109.974;   -9.581;  691.381
301.715;  110.914;   -4.891;  730.222
302.313;  110.772;   -8.801;  704.943
302.911;  106.442;   -8.522;  733.830
303.509;  110.218;   -6.171;  925.627
304.108;  107.563;   -7.311;  760.383
304.706;  107.015;   -8.321;  801.664
305.304;  100.932;  -10.222;  796.707
305.902;  107.261;   -6.021;  784.484
306.500;  102.588;   -4.971;  728.200
307.098;  100.334;   -7.061;  746.560
307.696;   98.573;   -8.801;  780.432
308.294;  100.324;   -6.411;  731.359
308.892;  101.056;   -2.901;  759.769
309.490;   97.090;   -5.041;  712.161
310.088;   94.831;   -5.002;  788.444
310.686;   99.183;   -2.041;  821.749
311.284;   95.359;   -2.351;  766.040
311.882;   92.946;   -4.422;  731.225
312.480;   89.253;   -4.192;  697.167
313.078;   91.223;   -1.172;  808.331
313.675;   92.405;   -2.601;  691.600
314.273;   85.812;   -1.312;  797.837
314.871;   85.641;   -3.942;  589.829
315.468;   84.333;   -2.802;  652.090
316.066;   87.057;   -0.701;  694.427
316.664;   79.999;   -4.362;  656.351
317.261;   83.978;   -2.872;  910.128
317.859;   78.649;   -2.022;  768.735
318.456;   79.864;   -0.531;  830.096
319.054;   76.032;   -3.912;  787.828
319.651;   74.688;   -4.752;  759.928
320.249;   73.316;   -2.602;  810.188
320.846;   70.990;   -0.821;  714.286
321.443;   68.589;   -4.642;  832.135
322.041;   64.850;   -5.002;  812.315
322.638;   62.390;   -3.982;  701.456
323.235;   64.029;   -3.411;  665.683
323.833;   61.410;   -7.361;  740.354
324.430;   56.070;   -8.611;  615.900
325.027;   57.446;   -4.061;  876.855
325.624;   57.034;   -4.031;  644.532
326.221;   53.440;   -7.481;  689.717
326.818;   53.161;   -5.281;  818.332
327.415;   56.598;   -7.460;  748.828
328.012;   55.710;   -5.510;  690.585
328.609;   54.643;   -7.880;  731.389
329.206;   51.635;   -8.331;  778.621
329.803;   51.999;   -5.121;  737.841
330.400;   55.583;   -4.510;  704.260
330.997;   57.489;   -6.441;  817.147
331.594;   55.861;   -8.831;  788.185
332.191;   60.586;   -7.621;  728.722
332.787;   64.035;   -4.591;  844.463
333.384;   63.489;   -7.412;  763.093
333.981;   61.891;   -8.293;  815.687
334.578;   64.408;   -7.052;  708.378
335.174;   66.800;   -3.102;  731.469
335.771;   65.888;   -5.943;  836.456
336.367;   62.790;   -7.393;  710.631
336.964;   66.589;   -4.063;  793.266
337.561;   65.166;   -3.813;  731.112
338.157;   60.459;   -4.654;  911.916
338.754;   59.198;   -7.934;  796.589
339.350;   57.226;   -4.414;  722.493
339.946;   58.197;   -4.664;  773.135
340.543;   51.890;   -6.375;  846.136
341.139;   45.423;   -9.815;  720.836
341.735;   42.962;   -4.526;  772.593
342.332;   42.327;   -4.895;  691.472
342.928;   42.586;   -4.295;  795.394
343.524;   35.762;   -5.476;  761.684
344.120;   32.080;   -5.856;  738.562
344.716;   35.282;   -2.155;  723.717
345.313;   32.964;   -6.275;  795.342
345.909;   27.224;   -8.815;  627.336
346.505;   28.940;   -5.305;  740.247
347.101;   29.161;   -2.674;  827.864
347.697;   29.577;   -4.344;  785.398
348.293;   24.918;   -9.975;  627.244
348.889;   25.627;   -5.774;  745.914
349.485;   24.701;   -5.004;  688.205
350.081;   25.170;   -4.704;  772.592
350.676;   20.348;   -6.635;  691.606
351.272;   24.385;   -4.504;  809.530
351.868;   23.686;   -3.914;  780.497
352.464;   22.024;   -9.044;  723.932
353.059;   17.670;   -8.314;  646.017
353.655;   21.881;   -7.024;  777.063
354.251;   21.637;   -5.343;  759.845
354.846;   16.518;   -8.604;  740.646
355.442;   14.176;   -6.945;  753.071
356.038;   15.370;   -7.564;  751.708
356.633;   15.841;   -5.814;  728.594
357.229;   14.142;   -7.364;  724.757
357.824;   12.136;   -8.024;  703.600
358.420;   11.552;   -9.384;  679.726
359.015;   12.294;   -5.104;  695.357
359.610;   12.950;   -6.854;  763.920
360.206;    6.985;  -10.185;  603.240
360.801;   10.284;   -7.054;  646.503
361.396;   12.244;   -5.034;  725.975
361.992;    7.910;   -8.284;  668.220
362.587;    5.273;   -8.625;  670.160
363.182;    6.017;   -7.674;  689.631
363.777;    7.187;   -5.164;  738.242
364.372;    7.009;   -8.604;  737.314
364.967;    3.114;   -9.055;  680.744
365.563;    7.601;   -6.114;  815.567
366.158;    4.419;   -5.814;  685.161
366.753;    5.577;   -7.854;  649.263
367.348;    4.146;   -7.804;  746.056
367.942;    2.562;   -7.954;  697.298
368.537;    3.130;   -4.984;  754.245
369.132;    2.097;   -8.564;  703.428
369.727;   -1.797;   -8.855;  638.079
370.322;   -0.554;   -6.245;  580.186
370.917;   -0.553;   -6.425;  710.646
371.511;    3.456;   -6.294;  861.834
372.106;   -0.798;   -7.685;  776.964
372.701;   -5.181;   -7.335;  585.988
373.296;    0.483;   -4.564;  863.135
373.890;   -3.381;  -10.235;  647.840
374.485;   -6.005;   -7.885;  691.199
375.079;   -1.757;   -7.324;  738.685
375.674;   -0.565;   -3.494;  812.970
376.268;   -4.216;   -8.525;  691.759
376.863;   -9.929;  -10.086;  580.327
377.457;   -4.721;   -7.025;  662.490
378.052;   -7.068;   -3.585;  764.884
378.646;   -6.579;   -7.595;  741.167
379.240;   -7.543;   -8.335;  721.176
379.835;   -7.263;   -5.785;  636.978
380.429;   -8.708;   -4.335;  562.557
381.023;   -8.691;   -6.805;  779.205
381.617;  -10.447;   -9.195;  680.106
382.212;   -7.404;   -6.905;  685.303
382.806;   -7.416;   -3.745;  760.690
383.400;  -10.748;   -7.745;  672.281
383.994;  -11.638;   -9.765;  664.870
384.588;   -8.364;   -6.564;  697.701
385.182;   -7.080;   -5.344;  726.624
385.776;   -8.188;   -8.514;  706.875
386.370;  -11.525;   -9.555;  681.968
386.964;  -10.843;   -8.715;  684.155
387.558;   -9.221;   -6.174;  598.360
388.152;  -12.555;   -8.725;  681.959
388.745;  -10.080;   -7.965;  814.707
389.339;   -8.437;   -5.924;  747.642
389.933;   -8.596;   -5.524;  695.370
390.527;   -9.415;   -7.114;  859.029
391.120;  -15.130;  -10.725;  595.318
391.714;  -12.351;   -8.035;  711.633
392.308;   -8.427;   -3.574;  780.253
392.901;  -12.586;   -7.245;  642.460
393.495;  -14.719;   -9.285;  595.414
394.089;  -12.115;   -5.895;  760.452
394.682;  -12.513;   -4.295;  697.188
395.275;  -14.474;   -9.875;  719.927
395.869;  -14.604;   -8.485;  667.314
396.462;  -13.539;   -7.455;  616.609
397.056;   -9.270;   -5.424;  776.621
397.649;  -14.847;   -6.605;  731.575
398.242;  -12.236;   -8.224;  712.645
398.836;  -10.863;   -7.474;  766.408
399.429;  -12.457;   -7.094;  631.041
400.022;  -15.006;   -9.475;  665.902
400.615;  -12.645;   -7.145;  805.609
401.208;  -11.478;   -7.174;  691.451
401.802;  -13.088;   -5.515;  699.329
402.395;  -14.151;   -9.875;  683.502
402.988;  -15.540;   -8.845;  696.627
403.581;  -12.072;   -8.874;  646.878
404.174;  -10.190;   -5.324;  686.568
404.767;  -12.817;   -9.575;  638.583
405.360;  -16.027;  -10.965;  621.445
405.953;  -10.145;   -8.764;  759.034
406.545;   -9.982;   -7.514;  725.342
407.138;  -13.450;  -10.025;  618.350
407.731;  -12.747;  -10.034;  613.303
408.324;   -8.825;   -9.374;  660.554
408.917;  -10.252;   -6.534;  681.864
409.509;  -11.109;   -8.004;  740.396
410.102;  -13.218;   -9.875;  643.948
410.695;   -6.991;   -8.604;  665.758
411.287;   -8.597;   -6.794;  599.821
411.880;  -10.047;   -9.334;  585.421
412.472;  -12.942;  -10.254;  613.092
413.065;   -9.795;   -6.714;  629.408
413.657;   -8.098;   -7.234;  576.678
414.250;   -7.236;  -10.544;  646.681
414.842;   -9.735;   -9.744;  676.353
415.434;   -7.128;   -6.994;  570.463
416.027;   -2.653;   -5.893;  652.196
416.619;   -5.784;   -7.264;  713.400
417.211;   -5.959;  -10.374;  599.352
417.804;   -2.030;   -7.993;  628.499
418.396;   -6.146;   -7.234;  607.643
418.988;   -3.801;   -9.443;  659.238
419.580;   -7.400;  -10.724;  568.276
420.172;   -5.575;  -10.323;  536.196
420.764;   -1.812;   -8.793;  672.482
421.356;   -2.415;  -11.143;  636.898
421.948;   -3.003;   -8.293;  677.661
422.540;    1.918;   -7.893;  680.027
423.132;    1.731;   -7.082;  600.641
423.724;   -2.057;   -8.653;  561.267
424.316;    0.195;  -10.213;  621.345
424.908;    3.399;   -9.762;  591.517
425.500;    4.377;   -5.572;  647.978
426.092;    4.309;   -8.422;  648.268
426.683;    3.296;   -9.283;  684.836
427.275;    6.088;   -7.852;  641.471
427.867;    7.274;   -5.272;  668.948
428.458;    8.013;   -7.682;  732.344
429.050;    7.074;  -10.612;  680.749
429.642;    8.386;   -9.882;  743.124
430.233;    8.698;   -6.962;  569.356
430.825;   10.767;   -6.842;  724.809
431.416;    7.854;   -9.672;  698.241
432.008;   11.487;   -6.552;  651.723
432.599;   12.318;   -6.891;  656.073
433.190;    9.674;  -10.912;  637.670
433.782;    7.914;  -11.172;  590.395
434.373;   15.792;   -6.061;  884.765
434.964;   14.083;   -8.251;  602.920
435.556;   12.002;   -9.722;  634.537
436.147;   15.044;   -9.082;  758.490
436.738;   14.982;   -8.041;  701.099
437.329;   19.731;   -7.341;  721.723
437.920;   12.661;   -8.162;  666.688
438.511;   13.754;  -11.802;  564.526
439.103;   20.449;  -10.191;  623.998
439.694;   21.757;   -7.601;  681.583
440.285;   22.073;   -8.541;  764.432
440.876;   20.468;   -9.751;  845.738
441.466;   19.763;   -9.401;  575.162
442.057;   24.616;   -7.760;  665.814
442.648;   23.331;   -9.971;  746.255
443.239;   21.765;  -11.001;  620.477
443.830;   26.805;   -7.990;  704.958
444.421;   28.444;   -7.910;  655.474
445.011;   25.000;   -8.131;  693.619
445.602;   23.682;   -7.111;  743.126
446.193;   27.016;  -10.920;  488.117
446.783;   30.729;   -6.500;  640.397
447.374;   26.616;   -8.671;  692.759
447.964;   27.566;  -10.781;  713.770
448.555;   35.162;   -9.650;  822.742
449.145;   32.078;   -8.660;  662.853
449.736;   33.194;   -8.990;  803.179
450.326;   32.945;   -9.500;  713.626
450.917;   37.804;   -8.680;  675.324
451.507;   36.138;   -7.520;  600.661
452.097;   37.591;   -8.590;  746.267
452.688;   38.809;  -11.340;  742.160
453.278;   37.993;  -10.100;  566.840
453.868;   42.225;   -6.019;  793.550
454.458;   40.473;   -9.440;  651.141
455.048;   40.860;  -10.560;  711.783
455.639;   42.981;  -11.799;  567.096
456.229;   45.436;   -6.899;  710.694
456.819;   48.021;   -7.389;  751.158
457.409;   47.464;  -11.119;  773.993
457.999;   50.085;   -9.289;  737.505
458.589;   50.276;   -6.139;  686.606
459.179;   50.632;   -8.729;  717.658
459.769;   48.820;   -9.789;  627.099
460.358;   53.197;  -10.259;  797.262
460.948;   53.373;   -7.299;  689.503
461.538;   54.780;  -10.289;  660.677
462.128;   52.912;  -11.269;  664.934
462.717;   60.105;   -9.368;  710.326
463.307;   62.178;   -7.908;  705.846
463.897;   58.529;   -9.599;  656.942
464.486;   57.770;   -9.769;  837.128
465.076;   62.616;   -8.048;  733.776
465.666;   65.885;   -9.358;  652.900
466.255;   63.100;   -7.919;  785.651
466.845;   62.468;  -11.689;  666.749
467.434;   65.607;   -7.818;  725.873
468.023;   66.428;   -7.678;  658.357
468.613;   64.277;  -10.939;  713.946
469.202;   67.746;  -10.118;  646.507
469.791;   73.070;   -9.108;  737.811
470.381;   73.886;   -6.058;  742.813
470.970;   74.212;  -10.428;  711.099
471.559;   73.136;  -10.268;  733.291
472.148;   77.204;   -8.448;  675.737
472.738;   80.423;   -6.917;  765.466
473.327;   78.511;  -11.978;  637.529
473.916;   78.570;  -11.888;  737.446
474.505;   83.596;   -9.437;  751.703
475.094;   86.153;   -6.747;  806.570
475.683;   85.403;   -9.367;  797.699
476.272;   86.713;  -12.637;  730.632
476.861;   88.828;  -10.027;  706.754
477.449;   95.312;   -8.716;  728.487
478.038;   89.849;   -9.577;  692.513
478.627;   91.102;   -9.718;  714.852
479.216;   98.549;   -8.947;  769.441
479.805;  101.123;   -6.256;  783.375
480.393;  101.013;   -7.937; 1008.945
480.982;  100.220;   -7.717;  874.501
481.571;  106.535;   -9.266;  858.333
482.159;  107.077;   -7.636;  705.386
482.748;  106.979;   -9.667;  821.385
483.336;  112.478;  -10.376;  858.209
483.925;  112.902;   -7.147;  774.373
484.513;  119.615;   -7.996;  758.962
485.102;  117.562;  -10.027;  810.965
485.690;  124.672;  -10.446; 1011.050
486.278;  126.624;   -8.446;  979.329
486.867;  127.593;   -6.356;  809.662
487.455;  131.258;   -9.136;  898.229
488.043;  132.152;  -10.646;  748.361
488.631;  140.980;   -7.456; 1005.079
489.220;  145.207;   -6.636;  908.626
489.808;  146.970;  -11.036;  741.415
490.396;  154.903;  -10.246;  914.645
490.984;  162.877;   -8.556;  830.161
491.572;  176.181;   -5.886;  940.315
492.160;  184.716;   -9.486;  919.081
492.748;  196.295;  -10.976;  884.341
493.336;  221.937;   -8.776; 1019.693
493.924;  258.324;   -5.465;  958.077
494.512;  302.605;   -9.986; 1066.638
495.100;  353.720;  -10.636; 1103.280
495.687;  430.394;  -10.885; 1206.373
496.275;  526.469;   -8.126; 1150.796
496.863;  613.735;  -10.586; 1281.171
497.451;  738.198;  -11.926; 1386.805
498.038;  857.723;  -10.885; 1556.729
498.626; 1011.121;   -6.315; 1741.407
499.214; 1249.955;   -7.326; 2016.609
499.801; 1522.780;  -11.906; 2220.633
500.389; 1884.433;  -10.466; 2312.494
500.976; 2209.813;   -5.236; 2744.849
501.564; 2745.845;   -8.936; 3148.565
502.151; 3460.368;  -13.176; 3515.999
502.738; 3895.275;  -10.646; 3971.274
503.326; 4298.519;   -9.525; 4403.796
503.913; 4728.311;  -10.856; 5161.749
504.500; 5336.334;  -11.586; 5986.420
505.088; 6042.349;  -10.336; 6381.201
505.675; 7021.172;   -6.355; 6925.547
506.262; 7575.830;   -9.046; 7619.060
506.849; 8050.795;  -10.416; 8733.969
507.436; 8641.294;  -10.305; 9790.121
508.023; 9081.533;   -5.496; 9985.472
508.610; 9087.674;   -7.856;10434.618
509.197;10091.771;  -10.097;11198.435
509.784;11642.793;  -10.886;12391.194
510.371;13156.990;   -9.315;13603.713
510.958;14351.845;   -9.936;14426.586
511.545;15015.922;   -9.326;15243.775
512.132;15199.208;  -10.075;15945.876
512.719;15754.449;   -7.796;16340.369
513.305;17159.938;  -10.606;18011.766
513.892;18667.467;  -11.486;19754.971
514.479;19841.707;   -9.126;20967.805
515.066;21189.119;   -6.026;22299.793
515.652;21113.629;   -8.466;22908.660
516.239;21425.305;  -10.886;23798.875
516.825;23018.070;  -11.496;25567.275
517.412;24667.902;   -5.796;28154.959
517.998;25795.922;  -10.506;28344.111
518.585;26632.680;  -10.076;27134.219
519.171;25842.092;   -8.315;27268.576
519.758;26326.311;   -8.596;28964.129
520.344;28999.021;   -8.466;30664.494
520.930;28093.459;  -11.006;32550.605
521.516;26118.197;  -10.495;35422.895
522.103;27800.588;   -5.526;38280.004
522.689;30124.938;   -8.746;37835.117
523.275;30716.715;  -11.376;37288.613
523.861;32191.121;  -11.156;37281.395
524.447;30532.961;   -8.135;37846.949
525.033;28587.457;   -7.896;38321.949
525.619;27462.760;  -12.476;38579.285
526.205;29033.857;   -9.516;40622.875
526.791;31839.824;   -6.926;42258.836
527.377;33609.594;   -8.346;42966.902
527.963;36158.320;   -8.717;42018.949
528.549;37807.066;  -11.016;42476.828
529.135;36155.023;   -8.536;41854.852
529.721;36033.727;   -9.666;41237.711
530.306;34563.547;  -10.066;41259.445
530.892;35563.805;  -11.356;41506.047
531.478;37250.715;   -6.596;43559.613
532.063;38889.535;   -8.836;47695.563
532.649;37222.395;  -10.047;50808.324
533.235;37707.809;   -9.746;51787.500
533.820;39655.387;   -6.566;52145.035
534.406;41245.020;  -10.817;51133.488
534.991;43337.102;   -9.416;49996.805
535.576;41662.297;   -9.036;48882.852
536.162;38458.973;   -6.156;46942.285
536.747;38635.340;  -11.607;45711.746
537.333;41230.969;  -11.787;48510.180
537.918;41506.727;  -12.437;50439.891
538.503;40306.820;   -7.196;50863.711
539.088;40242.680;  -10.556;50906.922
539.673;40310.789;   -8.767;52621.965
540.259;35847.047;  -10.026;52368.094
540.844;32454.684;   -7.416;50879.109
541.429;30037.125;   -9.467;52077.777
542.014;30479.637;   -9.527;52716.695
542.599;37180.109;   -9.946;52363.281
543.184;42548.930;   -7.927;53187.137
543.769;44894.461;   -9.297;54697.605
544.354;45712.301;  -10.127;53913.914
544.938;43558.434;   -9.267;49680.164
545.523;41379.063;   -6.506;47386.277
546.108;43057.332;   -9.787;49151.949
546.693;43808.910;  -11.587;51384.637
547.278;43675.461;  -10.986;51853.254
547.862;44119.309;   -8.206;51173.750
548.447;42685.824;  -10.067;51691.395
549.031;42207.004;   -9.637;52456.703
549.616;42597.031;   -9.926;52714.516
550.201;41880.625;   -6.347;52414.598
550.785;42913.770;   -7.917;52355.059
551.370;43668.594;  -10.867;54589.453
551.954;45745.320;   -9.047;58267.348
552.538;44854.125;   -7.827;59062.176
553.123;42571.656;  -10.287;58115.285
553.707;41382.141;  -12.178;56556.285
554.291;39398.027;   -8.717;56201.668
554.876;41155.027;   -7.457;55335.762
555.460;43423.848;  -10.387;54155.703
556.044;44942.148;   -9.618;53721.484
556.628;45141.207;  -11.567;53731.016
557.212;45633.598;   -8.097;54312.531
557.796;47763.992;  -11.077;53797.773
558.380;46102.402;  -11.108;56145.984
558.964;44181.719;   -9.057;57277.930
559.548;41839.391;   -6.977;56459.641
560.132;38610.785;  -11.457;54434.543
560.716;40336.840;  -11.378;54800.617
561.300;42736.914;   -9.577;57606.945
561.884;41577.531;   -7.127;58972.445
562.467;40367.586;   -7.118;57327.570
563.051;39145.031;  -13.358;54962.434
563.635;37076.785;  -10.178;52594.473
564.219;38422.125;   -7.837;50610.410
564.802;41677.297;  -11.398;49551.180
565.386;42425.422;  -12.788;48370.953
565.969;43637.648;   -9.077;48178.871
566.553;43181.906;   -6.207;49957.305
567.136;41671.617;   -8.568;50369.594
567.720;42382.695;  -11.868;49492.004
568.303;43347.191;   -8.268;50616.352
568.887;42669.152;   -8.698;50727.148
569.470;40272.563;   -6.808;51698.379
570.053;38014.148;  -13.188;52122.078
570.637;35840.020;  -12.037;52536.438
571.220;36491.070;   -8.577;51186.098
571.803;36728.324;   -8.498;51032.762
572.386;39000.422;  -10.498;49609.887
572.969;40187.664;   -9.388;48285.926
573.552;40828.855;   -8.338;47624.285
574.135;40519.324;   -8.518;45498.641
574.718;36939.863;  -13.628;41970.434
575.301;36482.590;  -10.893;41447.137
575.884;36025.320;   -8.158;40923.836
576.467;40219.020;  -10.328;45267.723
577.050;40501.129;  -13.058;48175.543
577.633;38814.555;   -9.458;47729.328
578.216;35604.508;   -8.928;47579.793
578.799;33628.762;   -9.358;47820.996
579.381;35168.855;  -11.388;48115.551
579.964;35212.996;  -11.718;47333.766
580.547;34176.441;   -8.588;46668.969
581.129;35269.109;   -8.859;44466.141
581.712;37098.418;  -10.729;44164.922
582.294;36541.953;  -11.118;46477.855
582.877;37340.277;   -5.218;48244.254
583.459;37777.457;   -8.679;47437.895
584.042;39308.777;  -10.709;46943.219
584.624;37757.977;  -11.669;46792.227
585.206;36536.457;   -8.218;46557.250
585.789;37034.633;  -10.569;45793.773
586.371;37343.332;  -11.859;43836.391
586.953;38706.883;  -10.719;42972.492
587.536;40197.414;   -7.198;42487.211
588.118;38771.355;   -8.720;42086.414
588.700;37612.090;  -10.439;43389.930
589.282;34960.977;   -9.198;43646.039
589.864;32793.355;   -9.199;43438.109
590.446;32890.965;  -11.319;43151.926
591.028;32487.434;  -11.159;42781.867
591.610;32390.764;  -11.779;42839.098
592.192;33854.043;   -7.668;42820.402
592.774;33377.938;  -11.949;40724.277
593.356;31499.826;  -12.129;39874.789
593.937;31536.139;  -10.669;39980.648
594.519;33986.188;   -6.509;42069.633
595.101;34135.898;  -10.849;42976.031
595.683;32845.961;  -11.679;44084.441
596.264;31917.133;   -9.049;43478.797
596.846;31831.969;   -8.849;43803.672
597.427;31625.701;   -9.570;42986.934
598.009;33379.613;  -12.620;42832.219
598.591;33264.758;  -10.039;42580.086
599.172;35413.887;  -10.369;43061.805
599.753;38028.250;   -9.140;41691.469
600.335;37392.273;  -11.430;40692.520
600.916;34915.582;   -9.939;39982.422
601.498;31680.707;   -8.479;40318.617
602.079;30788.957;  -10.920;40670.609
602.660;30333.094;  -11.480;41450.898
603.241;31236.064;  -11.699;41137.738
603.823;31775.637;   -9.579;38868.797
604.404;31539.316;  -10.620;38182.785
604.985;34338.020;  -10.450;38078.047
605.566;35152.117;   -9.129;38056.633
606.147;36144.207;   -7.510;37020.418
606.728;34967.109;  -10.660;37883.359
607.309;32887.133;  -11.740;38748.273
607.890;32451.691;   -9.759;38850.230
608.471;31282.656;   -8.250;37457.918
609.051;31578.748;   -9.240;36066.457
609.632;31338.865;  -12.120;35991.074
610.213;30777.297;   -9.110;37402.641
610.794;32112.613;   -8.030;38383.363
611.374;31157.660;   -8.110;40562.387
611.955;31146.377;  -13.560;38533.727
612.536;32278.074;  -11.400;36951.789
613.116;31635.949;   -8.070;37197.891
613.697;32224.691;  -10.830;38411.125
614.277;31990.162;  -11.641;38673.938
614.858;31339.682;  -13.310;37075.863
615.438;31439.631;   -7.460;35092.906
616.019;29488.258;   -7.601;33666.301
616.599;30119.596;  -12.020;34189.023
617.179;30007.645;  -11.780;36952.047
617.760;28574.510;   -8.570;39582.574
618.340;28497.059;  -11.471;38943.977
618.920;28771.777;  -11.170;37594.156
619.500;30089.531;  -11.071;37866.938
620.080;30606.080;   -7.750;37869.043
620.660;30869.424;  -12.711;36868.617
621.241;31529.229;  -10.211;36352.309
621.821;30830.420;  -10.961;35459.520
622.401;31080.676;   -7.720;35207.414
622.980;33079.750;   -8.981;35980.422
623.560;31707.217;   -9.331;37351.328
624.140;27402.023;   -9.850;34388.582
624.720;23366.531;   -7.451;32368.764
625.300;23002.750;   -9.070;32638.629
625.880;27308.697;  -12.601;34599.035
626.459;30899.648;  -11.751;36831.738
627.039;30967.707;   -9.281;38299.098
627.619;29786.441;   -8.801;38289.574
628.198;29713.727;  -12.071;37220.695
628.778;30399.338;   -9.461;37632.563
629.357;30964.871;   -8.491;38003.012
629.937;30775.922;   -9.721;38402.039
630.516;31927.090;   -9.951;37868.801
631.096;33604.211;  -11.731;35760.410
631.675;36060.262;   -8.572;35225.219
632.254;35436.094;  -11.282;35130.289
632.834;33705.457;  -13.322;35794.570
633.413;34438.148;  -10.301;35788.922
633.992;34600.961;   -8.582;34532.863
634.571;35120.113;   -8.352;33590.113
635.151;34440.289;  -11.912;34943.863
635.730;32573.137;  -10.511;35352.523
636.309;32644.723;   -7.731;35366.605
636.888;32115.529;   -9.952;36165.637
637.467;31107.123;  -11.672;37515.902
638.046;29526.064;   -8.901;39288.695
638.625;28758.820;   -7.912;38279.699
639.204;28086.619;  -10.022;37741.598
639.782;29480.697;  -12.252;38364.551
640.361;31651.301;  -10.041;36740.621
640.940;31617.701;  -11.161;34950.082
641.519;31295.006;   -9.701;34137.398
642.097;32415.648;  -11.271;35654.258
642.676;32304.037;   -8.651;35637.957
643.255;31250.645;   -8.711;36567.074
643.833;30997.643;   -9.581;37809.434
644.412;31918.215;  -13.711;37337.293
644.990;33465.359;  -11.811;37018.531
645.569;36131.719;   -9.411;36518.469
646.147;36819.293;  -10.291;36186.430
646.726;34885.797;  -12.401;36267.688
647.304;33297.316;  -10.411;36647.625
647.882;33900.078;   -9.651;39286.742
648.461;33579.395;   -9.631;39157.703
649.039;31312.369;  -11.881;35412.883
649.617;31083.531;   -9.661;34744.918
650.195;31453.049;   -9.301;35403.098
650.773;30930.664;  -10.511;35053.797
651.352;31117.271;  -11.521;33756.816
651.930;30081.006;  -12.211;31868.773
652.508;28997.500;   -9.171;33121.551
653.086;30310.863;   -9.371;33564.793
653.663;32336.209;  -13.161;34054.668
654.241;30990.586;  -13.031;35693.309
654.819;29121.205;   -9.371;36422.906
655.397;29737.711;  -10.511;38213.484
655.975;30001.326;  -10.371;39507.625
656.553;31230.146;  -10.051;39498.223
657.130;31790.918;  -10.061;40395.480
657.708;28621.555;   -9.561;39242.020
658.286;25585.979;  -11.511;38920.020
658.863;25914.627;  -10.261;40202.898
659.441;28854.188;   -7.531;39677.938
660.018;31266.248;   -9.501;40413.355
660.596;31971.711;  -13.301;39931.414
661.173;34520.293;  -11.211;39604.531
661.750;33521.039;   -9.951;39700.070
662.328;31093.176;   -9.390;39292.809
662.905;29682.512;  -11.330;38235.648
663.482;26619.852;   -9.050;36212.305
664.060;24610.816;   -8.240;35944.945
664.637;28938.852;  -10.050;35170.785
665.214;33746.168;  -11.760;34197.523
665.791;32462.850;  -10.530;34549.520
666.368;31870.846;   -9.690;35118.578
666.945;32470.098;   -9.320;36019.418
667.522;33555.523;  -11.860;36048.438
668.099;32923.934;  -10.770;36243.914
668.676;32980.398;   -6.260;35958.875
669.253;34813.027;   -7.000;37384.730
669.830;35170.605;  -10.190;36779.629
670.407;34230.543;   -9.550;35231.289
670.984;33558.051;   -9.260;35544.270
671.560;31614.520;   -9.280;35466.867
672.137;29622.805;  -11.810;34280.863
672.714;29530.568;  -11.490;34632.863
673.290;30485.121;   -7.740;35135.422
673.867;31142.287;  -10.660;36114.480
674.443;30376.311;  -12.230;36152.859
675.020;28838.648;  -10.450;35327.238
675.596;27345.543;   -9.260;35795.176
676.173;27929.402;  -10.780;35430.355
676.749;28588.129;  -13.690;33549.516
677.326;29929.893;  -11.980;32210.012
677.902;28053.451;   -8.630;32068.871
678.478;25965.576;  -10.730;32583.891
679.054;27535.186;  -10.520;32088.928
679.631;29102.951;  -11.920;30978.848
680.207;30392.324;   -7.490;33160.887
680.783;31073.021;   -9.860;35570.363
681.359;31624.814;  -13.380;36125.184
681.935;30974.670;  -12.480;35240.922
682.511;31604.967;   -7.900;34429.961
683.087;32029.303;   -7.710;34463.680
683.663;32585.932;  -11.480;34648.898
684.239;32204.172;  -14.090;34546.457
684.815;33092.293;   -7.560;35586.375
685.390;33173.539;   -9.910;35821.895
685.966;32729.131;  -11.159;35085.871
686.542;33171.199;  -11.169;34198.230
687.118;31626.719;   -5.959;32847.707
687.693;31887.611;  -10.329;32794.027
688.269;30904.563;  -12.059;33072.367
688.844;31763.945;  -10.909;33141.664
689.420;33150.902;   -8.019;33965.742
689.995;29990.125;   -8.399;34655.523
690.571;28867.789;  -10.949;33576.742
691.146;28198.764;   -9.619;32657.219
691.722;26304.119;   -8.999;32526.979
692.297;25489.326;  -11.589;33014.617
692.872;26268.342;  -11.739;34012.254
693.448;26711.838;  -11.059;34237.434
694.023;28698.656;  -10.139;34142.672
694.598;30737.521;   -9.029;34132.031
695.173;30203.277;  -13.319;34205.250
695.748;27576.203;  -10.169;32882.488
696.323;25483.273;   -8.339;32864.906
696.898;25116.133;   -8.169;33170.004
697.473;28060.652;  -12.309;32432.984
698.048;28005.695;  -10.989;31649.303
698.623;26955.805;   -9.329;30778.141
699.198;28161.730;   -9.849;31140.119
699.773;29179.971;  -12.329;31764.299
700.348;28785.885;  -10.389;31780.816
700.922;27158.889;   -9.269;32046.375
701.497;25949.082;   -9.329;32603.574
702.072;27887.125;  -10.789;34799.871
702.646;27916.316;  -10.839;35793.172
703.221;28333.250;   -9.099;35201.590
703.795;28790.379;  -10.939;34764.527
704.370;27213.637;  -12.859;34307.367
704.944;28256.160;  -11.559;33509.887
705.519;29525.914;   -7.939;31388.584
706.093;31651.594;  -10.499;31340.104
706.668;32856.762;  -11.289;32630.281
707.242;31760.146;  -11.509;32728.779
707.816;30272.355;   -9.639;32947.238
708.390;29900.680;  -11.429;33277.855
708.965;30972.143;  -11.869;33834.336
709.539;31104.459;  -11.689;33709.273
710.113;30365.158;  -10.478;33044.313
710.687;27443.102;  -10.228;31953.992
711.261;26549.551;  -13.698;30505.949
711.835;26381.814;  -13.378;30262.369
712.409;26515.811;   -9.698;31254.447
712.983;26496.006;  -11.898;32754.986
713.557;25623.398;  -15.138;34018.824
714.131;26864.447;  -14.098;34579.625
714.704;26561.391;   -9.958;33890.262
715.278;25825.414;  -10.028;33531.102
715.852;25025.990;  -11.148;33601.660
716.425;24460.156;   -9.068;33515.117
716.999;25864.400;  -10.038;33185.555
717.573;26402.404;   -9.798;33905.996
718.146;27392.727;  -12.378;35199.293
718.720;27982.689;  -11.918;35060.551
719.293;27077.256;   -8.088;34973.230
719.867;26260.900;  -10.888;36394.449
720.440;27454.813;  -11.938;36663.008
721.013;29664.857;  -12.818;35102.426
721.587;31229.908;  -10.298;33985.266
722.160;31129.904;  -10.048;33524.965
722.733;29141.947;  -12.108;32987.043
723.306;26491.041;  -10.818;33066.301
723.880;26737.168;   -8.908;33399.500
724.453;26136.939;   -9.878;33468.297
725.026;26440.795;  -11.188;33816.637
725.599;26631.463;  -11.678;32797.996
726.172;25862.498;   -9.618;33187.434
726.745;26722.553;   -8.258;35136.613
727.318;29773.332;  -12.978;35751.730
727.891;32146.338;  -12.148;35890.430
728.463;33157.496;   -8.968;34822.090
729.036;33197.047;  -10.188;32895.086
729.609;30773.021;  -11.788;31823.225
730.182;29249.547;  -11.788;31445.283
730.754;28705.113;  -10.268;32373.223
731.327;28469.168;   -9.998;33676.820
731.900;27718.957;  -12.228;33417.000
732.472;26716.227;  -13.848;31978.498
733.045;26563.232;   -8.698;30368.777
733.617;26057.477;  -10.607;30574.215
734.190;24488.465;  -11.507;31280.975
734.762;24432.244;  -13.647;31674.412
735.334;25503.852;   -9.767;31247.291
735.907;25511.709;   -9.897;29876.211
736.479;23673.555;  -11.637;29808.488
737.051;23685.219;   -9.567;30233.547
737.623;24829.238;   -8.187;31469.086
738.195;26611.727;  -11.187;31784.225
738.768;26951.184;  -12.337;32120.523
739.340;26370.254;  -12.227;32094.342
739.912;25906.236;  -11.057;31312.680
740.484;26839.781;  -10.207;31946.238
741.056;28094.420;  -10.047;32984.059
741.628;27539.424;  -13.627;33897.715
742.199;28104.688;   -7.177;33213.016
742.771;26363.027;  -10.797;31369.113
743.343;24552.002;  -11.997;31865.473
743.915;24463.779;  -12.867;32388.631
744.487;25039.801;   -7.617;31079.568
745.058;26522.313;   -9.557;30570.107
745.630;26218.779;   -9.877;29970.127
746.201;24728.479;  -14.177;29186.766
746.773;24474.697;   -9.237;28805.723
747.344;24826.506;   -9.847;29591.223
747.916;24945.537;  -11.657;31412.201
748.487;24324.676;  -10.587;32194.898
749.059;23984.439;   -8.707;32533.719
749.630;22717.820;  -10.537;32158.518
750.201;22851.326;  -11.687;30855.395
750.773;23004.965;  -11.647;28622.555
751.344;24506.889;   -7.147;28405.732
751.915;24622.988;   -9.757;28461.551
752.486;24041.201;  -12.427;27842.850
753.057;22281.334;  -12.227;27845.008
753.628;21658.221;  -10.417;27728.107
754.199;21715.582;  -11.767;27381.086
754.770;21384.717;  -11.187;25882.203
755.341;21181.355;  -10.507;25886.184
755.912;21486.010;   -9.387;26050.861
756.483;21587.867;  -10.647;26798.779
757.054;20808.744;  -11.837;27048.238
757.625;18977.594;  -12.716;26294.838
758.195;18602.309;   -9.666;26142.076
758.766;19669.131;   -8.656;26392.234
759.337;19493.059;  -12.856;26334.594
759.907;18799.471;  -13.366;27579.652
760.478;17954.711;   -8.576;28352.770
761.048;18294.729;  -10.526;27325.088
761.619;18766.361;  -11.116;26460.428
762.189;18308.494;  -12.136;26029.826
762.760;18205.752;   -9.456;26430.145
763.330;18258.814;   -7.136;26670.902
763.900;18119.785;  -11.786;26603.021
764.471;17498.861;  -11.546;25542.740
765.041;17332.043;   -8.096;24358.459
765.611;17445.250;   -8.876;23991.297
766.181;17409.576;  -12.196;24470.236
766.751;17789.125;  -11.636;24845.975
767.321;17734.262;  -10.156;24533.633
767.891;17453.230;  -11.766;24916.492
768.461;17134.395;  -14.936;24776.771
769.031;16241.509;  -12.356;24757.988
769.601;15880.271;   -7.526;24181.088
770.171;16295.284;  -10.766;23670.387
770.741;17064.746;  -13.176;22960.045
771.311;16659.332;  -10.616;22917.523
771.880;15281.284;   -9.576;23562.941
772.450;14633.230;  -10.336;24216.500
773.020;14803.431;  -13.516;24140.398
773.589;14685.809;  -13.466;24414.857
774.159;14195.513;   -8.686;23858.717
774.729;13575.015;   -9.476;22942.135
775.298;13646.844;  -13.666;22324.033
775.867;13887.661;  -11.716;21140.313
776.437;13405.240;   -9.906;20838.092
777.006;13235.151;  -12.166;20599.510
777.576;14389.301;  -12.356;20508.809
778.145;13654.047;  -11.646;20732.947
778.714;12370.514;   -8.226;21062.465
779.283;11896.026;   -9.556;20949.664
779.853;11705.196;  -14.116;20508.623
780.422;12009.073;  -11.506;20649.082
780.991;12450.083;   -9.556;21527.520
781.560;12949.701;   -9.095;22632.658
782.129;11916.636;  -12.135;23048.277
782.698;10840.879;  -10.865;23438.555
783.267;10307.865;   -9.335;23267.734
783.836;10518.225;  -11.045;22415.133
784.404;11114.563;  -13.865;20443.152
784.973;11337.450;  -13.095;19699.150
785.542;11314.551;  -11.575;19763.828
786.111;11176.917;   -9.705;20341.408
786.679;11016.794;  -12.105;20207.967
787.248;10669.364;  -12.455;19516.465
787.817;10440.369;  -11.535;18900.363
788.385;10305.827;   -9.765;17879.121
788.954;10231.139;  -14.005;17658.301
789.522;10088.880;  -11.955;17788.879
790.090; 9277.446;  -10.135;18118.277
790.659; 8607.394;  -10.975;18338.736
791.227; 8777.425;  -13.375;18508.615
791.795; 9155.512;  -12.375;17898.254
792.364; 9356.378;  -10.725;17295.133
792.932; 9678.731;   -9.715;16822.051
793.500; 9574.045;  -12.675;17040.148
794.068; 9919.155;  -13.495;17179.787
794.636;10079.799;  -10.885;16664.246
795.204; 9772.509;  -11.045;16524.545
795.772; 9739.140;  -13.175;17274.564
796.340; 9547.859;  -12.445;17891.002
796.908; 9761.983;   -9.735;17648.561
797.476;10076.756;   -9.815;17064.080
798.044; 9817.679;  -13.985;16672.777
798.612; 9489.034;  -13.115;17023.996
799.180; 8795.699;  -10.185;16561.615
799.747; 8494.571;   -9.055;15962.773
800.315; 8790.154;  -12.385;15296.992
800.883; 8325.890;  -15.035;14801.771
801.450; 7675.231;  -10.365;14534.430
802.018; 7485.322;   -9.855;14173.248
802.585; 7524.615;  -11.905;14029.547
803.153; 7772.347;  -11.585;13836.846
803.720; 7614.790;   -9.095;13567.324
804.287; 7531.099;   -9.135;13360.622
804.855; 7706.320;  -11.604;13681.981
805.422; 8096.643;  -11.794;13536.560
805.989; 8444.237;  -10.734;13355.958
806.556; 8515.498;  -10.444;13747.896
807.124; 8892.604;  -12.764;13987.376
807.691; 9437.325;  -12.964;14038.674
808.258; 9538.100;  -11.134;14120.152
808.825; 9515.722;   -9.854;13860.111
809.392; 9066.034;  -10.504;13268.790
809.959; 8300.192;  -13.054;12680.389
810.526; 7619.191;   -8.294;12427.308
811.093; 7053.542;   -8.394;12030.105
811.659; 6911.197;  -12.304;11653.664
812.226; 7096.424;  -13.944;11637.183
812.793; 7474.007;  -10.484;11611.521
813.360; 7567.826;  -10.144;11885.181
813.926; 7532.005;  -11.684;12770.539
814.493; 7452.705;  -13.644;12677.638
815.060; 7338.657;   -9.724;11974.336
815.626; 7503.121;   -9.854;11594.715
816.193; 7565.059;  -13.254;11579.474
816.759; 6957.035;  -13.204;11666.972
817.325; 6515.345;   -9.434;11325.530
817.892; 6415.125;  -10.134;11105.369
818.458; 6595.210;  -13.474;10843.928
819.024; 7021.676;  -11.854;10714.406
819.591; 7116.108;  -10.244;10469.165
820.157; 6939.686;  -10.704;10235.523
820.723; 6952.176;  -12.324;10847.563
821.289; 6838.234;   -9.444;11040.980
821.855; 6818.058;   -8.374;10357.100
822.421; 7094.014;  -10.234; 9978.918
822.987; 7081.790;  -13.294; 9754.177
823.553; 6832.525;  -10.884;10065.755
824.119; 6614.152;   -8.884;10036.294
824.685; 6108.221;   -6.784;10029.192
825.251; 5991.869;  -12.004;10199.230
825.816; 5649.714;  -11.474; 9820.189
826.382; 5401.904;   -9.174; 9297.248
826.948; 5698.790;   -9.214; 9381.347
827.513; 6138.563;  -10.774; 9450.726
828.079; 6193.355;  -11.924; 9472.444
828.645; 5946.823;  -10.543; 9292.643
829.210; 5778.167;  -10.533; 9065.341
829.776; 5701.038;  -10.753; 9132.620
830.341; 5854.436;  -10.173; 9092.878
830.906; 5914.863;  -10.743; 9078.557
831.472; 5682.702;  -11.113; 8534.535
832.037; 5277.962;  -10.603; 8677.874
832.602; 5108.032;  -13.323; 8628.692
833.167; 4874.428;  -10.823; 8879.031
833.733; 4741.288;  -10.113; 9189.790
834.298; 4598.004;  -13.583; 9052.608
834.863; 4766.491;  -12.703; 8895.087
835.428; 4941.531;  -10.523; 8824.266
835.993; 4822.490;   -6.963; 8845.385
836.558; 4776.128;  -10.763; 8888.563
837.123; 4952.557;   -9.903; 8966.582
837.688; 5319.982;   -9.913; 8617.860
838.253; 5352.087;  -10.283; 8590.699
838.817; 4983.479;  -12.963; 8443.797
839.382; 4835.791;  -14.243; 8799.356
839.947; 4968.057;  -10.733; 8810.595
840.511; 4981.812;   -9.383; 8796.394
841.076; 4840.326;  -12.563; 8347.231
841.641; 4674.759;  -12.953; 8224.330
842.205; 4546.864;   -7.043; 8223.349
842.770; 4349.501;   -8.163; 8622.107
843.334; 4517.840;  -12.503; 8410.386
843.898; 4672.093;  -11.693; 8337.465
844.463; 4254.611;  -10.203; 8506.283
845.027; 3977.861;   -9.533; 8280.962
845.591; 4004.104;  -13.443; 8231.141
846.156; 4031.086;  -13.143; 7969.179
846.720; 3864.185;   -9.433; 7768.278
847.284; 3799.452;  -11.033; 7630.957
847.848; 3817.730;  -10.403; 7472.395
848.412; 3653.029;  -11.553; 7437.394
848.976; 3547.183;   -8.393; 7674.592
849.540; 3501.836;   -8.713; 7836.011
850.104; 3467.057;  -12.463; 7913.669
850.668; 3527.456;  -12.973; 7694.508
851.232; 3509.054;  -10.793; 7756.887
851.796; 3553.939;  -10.662; 7926.545
852.359; 3658.912;  -13.082; 7827.844
852.923; 3644.454;  -12.192; 7641.163
853.487; 3631.282;  -11.912; 7342.501
854.050; 3463.401;  -10.892; 7042.820
854.614; 3522.446;  -13.992; 7151.338
855.177; 3627.651;  -11.732; 7105.077
855.741; 3508.639;   -8.962; 6989.675
856.304; 3378.442;   -9.442; 6596.634
856.868; 3265.715;  -14.192; 6356.272
857.431; 3208.214;  -12.702; 6468.571
857.995; 3202.965;   -9.942; 6373.210
858.558; 3275.845;   -9.112; 6324.448
859.121; 3151.005;  -12.932; 6408.327
859.684; 2971.259;  -13.442; 6347.886
860.247; 2914.557;  -10.632; 6321.264
860.810; 2882.650;  -11.272; 6301.903
861.374; 2847.811;   -9.832; 6607.881
861.937; 2791.083;  -11.762; 6408.200
862.500; 2803.197;   -9.722; 6572.639
863.062; 2793.718;  -10.512; 6387.297
863.625; 2784.248;  -11.232; 6190.836
864.188; 2807.382;  -14.112; 5807.254
864.751; 2819.496;  -11.302; 5682.413
865.314; 2706.200;  -10.112; 5547.492
865.876; 2553.288;  -12.182; 5500.150
866.439; 2413.160;  -10.722; 5415.909
867.002; 2330.142;   -9.252; 5501.567
867.564; 2399.829;   -9.572; 5413.946
868.127; 2450.222;  -13.142; 5160.325
868.689; 2536.491;  -12.902; 5133.183
869.252; 2666.527;   -9.732; 5252.382
869.814; 2611.750;   -9.432; 5297.141
870.377; 2513.991;  -11.552; 5390.919
870.939; 2502.872;   -9.052; 5599.898
871.501; 2437.620;  -10.982; 5248.336
872.063; 2315.159;  -12.292; 4854.235
872.626; 2260.468;  -14.912; 4817.074
873.188; 2179.833;  -13.112; 4987.732
873.750; 2162.222;  -13.442; 4868.651
874.312; 2128.838;   -9.402; 4779.330
874.874; 2155.084;  -11.062; 4866.348
875.436; 2165.196;  -13.931; 4718.887
875.998; 2136.983;   -9.561; 4660.005
876.560; 2151.613;  -11.321; 4462.964
877.122; 2098.326;  -12.221; 4145.042
877.683; 1917.249;  -12.191; 4056.481
878.245; 1540.309;  -12.101; 3950.740
878.807; 1213.455;   -8.971; 4058.958
879.369; 1034.914;  -12.071; 3954.677
879.930; 1030.841;  -14.621; 3941.495
880.492; 1137.187;  -10.311; 4067.014
881.053; 1267.298;  -10.901; 3859.633
881.615; 1333.125;  -14.411; 3776.071
882.176; 1313.319;  -13.761; 3734.750
882.738; 1284.310;   -9.181; 3678.489
883.299; 1317.463;  -11.791; 3405.407
883.860; 1366.333;  -13.121; 3351.106
884.422; 1336.327;  -11.211; 3394.044
884.983; 1267.771;  -10.091; 3166.443
885.544; 1230.911;   -8.461; 3189.802
886.105; 1178.619;  -12.361; 3160.360
886.666; 1128.495;  -14.141; 3093.059
887.227; 1105.760;  -11.361; 2941.957
887.788; 1053.311;  -11.401; 2974.836
888.349;  965.927;  -13.791; 2721.214
888.910;  929.975;  -13.191; 2696.493
889.471;  897.646;   -9.881; 2560.172
890.032;  903.933;   -9.881; 2558.190
890.593;  899.133;  -10.371; 2567.669
891.153;  815.181;  -13.301; 2460.307
891.714;  705.377;  -11.431; 2372.046
892.275;  664.156;  -11.291; 2309.505
892.835;  677.588;  -11.471; 2382.543
893.396;  667.981;  -11.541; 2295.502
893.956;  638.167;  -11.181; 2162.420
894.517;  598.782;  -11.741; 2125.439
895.077;  548.048;  -11.671; 2086.978
895.638;  506.964;  -11.311; 2126.316
896.198;  492.617;   -9.831; 1838.275
896.758;  477.224;   -8.421; 1892.813
897.319;  458.063;  -12.351; 1792.232
897.879;  438.422;  -13.511; 1762.751
898.439;  403.646;  -12.001; 1661.149
898.999;  381.871;  -10.180; 1781.468
899.559;  377.896;  -12.030; 1703.347
900.119;  369.635;  -15.710; 1537.525
900.679;  357.180;   -8.900; 1638.384
901.239;  337.873;   -8.340; 1527.902
901.799;  309.419;  -13.910; 1456.441
902.359;  286.355;  -13.460; 1357.140
902.919;  277.755;  -11.490; 1331.118
903.479;  277.448;  -12.110; 1317.257
904.038;  272.594;  -11.720; 1262.595
904.598;  262.673;  -13.610; 1152.034
905.158;  252.098;  -11.040; 1240.893
905.717;  235.521;  -10.900; 1233.691
906.277;  225.838;  -15.080; 1217.330
906.836;  223.584;  -13.380; 1222.408
907.396;  220.619;  -10.780; 1193.047
907.955;  213.766;   -8.500; 1182.526
908.515;  207.510;  -12.760; 1099.364
909.074;  207.443;  -11.900; 1092.863
909.633;  207.046;   -8.950; 1069.121
910.192;  204.693;   -8.770; 1196.460
910.752;  193.610;  -12.390; 1029.960
911.311;  183.296;  -13.680; 1009.780
911.870;  173.382;  -12.370;  971.460
912.429;  167.945;  -10.900; 1094.080
912.988;  166.179;  -11.690; 1081.060
913.547;  163.587;  -13.240;  940.380
914.106;  162.126;  -11.990;  999.420
914.665;  158.165;   -9.990;  984.020
915.224;  154.252;  -12.880; 1035.760
915.782;  149.006;  -12.350;  922.560
916.341;  147.023;   -9.110; 1049.840
916.900;  144.684;   -9.270;  925.260
917.458;  144.556;  -13.240;  884.220
918.017;  144.513;  -13.550;  942.600
918.576;  143.387;  -12.320;  904.440
919.134;  142.436;  -11.490;  837.980
919.693;  141.320;  -13.670;  893.060
920.251;  141.201;  -15.470;  876.500
920.809;  140.054;  -11.290;  839.580
921.368;  140.862;  -10.210;  885.360
921.926;  137.622;  -12.140;  842.940
922.484;  136.075;  -13.080;  903.360
923.042;  135.245;  -11.720;  880.340
923.601;  135.467;   -7.480;  998.680
924.159;  132.482;  -11.570;  935.560
924.717;  131.688;  -13.840;  841.080
925.275;  131.358;  -10.640;  903.240
925.833;  129.420;  -11.540;  779.320
926.391;  131.550;  -12.960;  938.380
926.949;  131.349;  -14.130;  857.680
927.506;  131.796;  -11.750;  903.500
928.064;  130.451;  -10.250;  877.580
928.622;  131.631;  -13.030;  880.100
929.180;  134.247;  -13.400;  814.180
929.737;  135.259;  -10.700;  808.540
930.295;  138.757;  -10.070;  928.480
930.853;  138.130;  -11.960;  849.100
931.410;  138.529;  -13.120;  821.120
931.968;  139.712;  -10.770;  940.660
932.525;  140.689;  -10.680;  909.380
933.082;  140.073;  -13.130;  811.440
933.640;  141.799;  -13.210;  925.900
934.197;  140.906;  -11.060;  886.360
934.754;  141.158;   -9.580;  897.780
935.312;  143.868;  -14.000;  863.340
935.869;  144.828;  -10.710; 1012.980
936.426;  143.530;   -9.860;  872.800
936.983;  143.062;   -9.710;  889.020
937.540;  144.982;  -13.990;  838.280
938.097;  149.535;  -14.040;  940.120
938.654;  152.487;  -10.310;  898.860
939.211;  153.340;  -10.560;  952.480
939.768;  153.113;  -13.900;  915.420
940.324;  155.688;  -14.760;  904.200
940.881;  157.407;  -10.370;  878.500
941.438;  160.580;   -8.260; 1021.200
941.995;  160.377;  -12.540;  992.560
942.551;  159.837;  -14.670;  875.620
943.108;  160.908;  -10.450;  937.920
943.664;  161.753;  -10.750;  869.340
944.221;  166.322;  -11.550; 1088.140
944.777;  166.252;  -14.770;  869.680
945.334;  164.641;  -12.820;  884.840
945.890;  159.682;  -10.130;  946.480
946.446;  157.552;  -13.470;  947.020
947.003;  159.092;  -12.120;  964.940
947.559;  157.920;   -9.980; 1063.040
948.115;  154.313;   -9.080; 1026.540
948.671;  152.505;  -10.830;  967.300
949.227;  151.999;  -12.440;  859.560
949.783;  152.119;  -12.910;  858.900
950.339;  156.092;  -10.270;  991.000
950.895;  156.560;  -13.630; 1023.840
951.451;  155.173;  -15.100;  925.280
952.007;  153.891;  -11.330;  998.540
952.563;  150.266;  -10.580;  937.780
953.118;  147.530;  -13.440;  904.940
953.674;  146.766;  -12.710;  935.780
954.230;  149.386;  -10.350;  949.640
954.785;  151.981;   -9.190;  936.640
955.341;  154.333;  -11.200;  998.160
955.897;  148.549;  -16.560;  834.660
956.452;  146.850;  -12.570;  953.840
957.008;  143.431;   -7.970; 1083.640
957.563;  139.929;  -11.940; 1009.540
958.118;  135.195;  -13.450;  877.700
958.674;  134.149;  -12.030;  946.780
959.229;  134.698;   -9.410; 1013.980
959.784;  134.659;  -12.000;  832.400
960.339;  136.864;  -14.780; 1001.280
960.894;  134.042;   -9.860;  963.760
961.449;  129.998;   -9.970;  859.960
962.004;  131.051;  -10.900; 1212.840
962.559;  128.084;  -13.150;  860.140
963.114;  125.866;  -13.740;  742.480
963.669;  125.719;   -9.820;  915.500
964.224;  124.294;  -13.890;  874.340
964.779;  123.617;  -12.600;  828.420
965.334;  126.072;  -10.950; 1017.860
965.888;  123.728;  -11.170;  875.360
966.443;  123.859;  -12.540;  972.380
966.998;  120.868;  -15.780;  819.460
967.552;  120.072;   -9.760;  908.380
968.107;  117.362;   -9.060;  868.300
968.661;  117.922;  -11.950;  922.440
969.216;  115.199;  -12.800;  856.280
969.770;  112.605;  -11.210;  917.200
970.324;  112.764;  -11.610;  923.140
970.879;  113.585;  -11.370;  947.180
971.433;  115.780;  -12.540;  952.720
971.987;  114.189;  -11.320;  895.340
972.541;  111.508;  -10.720;  917.100
973.095;  111.275;   -9.680; 1009.460
973.649;  107.448;  -11.440;  809.480
974.203;  105.206;  -11.210;  829.040
974.757;  105.259;  -10.240;  855.220
975.311;  104.803;  -13.720;  872.600
975.865;  103.721;  -13.770;  881.820
976.419;  101.277;  -11.690;  857.400
976.973;   99.236;   -9.510;  849.620
977.526;   98.446;  -12.620;  949.920
978.080;   96.089;  -12.010;  796.780
978.634;   95.049;  -10.170;  921.320
979.187;   95.125;   -9.020;  905.400
979.741;   96.283;   -9.820; 1018.380
980.294;   94.800;  -14.870;  789.160
980.848;   92.987;  -12.380;  717.220
981.401;   94.114;  -10.350;  816.540
981.955;   93.316;  -13.720;  844.300
982.508;   88.897;  -11.490;  746.340
983.061;   88.835;  -10.000;  915.260
983.615;   86.624;  -11.480;  798.800
984.168;   85.392;  -13.220;  770.080
984.721;   84.088;  -13.960;  880.760
985.274;   81.882;  -10.870;  867.500
985.827;   80.036;   -9.790;  834.220
986.380;   78.383;  -13.120;  721.340
986.933;   77.025;  -12.450;  864.800
987.486;   76.590;  -10.210;  861.920
988.039;   77.286;   -8.430;  863.100
988.591;   76.075;  -10.520;  893.260
989.144;   74.056;  -14.860;  737.260
989.697;   73.104;  -13.080;  758.740
990.250;   72.251;  -10.150;  858.100
990.802;   70.518;  -13.430;  755.860
991.355;   69.784;  -12.750;  974.880
991.907;   67.812;  -12.040;  864.320
992.460;   65.840;  -11.330;  753.760
993.012;   65.295;  -13.610;  749.540
993.565;   64.066;  -13.460;  711.360
994.117;   64.025;   -9.360;  950.780
994.669;   61.153;  -11.300;  701.320
995.221;   60.664;  -13.540;  791.920
995.774;   60.329;  -13.430;  787.580
996.326;   57.490;  -12.520;  740.220
996.878;   57.460;  -10.950;  838.420
997.430;   55.041;  -14.300;  699.860
997.982;   53.407;  -13.760;  750.140
998.534;   53.640;  -11.530;  739.060
999.086;   52.258;  -10.310;  738.220
999.638;   51.789;  -12.530;  661.380
1000.190;   50.592;  -11.840;  699.320
1000.741;   50.751;  -10.260;  742.700
1001.293;   49.843;   -8.860;  686.020
1001.845;   49.651;  -13.700;  676.640
1002.396;   48.049;  -12.100;  743.400
1002.948;   48.329;  -12.760;  737.400
1003.500;   46.139;  -10.380;  723.780
1004.051;   46.945;  -11.900;  907.580
1004.603;   45.593;  -12.250;  791.820
1005.154;   43.000;  -13.210;  608.980
1005.705;   41.762;  -10.950;  723.960
1006.257;   41.644;  -13.880;  707.220
1006.808;   40.997;  -12.840;  685.460
1007.359;   40.527;  -10.570;  763.240
1007.910;   39.007;   -9.620;  646.640
1008.461;   39.580;  -13.630;  732.940
1009.013;   38.477;  -17.200;  588.340
1009.564;   39.011;  -10.200;  793.520
1010.115;   36.496;  -12.570;  597.040
1010.665;   36.419;  -15.150;  602.160
1011.216;   36.802;  -14.480;  667.920
1011.767;   35.619;  -11.340;  697.920
1012.318;   36.929;   -9.780;  736.980
1012.869;   35.722;  -12.380;  679.000
1013.419;   35.261;  -15.560;  603.120
1013.970;   35.962;  -11.010;  666.640
1014.521;   34.391;  -11.610;  620.620
1015.071;   34.675;  -13.450;  670.380
1015.622;   34.413;  -13.870;  635.460
1016.172;   34.221;  -11.610;  596.820
1016.723;   34.047;  -12.120;  614.380
1017.273;   33.084;  -13.620;  604.160
1017.823;   33.194;  -14.140;  650.340
1018.374;   32.596;  -12.800;  611.760
1018.924;   32.468;  -12.340;  716.880
1019.474;   33.450;  -11.410;  718.880
1020.024;   31.732;  -14.770;  657.580
1020.574;   32.654;   -9.780;  726.160
1021.124;   32.437;   -8.560;  673.580
1021.674;   31.711;  -15.190;  559.120
1022.224;   32.627;  -13.530;  708.940
1022.774;   31.423;  -13.280;  668.820
1023.324;   32.032;  -10.690;  753.520
1023.874;   32.962;  -10.240;  875.760
1024.423;   30.985;  -12.540;  613.700
1024.973;   30.149;  -10.010;  610.760
1025.523;   29.661;  -10.550;  620.960
1026.072;   29.542;  -13.560;  606.420
1026.622;   29.256;  -15.120;  675.740
1027.172;   30.741;  -11.260;  715.660
1027.721;   29.396;  -11.410;  601.220
1028.270;   29.711;  -13.530;  663.400
1028.820;   29.265;  -13.680;  638.080
1029.369;   28.480;  -13.520;  612.700
1029.918;   28.510;  -10.980;  649.840
1030.468;   28.130;  -13.530;  564.780
1031.017;   28.179;  -13.170;  634.800
1031.566;   27.951;  -12.200;  608.900
1032.115;   28.389;   -9.960;  694.500
1032.664;   27.221;  -13.210;  596.480
1033.213;   27.880;  -12.500;  735.420
1033.762;   27.294;  -11.910;  635.620
1034.311;   27.462;   -9.640;  677.220
1034.860;   27.363;  -13.310;  691.000
1035.408;   27.450;  -11.830;  722.720
1035.957;   27.454;  -12.000;  719.540
1036.506;   24.665;  -11.690;  530.800
1037.055;   27.748;  -10.990;  844.320
1037.603;   26.306;  -15.120;  664.000
1038.152;   25.018;  -12.450;  534.760
1038.700;   24.878;  -10.560;  585.740
1039.249;   24.623;  -11.080;  681.220
1039.797;   25.695;  -12.540;  633.360
1040.345;   25.486;  -11.920;  705.420
1040.894;   24.939;  -11.410;  625.300
1041.442;   24.265;  -14.320;  632.200
1041.990;   23.384;  -16.240;  559.160
1042.538;   22.962;  -11.680;  536.180
1043.087;   23.600;  -10.760;  570.860
1043.635;   24.868;  -11.850;  670.500
1044.183;   24.286;  -15.480;  586.400
1044.731;   23.091;  -11.770;  576.000
1045.279;   23.254;  -13.090;  674.920
1045.827;   25.154;  -12.440;  892.400
1046.374;   22.408;  -13.840;  515.420
1046.922;   21.924;  -13.220;  590.580
1047.470;   23.749;  -10.230;  691.300
1048.018;   22.815;  -14.590;  647.960
1048.565;   23.029;  -12.050;  708.600
1049.113;   21.513;  -11.650;  557.000
1049.660;   21.657;  -10.510;  629.660
1050.208;   22.484;  -13.310;  675.640
1050.755;   21.105;  -15.900;  606.580
1051.303;   22.280;  -11.430;  686.820
1051.850;   21.372;   -8.480;  635.120
1052.397;   19.851;  -15.010;  473.960
1052.945;   21.319;  -13.960;  617.760
1053.492;   22.231;  -13.150;  741.840
1054.039;   21.689;   -9.630;  720.180
1054.586;   20.352;  -13.680;  557.240
1055.133;   22.000;  -14.570;  693.140
1055.680;   20.591;  -13.820;  646.620
1056.227;   19.767;  -11.730;  542.780
1056.774;   20.878;  -12.480;  794.980
1057.321;   18.715;  -13.930;  523.260
1057.868;   19.861;  -11.690;  651.320
1058.415;   18.936;   -9.520;  651.980
1058.961;   20.099;  -13.160;  678.940
1059.508;   19.648;  -12.920;  643.820
1060.055;   19.340;  -11.920;  581.780
1060.601;   19.480;  -11.500;  624.300
1061.148;   19.147;  -14.330;  616.820
1061.694;   17.895;  -16.870;  592.580
1062.241;   18.524;  -10.330;  596.320
1062.787;   18.993;  -10.620;  663.140
1063.334;   19.568;  -10.110;  808.560
1063.880;   18.933;  -13.400;  668.360
1064.426;   18.237;  -10.680;  706.820
1064.972;   17.012;   -9.920;  601.340
1065.518;   16.784;  -10.980;  566.640
1066.065;   18.381;  -14.890;  624.460
1066.611;   16.280;  -12.870;  598.800
1067.157;   17.228;  -12.950;  641.860
1067.703;   17.235;  -13.540;  668.480
1068.249;   16.936;  -13.540;  605.220
1068.794;   17.747;  -12.600;  626.880
1069.340;   15.649;  -10.620;  578.960
1069.886;   16.475;  -12.830;  590.700
1070.432;   15.669;  -14.870;  541.720
1070.977;   15.549;  -11.980;  601.080
1071.523;   15.852;   -8.200;  573.060
1072.068;   16.079;  -12.330;  582.000
1072.614;   15.876;  -16.370;  527.760
1073.160;   16.154;  -11.100;  687.040
1073.705;   15.364;  -10.480;  572.520
1074.250;   14.987;  -14.520;  559.900
1074.796;   16.355;  -11.460;  655.160
1075.341;   16.088;  -11.950;  664.100
1075.886;   14.786;  -11.460;  594.240
1076.431;   14.349;  -13.770;  649.880
1076.976;   14.907;  -12.680;  639.220
1077.521;   14.220;  -13.170;  583.080
1078.067;   13.939;  -10.860;  579.400
1078.612;   14.471;  -13.920;  661.620
1079.156;   13.953;  -13.880;  601.540
1079.701;   14.759;  -13.120;  693.260
1080.246;   15.003;   -9.940;  696.300
1080.791;   14.128;  -14.740;  625.020
1081.336;   14.279;  -13.750;  659.320
1081.880;   13.672;  -13.400;  649.680
1082.425;   12.833;  -12.220;  573.480
1082.970;   14.747;  -11.610;  717.040
1083.514;   13.710;  -13.580;  597.000
1084.059;   12.705;  -12.810;  586.720
1084.603;   13.004;  -12.320;  565.840
1085.147;   13.691;  -13.190;  645.220
1085.692;   14.474;  -12.480;  716.800
1086.236;   12.186;  -13.020;  503.140
1086.780;   14.046;   -9.190;  751.440
1087.325;   13.147;  -12.480;  654.620
1087.869;   13.084;  -12.450;  610.700
1088.413;   13.281;  -12.240;  705.040
1088.957;   11.092;   -9.020;  543.400
1089.501;   13.419;  -10.320;  766.640
1090.045;   12.621;  -12.720;  726.480
1090.589;   10.361;  -13.690;  569.920
1091.133;   12.286;  -10.020;  673.340
1091.676;   12.019;  -12.330;  591.940
1092.220;   11.563;  -14.970;  600.920
1092.764;   12.350;  -12.430;  706.960
1093.307;   12.257;   -9.800;  673.780
1093.851;   10.066;  -14.970;  556.540
1094.395;   11.582;  -15.310;  683.140
1094.938;   11.075;  -10.370;  632.520
1095.482;   10.933;  -11.050;  559.800
1096.025;   11.697;  -11.840;  710.880
1096.568;   11.884;  -12.840;  779.280
1097.112;    9.978;  -14.700;  508.180
1097.655;   10.298;   -8.720;  603.000
1098.198;    9.761;  -13.610;  600.180
1098.741;   10.162;  -13.350;  612.860
1099.285;   10.984;  -11.230;  657.300
1099.828;    7.909;  -11.840;  439.400
1100.371;    9.138;  -10.840;  608.160
1100.914;    9.912;  -14.190;  682.660
1101.457;    9.504;  -11.240;  679.900
1101.999;    8.319;  -11.270;  584.680
1102.542;    9.476;  -11.480;  641.440
1103.085;    9.632;  -11.750;  658.500
1103.628;   10.347;  -11.400;  762.060
1104.170;    8.725;  -10.490;  588.280
1104.713;    9.105;  -10.600;  646.700
1105.256;    8.291;  -14.360;  557.440
1105.798;    8.420;  -13.210;  499.980
1106.341;    9.727;  -10.270;  728.900
1106.883;    8.149;  -12.200;  521.340
1107.425;    8.336;  -13.110;  668.180
1107.968;    7.752;  -12.840;  612.380
1108.510;    8.906;   -6.480;  684.960
1109.052;    6.682;  -13.940;  612.620
1109.594;    7.992;  -13.690;  554.440
1110.136;    8.170;  -11.880;  643.220
1110.679;    7.507;   -9.500;  633.080
1111.221;    8.411;  -14.160;  604.460
1111.763;    7.257;  -13.980;  559.220
1112.304;    7.151;  -13.880;  547.140
1112.846;    7.623;  -12.210;  666.240
1113.388;   10.150;  -11.390;  942.180
1113.930;    7.880;  -14.540;  694.200
1114.472;    7.387;  -12.640;  606.540
1115.013;    5.703;  -11.620;  551.280
1115.555;    6.233;  -13.640;  587.100
1116.097;    5.980;  -15.380;  579.480
1116.638;    7.424;  -12.640;  684.600
1117.180;    7.119;   -9.850;  667.740
1117.721;    5.988;  -13.690;  568.580
1118.262;    6.819;  -12.680;  677.960
1118.804;    6.825;  -12.530;  637.340
1119.345;    5.751;  -11.690;  578.400
1119.886;    6.860;  -13.380;  704.040
1120.427;    5.934;  -14.070;  589.020
1120.969;    5.559;  -13.500;  597.920
1121.510;    4.663;  -11.480;  563.060
1122.051;    6.287;  -12.830;  723.580
1122.592;    5.080;  -14.290;  655.420
1123.133;    4.616;  -12.400;  547.940
1123.673;    5.412;  -10.130;  706.480
1124.214;    5.755;  -12.930;  612.460
1124.755;    5.511;  -14.380;  639.460
1125.296;    6.020;  -14.000;  627.320
1125.836;    5.126;  -10.070;  691.500
1126.377;    5.319;  -12.640;  599.660
1126.918;    5.656;  -12.960;  614.980
1127.458;    4.050;  -13.350;  622.220
1127.999;    5.152;  -10.750;  656.980
1128.539;    5.010;  -12.350;  694.240
1129.079;    4.783;  -14.860;  632.720
1129.620;    4.011;  -13.840;  558.100
1130.160;    3.230;  -12.330;  539.480
1130.700;    4.673;  -14.530;  640.840
1131.240;    5.104;  -12.530;  643.700
1131.781;    4.276;  -14.450;  619.680
1132.321;    4.058;   -9.790;  599.120
1132.861;    3.173;  -14.860;  564.200
1133.401;    2.604;  -14.290;  593.940
1133.941;    3.344;  -11.750;  626.280
1134.481;    3.288;   -9.920;  597.580
1135.020;    3.514;  -12.290;  609.160
1135.560;    3.654;  -11.650;  674.940
1136.100;    2.984;  -16.270;  501.160
1136.640;    2.464;  -10.890;  510.480
1137.179;    2.463;  -14.180;  537.960
1137.719;    2.952;  -16.250;  605.400
1138.258;    2.259;  -14.230;  587.360
1138.798;    3.633;   -9.090;  663.780
1139.337;    1.577;  -15.130;  482.840
1139.877;    3.380;  -13.680;  642.360
1140.416;    4.653;  -11.320;  878.060
1140.955;    1.350;  -10.860;  535.380
1141.494;    2.448;  -12.920;  669.280
1142.034;    1.877;  -13.930;  583.520
1142.573;    3.177;  -11.440;  646.280
1143.112;    2.100;  -12.000;  553.480
1143.651;    1.933;  -13.670;  536.480
1144.190;    2.746;  -12.730;  691.640
1144.729;    1.744;  -14.560;  607.420
1145.267;    1.811;  -11.830;  584.900
1145.806;    3.287;  -12.230;  637.040
1146.345;    1.736;  -14.130;  635.020
1146.884;    1.187;  -11.590;  622.500
1147.422;    1.385;  -12.550;  533.060
1147.961;    2.663;  -11.180;  708.460
1148.500;    2.527;  -11.510;  669.720
1149.038;    2.284;  -11.640;  632.500
1149.577;    1.661;  -10.130;  698.640
1150.115;   -0.370;  -13.970;  452.280
1150.653;    1.621;  -14.520;  607.340
1151.192;    1.888;  -12.810;  552.920
1151.730;    1.054;   -9.100;  652.560
1152.268;    0.123;  -12.220;  589.520
1152.806;    0.582;  -14.140;  571.180
1153.344;   -0.203;  -12.350;  577.640
1153.882;    0.311;   -8.980;  600.060
1154.421;   -0.434;  -15.190;  470.620
1154.958;    0.443;  -15.210;  595.240
1155.496;    1.519;  -12.850;  645.280
1156.034;    0.810;   -9.940;  721.880
1156.572;    1.645;  -13.570;  667.060
1157.110;   -0.373;  -14.590;  473.940
1157.647;    0.638;  -13.030;  676.960
1158.185;   -0.157;  -12.140;  564.320
1158.723;   -1.267;  -14.390;  509.200
1159.260;    0.005;  -14.090;  701.700
1159.798;    0.418;  -11.920;  658.160
1160.335;   -0.189;  -11.110;  631.820

