
Integration time [ms]:   3.276
Averaging Nr. [scans]: 1000
Smoothing Nr. [pixels]: 0
Data measured with spectrometer [name]: 7414430SP
Wave   ;Sample   ;Dark     ;Reference
[nm]   ;[counts] ;[counts] ;[counts] 

288.544;  155.646;    7.793;  793.890
289.143;  158.518;    7.462;  681.602
289.742;  159.604;    8.602;  828.814
290.341;  146.405;    1.321;  789.841
290.940;  136.626;   -0.709;  730.702
291.538;  137.061;    0.881;  881.108
292.137;  136.491;    0.122;  792.581
292.736;  140.099;   -1.929;  975.101
293.335;  136.039;   -8.229;  735.086
293.934;  136.275;   -5.279;  781.677
294.532;  135.945;   -1.369; 1031.958
295.131;  122.132;   -7.641;  834.394
295.730;  122.605;   -8.420;  809.588
296.328;  121.766;   -5.611;  783.442
296.927;  120.649;   -5.781;  779.652
297.525;  121.527;   -6.361;  781.236
298.124;  111.631;  -11.382;  654.009
298.722;  116.148;   -7.641;  761.933
299.321;  114.528;   -6.811;  708.597
299.919;  111.977;   -6.991;  751.918
300.518;  108.049;  -10.362;  689.338
301.116;  108.983;   -9.581;  691.381
301.715;  109.371;   -4.891;  730.222
302.313;  108.327;   -8.801;  704.943
302.911;  104.510;   -8.522;  733.830
303.509;  108.916;   -6.171;  925.627
304.108;  105.427;   -7.311;  760.383
304.706;  106.041;   -8.321;  801.664
305.304;  100.060;  -10.222;  796.707
305.902;  106.678;   -6.021;  784.484
306.500;  100.957;   -4.971;  728.200
307.098;   97.899;   -7.061;  746.560
307.696;   97.404;   -8.801;  780.432
308.294;   98.631;   -6.411;  731.359
308.892;  100.148;   -2.901;  759.769
309.490;   96.203;   -5.041;  712.161
310.088;   93.180;   -5.002;  788.444
310.686;   98.875;   -2.041;  821.749
311.284;   94.394;   -2.351;  766.040
311.882;   91.236;   -4.422;  731.225
312.480;   88.206;   -4.192;  697.167
313.078;   90.008;   -1.172;  808.331
313.675;   90.951;   -2.601;  691.600
314.273;   85.641;   -1.312;  797.837
314.871;   84.321;   -3.942;  589.829
315.468;   83.705;   -2.802;  652.090
316.066;   85.976;   -0.701;  694.427
316.664;   79.420;   -4.362;  656.351
317.261;   81.962;   -2.872;  910.128
317.859;   78.504;   -2.022;  768.735
318.456;   78.844;   -0.531;  830.096
319.054;   73.693;   -3.912;  787.828
319.651;   73.805;   -4.752;  759.928
320.249;   71.872;   -2.602;  810.188
320.846;   70.341;   -0.821;  714.286
321.443;   66.845;   -4.642;  832.135
322.041;   64.133;   -5.002;  812.315
322.638;   61.917;   -3.982;  701.456
323.235;   62.644;   -3.411;  665.683
323.833;   59.992;   -7.361;  740.354
324.430;   55.286;   -8.611;  615.900
325.027;   56.165;   -4.061;  876.855
325.624;   56.079;   -4.031;  644.532
326.221;   52.754;   -7.481;  689.717
326.818;   52.122;   -5.281;  818.332
327.415;   55.660;   -7.460;  748.828
328.012;   54.388;   -5.510;  690.585
328.609;   53.648;   -7.880;  731.389
329.206;   50.960;   -8.331;  778.621
329.803;   50.665;   -5.121;  737.841
330.400;   53.829;   -4.510;  704.260
330.997;   56.653;   -6.441;  817.147
331.594;   55.007;   -8.831;  788.185
332.191;   59.914;   -7.621;  728.722
332.787;   63.086;   -4.591;  844.463
333.384;   62.101;   -7.412;  763.093
333.981;   60.494;   -8.293;  815.687
334.578;   63.047;   -7.052;  708.378
335.174;   65.779;   -3.102;  731.469
335.771;   64.529;   -5.943;  836.456
336.367;   62.355;   -7.393;  710.631
336.964;   65.138;   -4.063;  793.266
337.561;   64.371;   -3.813;  731.112
338.157;   59.319;   -4.654;  911.916
338.754;   58.301;   -7.934;  796.589
339.350;   56.637;   -4.414;  722.493
339.946;   57.335;   -4.664;  773.135
340.543;   49.868;   -6.375;  846.136
341.139;   45.239;   -9.815;  720.836
341.735;   41.657;   -4.526;  772.593
342.332;   40.353;   -4.895;  691.472
342.928;   41.273;   -4.295;  795.394
343.524;   34.484;   -5.476;  761.684
344.120;   30.172;   -5.856;  738.562
344.716;   34.443;   -2.155;  723.717
345.313;   31.859;   -6.275;  795.342
345.909;   26.064;   -8.815;  627.336
346.505;   28.500;   -5.305;  740.247
347.101;   28.236;   -2.674;  827.864
347.697;   28.620;   -4.344;  785.398
348.293;   23.791;   -9.975;  627.244
348.889;   24.514;   -5.774;  745.914
349.485;   23.334;   -5.004;  688.205
350.081;   23.965;   -4.704;  772.592
350.676;   19.837;   -6.635;  691.606
351.272;   23.715;   -4.504;  809.530
351.868;   23.392;   -3.914;  780.497
352.464;   20.876;   -9.044;  723.932
353.059;   16.732;   -8.314;  646.017
353.655;   20.392;   -7.024;  777.063
354.251;   20.435;   -5.343;  759.845
354.846;   15.678;   -8.604;  740.646
355.442;   13.383;   -6.945;  753.071
356.038;   15.200;   -7.564;  751.708
356.633;   14.972;   -5.814;  728.594
357.229;   13.054;   -7.364;  724.757
357.824;   11.648;   -8.024;  703.600
358.420;   11.123;   -9.384;  679.726
359.015;   11.277;   -5.104;  695.357
359.610;   12.522;   -6.854;  763.920
360.206;    6.417;  -10.185;  603.240
360.801;    8.888;   -7.054;  646.503
361.396;   11.029;   -5.034;  725.975
361.992;    6.266;   -8.284;  668.220
362.587;    4.259;   -8.625;  670.160
363.182;    6.197;   -7.674;  689.631
363.777;    6.176;   -5.164;  738.242
364.372;    6.268;   -8.604;  737.314
364.967;    2.635;   -9.055;  680.744
365.563;    6.276;   -6.114;  815.567
366.158;    3.831;   -5.814;  685.161
366.753;    4.227;   -7.854;  649.263
367.348;    2.315;   -7.804;  746.056
367.942;    2.622;   -7.954;  697.298
368.537;    1.392;   -4.984;  754.245
369.132;    1.848;   -8.564;  703.428
369.727;   -1.860;   -8.855;  638.079
370.322;   -1.526;   -6.245;  580.186
370.917;   -1.988;   -6.425;  710.646
371.511;    1.401;   -6.294;  861.834
372.106;   -2.123;   -7.685;  776.964
372.701;   -5.045;   -7.335;  585.988
373.296;    0.424;   -4.564;  863.135
373.890;   -4.344;  -10.235;  647.840
374.485;   -6.114;   -7.885;  691.199
375.079;   -3.318;   -7.324;  738.685
375.674;   -1.326;   -3.494;  812.970
376.268;   -6.017;   -8.525;  691.759
376.863;  -11.155;  -10.086;  580.327
377.457;   -5.387;   -7.025;  662.490
378.052;   -7.830;   -3.585;  764.884
378.646;   -7.824;   -7.595;  741.167
379.240;   -8.797;   -8.335;  721.176
379.835;   -7.317;   -5.785;  636.978
380.429;   -9.988;   -4.335;  562.557
381.023;   -9.515;   -6.805;  779.205
381.617;  -11.848;   -9.195;  680.106
382.212;   -8.494;   -6.905;  685.303
382.806;   -8.236;   -3.745;  760.690
383.400;  -11.586;   -7.745;  672.281
383.994;  -12.565;   -9.765;  664.870
384.588;   -8.746;   -6.564;  697.701
385.182;   -8.144;   -5.344;  726.624
385.776;   -9.207;   -8.514;  706.875
386.370;  -12.697;   -9.555;  681.968
386.964;  -11.880;   -8.715;  684.155
387.558;   -9.929;   -6.174;  598.360
388.152;  -13.064;   -8.725;  681.959
388.745;  -10.985;   -7.965;  814.707
389.339;  -10.264;   -5.924;  747.642
389.933;   -9.020;   -5.524;  695.370
390.527;   -9.779;   -7.114;  859.029
391.120;  -16.508;  -10.725;  595.318
391.714;  -13.791;   -8.035;  711.633
392.308;  -10.253;   -3.574;  780.253
392.901;  -13.923;   -7.245;  642.460
393.495;  -15.187;   -9.285;  595.414
394.089;  -13.146;   -5.895;  760.452
394.682;  -14.135;   -4.295;  697.188
395.275;  -14.905;   -9.875;  719.927
395.869;  -16.047;   -8.485;  667.314
396.462;  -14.502;   -7.455;  616.609
397.056;  -10.553;   -5.424;  776.621
397.649;  -15.375;   -6.605;  731.575
398.242;  -12.921;   -8.224;  712.645
398.836;  -11.976;   -7.474;  766.408
399.429;  -12.509;   -7.094;  631.041
400.022;  -16.473;   -9.475;  665.902
400.615;  -13.749;   -7.145;  805.609
401.208;  -12.207;   -7.174;  691.451
401.802;  -14.508;   -5.515;  699.329
402.395;  -15.396;   -9.875;  683.502
402.988;  -16.784;   -8.845;  696.627
403.581;  -13.745;   -8.874;  646.878
404.174;  -11.136;   -5.324;  686.568
404.767;  -14.551;   -9.575;  638.583
405.360;  -16.468;  -10.965;  621.445
405.953;  -11.299;   -8.764;  759.034
406.545;  -10.522;   -7.514;  725.342
407.138;  -14.990;  -10.025;  618.350
407.731;  -13.661;  -10.034;  613.303
408.324;  -10.070;   -9.374;  660.554
408.917;  -10.651;   -6.534;  681.864
409.509;  -11.987;   -8.004;  740.396
410.102;  -14.651;   -9.875;  643.948
410.695;   -8.143;   -8.604;  665.758
411.287;  -10.765;   -6.794;  599.821
411.880;  -10.688;   -9.334;  585.421
412.472;  -13.502;  -10.254;  613.092
413.065;  -10.931;   -6.714;  629.408
413.657;   -8.811;   -7.234;  576.678
414.250;   -8.126;  -10.544;  646.681
414.842;  -10.566;   -9.744;  676.353
415.434;   -8.709;   -6.994;  570.463
416.027;   -4.608;   -5.893;  652.196
416.619;   -6.425;   -7.264;  713.400
417.211;   -7.388;  -10.374;  599.352
417.804;   -3.120;   -7.993;  628.499
418.396;   -7.197;   -7.234;  607.643
418.988;   -5.765;   -9.443;  659.238
419.580;   -8.263;  -10.724;  568.276
420.172;   -6.692;  -10.323;  536.196
420.764;   -1.802;   -8.793;  672.482
421.356;   -3.359;  -11.143;  636.898
421.948;   -5.271;   -8.293;  677.661
422.540;    0.458;   -7.893;  680.027
423.132;   -0.006;   -7.082;  600.641
423.724;   -3.253;   -8.653;  561.267
424.316;   -1.194;  -10.213;  621.345
424.908;    2.165;   -9.762;  591.517
425.500;    2.028;   -5.572;  647.978
426.092;    2.659;   -8.422;  648.268
426.683;    1.609;   -9.283;  684.836
427.275;    5.838;   -7.852;  641.471
427.867;    6.314;   -5.272;  668.948
428.458;    6.731;   -7.682;  732.344
429.050;    4.852;  -10.612;  680.749
429.642;    7.090;   -9.882;  743.124
430.233;    7.377;   -6.962;  569.356
430.825;    8.706;   -6.842;  724.809
431.416;    6.182;   -9.672;  698.241
432.008;   10.572;   -6.552;  651.723
432.599;   10.277;   -6.891;  656.073
433.190;    7.976;  -10.912;  637.670
433.782;    7.360;  -11.172;  590.395
434.373;   14.274;   -6.061;  884.765
434.964;   12.735;   -8.251;  602.920
435.556;   10.614;   -9.722;  634.537
436.147;   13.234;   -9.082;  758.490
436.738;   13.403;   -8.041;  701.099
437.329;   18.539;   -7.341;  721.723
437.920;   11.652;   -8.162;  666.688
438.511;   10.797;  -11.802;  564.526
439.103;   17.720;  -10.191;  623.998
439.694;   19.676;   -7.601;  681.583
440.285;   20.519;   -8.541;  764.432
440.876;   18.438;   -9.751;  845.738
441.466;   18.383;   -9.401;  575.162
442.057;   23.878;   -7.760;  665.814
442.648;   21.904;   -9.971;  746.255
443.239;   19.897;  -11.001;  620.477
443.830;   24.529;   -7.990;  704.958
444.421;   26.898;   -7.910;  655.474
445.011;   22.822;   -8.131;  693.619
445.602;   23.499;   -7.111;  743.126
446.193;   24.983;  -10.920;  488.117
446.783;   28.742;   -6.500;  640.397
447.374;   24.399;   -8.671;  692.759
447.964;   25.186;  -10.781;  713.770
448.555;   33.787;   -9.650;  822.742
449.145;   30.267;   -8.660;  662.853
449.736;   31.220;   -8.990;  803.179
450.326;   30.942;   -9.500;  713.626
450.917;   35.667;   -8.680;  675.324
451.507;   34.563;   -7.520;  600.661
452.097;   35.857;   -8.590;  746.267
452.688;   36.334;  -11.340;  742.160
453.278;   35.826;  -10.100;  566.840
453.868;   40.248;   -6.019;  793.550
454.458;   38.183;   -9.440;  651.141
455.048;   38.839;  -10.560;  711.783
455.639;   39.807;  -11.799;  567.096
456.229;   43.613;   -6.899;  710.694
456.819;   45.980;   -7.389;  751.158
457.409;   45.886;  -11.119;  773.993
457.999;   48.671;   -9.289;  737.505
458.589;   48.609;   -6.139;  686.606
459.179;   47.815;   -8.729;  717.658
459.769;   46.088;   -9.789;  627.099
460.358;   51.329;  -10.259;  797.262
460.948;   50.703;   -7.299;  689.503
461.538;   52.612;  -10.289;  660.677
462.128;   50.153;  -11.269;  664.934
462.717;   57.048;   -9.368;  710.326
463.307;   60.578;   -7.908;  705.846
463.897;   56.170;   -9.599;  656.942
464.486;   54.530;   -9.769;  837.128
465.076;   59.787;   -8.048;  733.776
465.666;   62.972;   -9.358;  652.900
466.255;   61.011;   -7.919;  785.651
466.845;   59.166;  -11.689;  666.749
467.434;   64.096;   -7.818;  725.873
468.023;   63.661;   -7.678;  658.357
468.613;   61.481;  -10.939;  713.946
469.202;   65.780;  -10.118;  646.507
469.791;   70.555;   -9.108;  737.811
470.381;   71.061;   -6.058;  742.813
470.970;   71.910;  -10.428;  711.099
471.559;   70.957;  -10.268;  733.291
472.148;   74.083;   -8.448;  675.737
472.738;   77.079;   -6.917;  765.466
473.327;   76.883;  -11.978;  637.529
473.916;   75.347;  -11.888;  737.446
474.505;   80.268;   -9.437;  751.703
475.094;   83.221;   -6.747;  806.570
475.683;   82.369;   -9.367;  797.699
476.272;   83.771;  -12.637;  730.632
476.861;   86.421;  -10.027;  706.754
477.449;   92.747;   -8.716;  728.487
478.038;   87.160;   -9.577;  692.513
478.627;   88.291;   -9.718;  714.852
479.216;   95.067;   -8.947;  769.441
479.805;   97.477;   -6.256;  783.375
480.393;   97.531;   -7.937; 1008.945
480.982;   96.379;   -7.717;  874.501
481.571;  102.976;   -9.266;  858.333
482.159;  103.363;   -7.636;  705.386
482.748;  103.674;   -9.667;  821.385
483.336;  108.000;  -10.376;  858.209
483.925;  109.879;   -7.147;  774.373
484.513;  115.597;   -7.996;  758.962
485.102;  112.339;  -10.027;  810.965
485.690;  120.987;  -10.446; 1011.050
486.278;  121.961;   -8.446;  979.329
486.867;  123.493;   -6.356;  809.662
487.455;  125.923;   -9.136;  898.229
488.043;  127.305;  -10.646;  748.361
488.631;  136.661;   -7.456; 1005.079
489.220;  140.517;   -6.636;  908.626
489.808;  141.498;  -11.036;  741.415
490.396;  149.708;  -10.246;  914.645
490.984;  158.118;   -8.556;  830.161
491.572;  169.454;   -5.886;  940.315
492.160;  177.369;   -9.486;  919.081
492.748;  188.320;  -10.976;  884.341
493.336;  213.353;   -8.776; 1019.693
493.924;  246.522;   -5.465;  958.077
494.512;  288.370;   -9.986; 1066.638
495.100;  335.916;  -10.636; 1103.280
495.687;  407.431;  -10.885; 1206.373
496.275;  498.046;   -8.126; 1150.796
496.863;  583.933;  -10.586; 1281.171
497.451;  700.274;  -11.926; 1386.805
498.038;  817.424;  -10.885; 1556.729
498.626;  956.237;   -6.315; 1741.407
499.214; 1180.508;   -7.326; 2016.609
499.801; 1432.930;  -11.906; 2220.633
500.389; 1772.398;  -10.466; 2312.494
500.976; 2080.416;   -5.236; 2744.849
501.564; 2587.577;   -8.936; 3148.565
502.151; 3267.511;  -13.176; 3515.999
502.738; 3677.634;  -10.646; 3971.274
503.326; 4098.860;   -9.525; 4403.796
503.913; 4524.494;  -10.856; 5161.749
504.500; 5019.838;  -11.586; 5986.420
505.088; 5678.438;  -10.336; 6381.201
505.675; 6632.393;   -6.355; 6925.547
506.262; 7220.631;   -9.046; 7619.060
506.849; 7623.115;  -10.416; 8733.969
507.436; 8132.586;  -10.305; 9790.121
508.023; 8564.525;   -5.496; 9985.472
508.610; 8592.936;   -7.856;10434.618
509.197; 9564.173;  -10.097;11198.435
509.784;10984.873;  -10.886;12391.194
510.371;12425.042;   -9.315;13603.713
510.958;13522.577;   -9.936;14426.586
511.545;14083.495;   -9.326;15243.775
512.132;14329.124;  -10.075;15945.876
512.719;14861.013;   -7.796;16340.369
513.305;16098.663;  -10.606;18011.766
513.892;17628.232;  -11.486;19754.971
514.479;18912.309;   -9.126;20967.805
515.066;20252.547;   -6.026;22299.793
515.652;20302.779;   -8.466;22908.660
516.239;20687.318;  -10.886;23798.875
516.825;22055.047;  -11.496;25567.275
517.412;23606.209;   -5.796;28154.959
517.998;24813.832;  -10.506;28344.111
518.585;25702.971;  -10.076;27134.219
519.171;25088.455;   -8.315;27268.576
519.758;25683.113;   -8.596;28964.129
520.344;28323.094;   -8.466;30664.494
520.930;27389.100;  -11.006;32550.605
521.516;25613.514;  -10.495;35422.895
522.103;27397.670;   -5.526;38280.004
522.689;29862.160;   -8.746;37835.117
523.275;30940.189;  -11.376;37288.613
523.861;32982.582;  -11.156;37281.395
524.447;32614.975;   -8.135;37846.949
525.033;32728.840;   -7.896;38321.949
525.619;33381.266;  -12.476;38579.285
526.205;33568.246;   -9.516;40622.875
526.791;33046.336;   -6.926;42258.836
527.377;32830.672;   -8.346;42966.902
527.963;34403.535;   -8.717;42018.949
528.549;35796.684;  -11.016;42476.828
529.135;34323.023;   -8.536;41854.852
529.721;34335.699;   -9.666;41237.711
530.306;33129.902;  -10.066;41259.445
530.892;34088.980;  -11.356;41506.047
531.478;36059.570;   -6.596;43559.613
532.063;37783.316;   -8.836;47695.563
532.649;36058.172;  -10.047;50808.324
533.235;36310.820;   -9.746;51787.500
533.820;38374.621;   -6.566;52145.035
534.406;39932.918;  -10.817;51133.488
534.991;41980.211;   -9.416;49996.805
535.576;40555.402;   -9.036;48882.852
536.162;37736.195;   -6.156;46942.285
536.747;38038.816;  -11.607;45711.746
537.333;40690.875;  -11.787;48510.180
537.918;41418.750;  -12.437;50439.891
538.503;40773.238;   -7.196;50863.711
539.088;41251.203;  -10.556;50906.922
539.673;42252.441;   -8.767;52621.965
540.259;39346.434;  -10.026;52368.094
540.844;38616.945;   -7.416;50879.109
541.429;38371.711;   -9.467;52077.777
542.014;37938.891;   -9.527;52716.695
542.599;40883.531;   -9.946;52363.281
543.184;42337.980;   -7.927;53187.137
543.769;42512.879;   -9.297;54697.605
544.354;42686.141;  -10.127;53913.914
544.938;40761.852;   -9.267;49680.164
545.523;38959.512;   -6.506;47386.277
546.108;40518.234;   -9.787;49151.949
546.693;41388.219;  -11.587;51384.637
547.278;41562.793;  -10.986;51853.254
547.862;41938.328;   -8.206;51173.750
548.447;40240.082;  -10.067;51691.395
549.031;39913.973;   -9.637;52456.703
549.616;40528.734;   -9.926;52714.516
550.201;39905.414;   -6.347;52414.598
550.785;40971.039;   -7.917;52355.059
551.370;41817.941;  -10.867;54589.453
551.954;43772.184;   -9.047;58267.348
552.538;43063.289;   -7.827;59062.176
553.123;41138.164;  -10.287;58115.285
553.707;40142.125;  -12.178;56556.285
554.291;38039.617;   -8.717;56201.668
554.876;39398.098;   -7.457;55335.762
555.460;41315.543;  -10.387;54155.703
556.044;42688.980;   -9.618;53721.484
556.628;43149.941;  -11.567;53731.016
557.212;43740.887;   -8.097;54312.531
557.796;45556.629;  -11.077;53797.773
558.380;43921.234;  -11.108;56145.984
558.964;42434.965;   -9.057;57277.930
559.548;40139.410;   -6.977;56459.641
560.132;36912.801;  -11.457;54434.543
560.716;38334.004;  -11.378;54800.617
561.300;40681.117;   -9.577;57606.945
561.884;39454.961;   -7.127;58972.445
562.467;37997.156;   -7.118;57327.570
563.051;36788.832;  -13.358;54962.434
563.635;34974.613;  -10.178;52594.473
564.219;36597.813;   -7.837;50610.410
564.802;39969.453;  -11.398;49551.180
565.386;40607.449;  -12.788;48370.953
565.969;41737.305;   -9.077;48178.871
566.553;40866.590;   -6.207;49957.305
567.136;39192.891;   -8.568;50369.594
567.720;40011.426;  -11.868;49492.004
568.303;41186.645;   -8.268;50616.352
568.887;40560.680;   -8.698;50727.148
569.470;38324.367;   -6.808;51698.379
570.053;36062.836;  -13.188;52122.078
570.637;33924.496;  -12.037;52536.438
571.220;34344.180;   -8.577;51186.098
571.803;34414.703;   -8.498;51032.762
572.386;36035.648;  -10.498;49609.887
572.969;36709.359;   -9.388;48285.926
573.552;36588.676;   -8.338;47624.285
574.135;35130.777;   -8.518;45498.641
574.718;31693.455;  -13.628;41970.434
575.301;32890.430;  -10.893;41447.137
575.884;34087.406;   -8.158;40923.836
576.467;38645.402;  -10.328;45267.723
577.050;38901.547;  -13.058;48175.543
577.633;37534.371;   -9.458;47729.328
578.216;34362.699;   -8.928;47579.793
578.799;32236.072;   -9.358;47820.996
579.381;33707.941;  -11.388;48115.551
579.964;34166.723;  -11.718;47333.766
580.547;33007.570;   -8.588;46668.969
581.129;33605.816;   -8.859;44466.141
581.712;35403.352;  -10.729;44164.922
582.294;35152.160;  -11.118;46477.855
582.877;35742.059;   -5.218;48244.254
583.459;35847.441;   -8.679;47437.895
584.042;37327.004;  -10.709;46943.219
584.624;35600.258;  -11.669;46792.227
585.206;34555.441;   -8.218;46557.250
585.789;35495.199;  -10.569;45793.773
586.371;35862.105;  -11.859;43836.391
586.953;36668.457;  -10.719;42972.492
587.536;38033.945;   -7.198;42487.211
588.118;37183.699;   -8.720;42086.414
588.700;36122.371;  -10.439;43389.930
589.282;33387.668;   -9.198;43646.039
589.864;31120.854;   -9.199;43438.109
590.446;30902.627;  -11.319;43151.926
591.028;30350.490;  -11.159;42781.867
591.610;30072.006;  -11.779;42839.098
592.192;30334.172;   -7.668;42820.402
592.774;28250.371;  -11.949;40724.277
593.356;25468.672;  -12.129;39874.789
593.937;26152.469;  -10.669;39980.648
594.519;30426.277;   -6.509;42069.633
595.101;32122.984;  -10.849;42976.031
595.683;31576.324;  -11.679;44084.441
596.264;31113.967;   -9.049;43478.797
596.846;31018.432;   -8.849;43803.672
597.427;30882.926;   -9.570;42986.934
598.009;32602.646;  -12.620;42832.219
598.591;32589.365;  -10.039;42580.086
599.172;34604.688;  -10.369;43061.805
599.753;36893.707;   -9.140;41691.469
600.335;36372.207;  -11.430;40692.520
600.916;33965.848;   -9.939;39982.422
601.498;30688.074;   -8.479;40318.617
602.079;29977.582;  -10.920;40670.609
602.660;29679.865;  -11.480;41450.898
603.241;30594.385;  -11.699;41137.738
603.823;31075.512;   -9.579;38868.797
604.404;30723.611;  -10.620;38182.785
604.985;33530.738;  -10.450;38078.047
605.566;34508.574;   -9.129;38056.633
606.147;35406.734;   -7.510;37020.418
606.728;34231.438;  -10.660;37883.359
607.309;32309.990;  -11.740;38748.273
607.890;32146.900;   -9.759;38850.230
608.471;30783.016;   -8.250;37457.918
609.051;30788.895;   -9.240;36066.457
609.632;30738.008;  -12.120;35991.074
610.213;30325.699;   -9.110;37402.641
610.794;31491.387;   -8.030;38383.363
611.374;30355.590;   -8.110;40562.387
611.955;30154.285;  -13.560;38533.727
612.536;31257.748;  -11.400;36951.789
613.116;30812.750;   -8.070;37197.891
613.697;31590.244;  -10.830;38411.125
614.277;31258.484;  -11.641;38673.938
614.858;30515.910;  -13.310;37075.863
615.438;30625.367;   -7.460;35092.906
616.019;28630.957;   -7.601;33666.301
616.599;29367.420;  -12.020;34189.023
617.179;29354.533;  -11.780;36952.047
617.760;28072.775;   -8.570;39582.574
618.340;28191.043;  -11.471;38943.977
618.920;28621.213;  -11.170;37594.156
619.500;29696.607;  -11.071;37866.938
620.080;30179.395;   -7.750;37869.043
620.660;30518.850;  -12.711;36868.617
621.241;31283.223;  -10.211;36352.309
621.821;30649.266;  -10.961;35459.520
622.401;30817.770;   -7.720;35207.414
622.980;32730.762;   -8.981;35980.422
623.560;31466.971;   -9.331;37351.328
624.140;27212.055;   -9.850;34388.582
624.720;23218.799;   -7.451;32368.764
625.300;22764.979;   -9.070;32638.629
625.880;26947.543;  -12.601;34599.035
626.459;30260.711;  -11.751;36831.738
627.039;30180.902;   -9.281;38299.098
627.619;29354.936;   -8.801;38289.574
628.198;29517.266;  -12.071;37220.695
628.778;30047.693;   -9.461;37632.563
629.357;30569.934;   -8.491;38003.012
629.937;30268.693;   -9.721;38402.039
630.516;31134.355;   -9.951;37868.801
631.096;32553.291;  -11.731;35760.410
631.675;34943.410;   -8.572;35225.219
632.254;34715.477;  -11.282;35130.289
632.834;33288.793;  -13.322;35794.570
633.413;34035.691;  -10.301;35788.922
633.992;34241.531;   -8.582;34532.863
634.571;34985.953;   -8.352;33590.113
635.151;34277.688;  -11.912;34943.863
635.730;32342.717;  -10.511;35352.523
636.309;32220.699;   -7.731;35366.605
636.888;31550.293;   -9.952;36165.637
637.467;30776.934;  -11.672;37515.902
638.046;29298.994;   -8.901;39288.695
638.625;28631.734;   -7.912;38279.699
639.204;27918.877;  -10.022;37741.598
639.782;29290.693;  -12.252;38364.551
640.361;31370.162;  -10.041;36740.621
640.940;31222.168;  -11.161;34950.082
641.519;30780.807;   -9.701;34137.398
642.097;31926.189;  -11.271;35654.258
642.676;31837.670;   -8.651;35637.957
643.255;30857.830;   -8.711;36567.074
643.833;30522.238;   -9.581;37809.434
644.412;31314.158;  -13.711;37337.293
644.990;32781.297;  -11.811;37018.531
645.569;35508.191;   -9.411;36518.469
646.147;36224.203;  -10.291;36186.430
646.726;34384.730;  -12.401;36267.688
647.304;32760.512;  -10.411;36647.625
647.882;33397.301;   -9.651;39286.742
648.461;33134.543;   -9.631;39157.703
649.039;30757.119;  -11.881;35412.883
649.617;30597.029;   -9.661;34744.918
650.195;31103.754;   -9.301;35403.098
650.773;30345.404;  -10.511;35053.797
651.352;30341.389;  -11.521;33756.816
651.930;29272.516;  -12.211;31868.773
652.508;28302.773;   -9.171;33121.551
653.086;29619.582;   -9.371;33564.793
653.663;31714.660;  -13.161;34054.668
654.241;30518.744;  -13.031;35693.309
654.819;28718.605;   -9.371;36422.906
655.397;29328.045;  -10.511;38213.484
655.975;29578.188;  -10.371;39507.625
656.553;30620.613;  -10.051;39498.223
657.130;31388.943;  -10.061;40395.480
657.708;28279.393;   -9.561;39242.020
658.286;25410.824;  -11.511;38920.020
658.863;25630.752;  -10.261;40202.898
659.441;28506.412;   -7.531;39677.938
660.018;31232.949;   -9.501;40413.355
660.596;31867.971;  -13.301;39931.414
661.173;34401.672;  -11.211;39604.531
661.750;33696.109;   -9.951;39700.070
662.328;31190.201;   -9.390;39292.809
662.905;29848.900;  -11.330;38235.648
663.482;26908.703;   -9.050;36212.305
664.060;24713.199;   -8.240;35944.945
664.637;28734.373;  -10.050;35170.785
665.214;33381.781;  -11.760;34197.523
665.791;32173.135;  -10.530;34549.520
666.368;31746.504;   -9.690;35118.578
666.945;32263.330;   -9.320;36019.418
667.522;33227.906;  -11.860;36048.438
668.099;32348.832;  -10.770;36243.914
668.676;32411.936;   -6.260;35958.875
669.253;34425.262;   -7.000;37384.730
669.830;34628.941;  -10.190;36779.629
670.407;33537.043;   -9.550;35231.289
670.984;32884.727;   -9.260;35544.270
671.560;31270.041;   -9.280;35466.867
672.137;29494.525;  -11.810;34280.863
672.714;29414.451;  -11.490;34632.863
673.290;30320.412;   -7.740;35135.422
673.867;30835.818;  -10.660;36114.480
674.443;30037.596;  -12.230;36152.859
675.020;28414.611;  -10.450;35327.238
675.596;26957.881;   -9.260;35795.176
676.173;27774.809;  -10.780;35430.355
676.749;28442.861;  -13.690;33549.516
677.326;29654.430;  -11.980;32210.012
677.902;27826.488;   -8.630;32068.871
678.478;25855.813;  -10.730;32583.891
679.054;27386.813;  -10.520;32088.928
679.631;28859.514;  -11.920;30978.848
680.207;29988.682;   -7.490;33160.887
680.783;30944.541;   -9.860;35570.363
681.359;31497.467;  -13.380;36125.184
681.935;30514.273;  -12.480;35240.922
682.511;31127.223;   -7.900;34429.961
683.087;31714.014;   -7.710;34463.680
683.663;32387.145;  -11.480;34648.898
684.239;31950.316;  -14.090;34546.457
684.815;32992.559;   -7.560;35586.375
685.390;33058.156;   -9.910;35821.895
685.966;32602.938;  -11.159;35085.871
686.542;33123.031;  -11.169;34198.230
687.118;31599.801;   -5.959;32847.707
687.693;31843.838;  -10.329;32794.027
688.269;31269.279;  -12.059;33072.367
688.844;31881.822;  -10.909;33141.664
689.420;32930.773;   -8.019;33965.742
689.995;29682.236;   -8.399;34655.523
690.571;28806.141;  -10.949;33576.742
691.146;28161.496;   -9.619;32657.219
691.722;26234.854;   -8.999;32526.979
692.297;25308.166;  -11.589;33014.617
692.872;26013.740;  -11.739;34012.254
693.448;26378.299;  -11.059;34237.434
694.023;28330.600;  -10.139;34142.672
694.598;30504.650;   -9.029;34132.031
695.173;30261.604;  -13.319;34205.250
695.748;27656.432;  -10.169;32882.488
696.323;25326.992;   -8.339;32864.906
696.898;24886.273;   -8.169;33170.004
697.473;27853.945;  -12.309;32432.984
698.048;27717.264;  -10.989;31649.303
698.623;26720.432;   -9.329;30778.141
699.198;28122.828;   -9.849;31140.119
699.773;29210.746;  -12.329;31764.299
700.348;28917.238;  -10.389;31780.816
700.922;27193.539;   -9.269;32046.375
701.497;25721.664;   -9.329;32603.574
702.072;27455.680;  -10.789;34799.871
702.646;27420.320;  -10.839;35793.172
703.221;28041.096;   -9.099;35201.590
703.795;28621.967;  -10.939;34764.527
704.370;27197.646;  -12.859;34307.367
704.944;28453.193;  -11.559;33509.887
705.519;29608.602;   -7.939;31388.584
706.093;31666.768;  -10.499;31340.104
706.668;32771.445;  -11.289;32630.281
707.242;31775.602;  -11.509;32728.779
707.816;30319.107;   -9.639;32947.238
708.390;29746.846;  -11.429;33277.855
708.965;30786.092;  -11.869;33834.336
709.539;30911.559;  -11.689;33709.273
710.113;30417.102;  -10.478;33044.313
710.687;27737.438;  -10.228;31953.992
711.261;26929.188;  -13.698;30505.949
711.835;26739.777;  -13.378;30262.369
712.409;26645.584;   -9.698;31254.447
712.983;26382.828;  -11.898;32754.986
713.557;25314.123;  -15.138;34018.824
714.131;26603.262;  -14.098;34579.625
714.704;26515.879;   -9.958;33890.262
715.278;25797.404;  -10.028;33531.102
715.852;24997.703;  -11.148;33601.660
716.425;24505.174;   -9.068;33515.117
716.999;26048.822;  -10.038;33185.555
717.573;26651.766;   -9.798;33905.996
718.146;27658.234;  -12.378;35199.293
718.720;28287.090;  -11.918;35060.551
719.293;27383.424;   -8.088;34973.230
719.867;26427.924;  -10.888;36394.449
720.440;27273.160;  -11.938;36663.008
721.013;29370.797;  -12.818;35102.426
721.587;30874.537;  -10.298;33985.266
722.160;30623.580;  -10.048;33524.965
722.733;28738.533;  -12.108;32987.043
723.306;26401.680;  -10.818;33066.301
723.880;26720.346;   -8.908;33399.500
724.453;25913.078;   -9.878;33468.297
725.026;25838.492;  -11.188;33816.637
725.599;26147.168;  -11.678;32797.996
726.172;25716.588;   -9.618;33187.434
726.745;26736.084;   -8.258;35136.613
727.318;29614.615;  -12.978;35751.730
727.891;31684.619;  -12.148;35890.430
728.463;32878.484;   -8.968;34822.090
729.036;33008.316;  -10.188;32895.086
729.609;30629.576;  -11.788;31823.225
730.182;28920.797;  -11.788;31445.283
730.754;28216.359;  -10.268;32373.223
731.327;27963.223;   -9.998;33676.820
731.900;27106.670;  -12.228;33417.000
732.472;26092.213;  -13.848;31978.498
733.045;25940.973;   -8.698;30368.777
733.617;25523.285;  -10.607;30574.215
734.190;24093.285;  -11.507;31280.975
734.762;24251.762;  -13.647;31674.412
735.334;25525.053;   -9.767;31247.291
735.907;25729.098;   -9.897;29876.211
736.479;23718.223;  -11.637;29808.488
737.051;23338.553;   -9.567;30233.547
737.623;24425.492;   -8.187;31469.086
738.195;26360.436;  -11.187;31784.225
738.768;26763.111;  -12.337;32120.523
739.340;26171.701;  -12.227;32094.342
739.912;25761.650;  -11.057;31312.680
740.484;26641.525;  -10.207;31946.238
741.056;27918.129;  -10.047;32984.059
741.628;27416.266;  -13.627;33897.715
742.199;27860.582;   -7.177;33213.016
742.771;26014.748;  -10.797;31369.113
743.343;24255.662;  -11.997;31865.473
743.915;24199.746;  -12.867;32388.631
744.487;24764.330;   -7.617;31079.568
745.058;26249.721;   -9.557;30570.107
745.630;26099.141;   -9.877;29970.127
746.201;24829.809;  -14.177;29186.766
746.773;24494.461;   -9.237;28805.723
747.344;24770.389;   -9.847;29591.223
747.916;24889.188;  -11.657;31412.201
748.487;24344.514;  -10.587;32194.898
749.059;24015.715;   -8.707;32533.719
749.630;22824.506;  -10.537;32158.518
750.201;22976.602;  -11.687;30855.395
750.773;23156.219;  -11.647;28622.555
751.344;24560.357;   -7.147;28405.732
751.915;24595.293;   -9.757;28461.551
752.486;24140.283;  -12.427;27842.850
753.057;22493.324;  -12.227;27845.008
753.628;21953.885;  -10.417;27728.107
754.199;22022.328;  -11.767;27381.086
754.770;21562.207;  -11.187;25882.203
755.341;21171.518;  -10.507;25886.184
755.912;21459.955;   -9.387;26050.861
756.483;21827.523;  -10.647;26798.779
757.054;21317.965;  -11.837;27048.238
757.625;19393.252;  -12.716;26294.838
758.195;18763.535;   -9.666;26142.076
758.766;19736.131;   -8.656;26392.234
759.337;19565.324;  -12.856;26334.594
759.907;18821.066;  -13.366;27579.652
760.478;17953.598;   -8.576;28352.770
761.048;18404.236;  -10.526;27325.088
761.619;18956.146;  -11.116;26460.428
762.189;18535.316;  -12.136;26029.826
762.760;18477.590;   -9.456;26430.145
763.330;18571.781;   -7.136;26670.902
763.900;18478.455;  -11.786;26603.021
764.471;17823.186;  -11.546;25542.740
765.041;17570.439;   -8.096;24358.459
765.611;17585.924;   -8.876;23991.297
766.181;17503.855;  -12.196;24470.236
766.751;17969.541;  -11.636;24845.975
767.321;17966.443;  -10.156;24533.633
767.891;17729.313;  -11.766;24916.492
768.461;17523.695;  -14.936;24776.771
769.031;16715.598;  -12.356;24757.988
769.601;16380.111;   -7.526;24181.088
770.171;16686.471;  -10.766;23670.387
770.741;17311.225;  -13.176;22960.045
771.311;16887.770;  -10.616;22917.523
771.880;15566.535;   -9.576;23562.941
772.450;14991.314;  -10.336;24216.500
773.020;15159.031;  -13.516;24140.398
773.589;14985.368;  -13.466;24414.857
774.159;14496.653;   -8.686;23858.717
774.729;13915.868;   -9.476;22942.135
775.298;13958.603;  -13.666;22324.033
775.867;14093.237;  -11.716;21140.313
776.437;13549.218;   -9.906;20838.092
777.006;13348.118;  -12.166;20599.510
777.576;14461.733;  -12.356;20508.809
778.145;13791.330;  -11.646;20732.947
778.714;12481.608;   -8.226;21062.465
779.283;11996.269;   -9.556;20949.664
779.853;11818.083;  -14.116;20508.623
780.422;12051.066;  -11.506;20649.082
780.991;12450.097;   -9.556;21527.520
781.560;12989.771;   -9.095;22632.658
782.129;11979.113;  -12.135;23048.277
782.698;10851.516;  -10.865;23438.555
783.267;10311.367;   -9.335;23267.734
783.836;10574.209;  -11.045;22415.133
784.404;11174.088;  -13.865;20443.152
784.973;11365.891;  -13.095;19699.150
785.542;11307.107;  -11.575;19763.828
786.111;11129.422;   -9.705;20341.408
786.679;10984.314;  -12.105;20207.967
787.248;10737.583;  -12.455;19516.465
787.817;10619.683;  -11.535;18900.363
788.385;10453.601;   -9.765;17879.121
788.954;10310.632;  -14.005;17658.301
789.522;10198.401;  -11.955;17788.879
790.090; 9440.923;  -10.135;18118.277
790.659; 8706.568;  -10.975;18338.736
791.227; 8808.645;  -13.375;18508.615
791.795; 9153.959;  -12.375;17898.254
792.364; 9299.913;  -10.725;17295.133
792.932; 9580.833;   -9.715;16822.051
793.500; 9455.460;  -12.675;17040.148
794.068; 9745.960;  -13.495;17179.787
794.636; 9879.385;  -10.885;16664.246
795.204; 9593.201;  -11.045;16524.545
795.772; 9626.287;  -13.175;17274.564
796.340; 9471.248;  -12.445;17891.002
796.908; 9662.291;   -9.735;17648.561
797.476; 9996.442;   -9.815;17064.080
798.044; 9748.158;  -13.985;16672.777
798.612; 9394.212;  -13.115;17023.996
799.180; 8725.809;  -10.185;16561.615
799.747; 8438.231;   -9.055;15962.773
800.315; 8705.080;  -12.385;15296.992
800.883; 8216.509;  -15.035;14801.771
801.450; 7603.267;  -10.365;14534.430
802.018; 7414.099;   -9.855;14173.248
802.585; 7436.447;  -11.905;14029.547
803.153; 7673.916;  -11.585;13836.846
803.720; 7494.962;   -9.095;13567.324
804.287; 7418.745;   -9.135;13360.622
804.855; 7608.891;  -11.604;13681.981
805.422; 7956.868;  -11.794;13536.560
805.989; 8194.717;  -10.734;13355.958
806.556; 8198.018;  -10.444;13747.896
807.124; 8547.595;  -12.764;13987.376
807.691; 9094.424;  -12.964;14038.674
808.258; 9197.767;  -11.134;14120.152
808.825; 9258.324;   -9.854;13860.111
809.392; 8925.434;  -10.504;13268.790
809.959; 8255.157;  -13.054;12680.389
810.526; 7586.780;   -8.294;12427.308
811.093; 6998.232;   -8.394;12030.105
811.659; 6813.551;  -12.304;11653.664
812.226; 6988.042;  -13.944;11637.183
812.793; 7383.000;  -10.484;11611.521
813.360; 7509.611;  -10.144;11885.181
813.926; 7516.808;  -11.684;12770.539
814.493; 7429.252;  -13.644;12677.638
815.060; 7292.529;   -9.724;11974.336
815.626; 7468.918;   -9.854;11594.715
816.193; 7577.169;  -13.254;11579.474
816.759; 6965.254;  -13.204;11666.972
817.325; 6517.635;   -9.434;11325.530
817.892; 6394.947;  -10.134;11105.369
818.458; 6561.719;  -13.474;10843.928
819.024; 7013.658;  -11.854;10714.406
819.591; 7110.177;  -10.244;10469.165
820.157; 6904.689;  -10.704;10235.523
820.723; 6917.839;  -12.324;10847.563
821.289; 6822.477;   -9.444;11040.980
821.855; 6851.249;   -8.374;10357.100
822.421; 7183.412;  -10.234; 9978.918
822.987; 7156.185;  -13.294; 9754.177
823.553; 6825.042;  -10.884;10065.755
824.119; 6571.606;   -8.884;10036.294
824.685; 6063.222;   -6.784;10029.192
825.251; 5938.579;  -12.004;10199.230
825.816; 5648.787;  -11.474; 9820.189
826.382; 5424.679;   -9.174; 9297.248
826.948; 5728.920;   -9.214; 9381.347
827.513; 6169.506;  -10.774; 9450.726
828.079; 6230.381;  -11.924; 9472.444
828.645; 5990.114;  -10.543; 9292.643
829.210; 5844.930;  -10.533; 9065.341
829.776; 5763.625;  -10.753; 9132.620
830.341; 5910.740;  -10.173; 9092.878
830.906; 5934.615;  -10.743; 9078.557
831.472; 5688.319;  -11.113; 8534.535
832.037; 5286.013;  -10.603; 8677.874
832.602; 5123.283;  -13.323; 8628.692
833.167; 4875.022;  -10.823; 8879.031
833.733; 4716.008;  -10.113; 9189.790
834.298; 4558.834;  -13.583; 9052.608
834.863; 4736.688;  -12.703; 8895.087
835.428; 4934.146;  -10.523; 8824.266
835.993; 4853.780;   -6.963; 8845.385
836.558; 4820.665;  -10.763; 8888.563
837.123; 4974.203;   -9.903; 8966.582
837.688; 5336.987;   -9.913; 8617.860
838.253; 5377.291;  -10.283; 8590.699
838.817; 5010.060;  -12.963; 8443.797
839.382; 4865.878;  -14.243; 8799.356
839.947; 4987.918;  -10.733; 8810.595
840.511; 5001.564;   -9.383; 8796.394
841.076; 4845.864;  -12.563; 8347.231
841.641; 4671.716;  -12.953; 8224.330
842.205; 4536.956;   -7.043; 8223.349
842.770; 4330.067;   -8.163; 8622.107
843.334; 4477.934;  -12.503; 8410.386
843.898; 4641.274;  -11.693; 8337.465
844.463; 4231.511;  -10.203; 8506.283
845.027; 3931.510;   -9.533; 8280.962
845.591; 3955.691;  -13.443; 8231.141
846.156; 4012.114;  -13.143; 7969.179
846.720; 3854.174;   -9.433; 7768.278
847.284; 3779.614;  -11.033; 7630.957
847.848; 3784.801;  -10.403; 7472.395
848.412; 3619.384;  -11.553; 7437.394
848.976; 3515.352;   -8.393; 7674.592
849.540; 3470.799;   -8.713; 7836.011
850.104; 3439.722;  -12.463; 7913.669
850.668; 3506.743;  -12.973; 7694.508
851.232; 3484.025;  -10.793; 7756.887
851.796; 3504.839;  -10.662; 7926.545
852.359; 3588.195;  -13.082; 7827.844
852.923; 3573.276;  -12.192; 7641.163
853.487; 3584.289;  -11.912; 7342.501
854.050; 3434.327;  -10.892; 7042.820
854.614; 3493.012;  -13.992; 7151.338
855.177; 3591.723;  -11.732; 7105.077
855.741; 3474.452;   -8.962; 6989.675
856.304; 3327.997;   -9.442; 6596.634
856.868; 3204.919;  -14.192; 6356.272
857.431; 3148.205;  -12.702; 6468.571
857.995; 3156.176;   -9.942; 6373.210
858.558; 3251.381;   -9.112; 6324.448
859.121; 3144.000;  -12.932; 6408.327
859.684; 2995.159;  -13.442; 6347.886
860.247; 2946.712;  -10.632; 6321.264
860.810; 2907.387;  -11.272; 6301.903
861.374; 2847.733;   -9.832; 6607.881
861.937; 2773.100;  -11.762; 6408.200
862.500; 2777.106;   -9.722; 6572.639
863.062; 2761.547;  -10.512; 6387.297
863.625; 2760.519;  -11.232; 6190.836
864.188; 2800.672;  -14.112; 5807.254
864.751; 2813.171;  -11.302; 5682.413
865.314; 2696.115;  -10.112; 5547.492
865.876; 2528.468;  -12.182; 5500.150
866.439; 2382.608;  -10.722; 5415.909
867.002; 2283.550;   -9.252; 5501.567
867.564; 2345.797;   -9.572; 5413.946
868.127; 2400.046;  -13.142; 5160.325
868.689; 2483.979;  -12.902; 5133.183
869.252; 2602.494;   -9.732; 5252.382
869.814; 2537.073;   -9.432; 5297.141
870.377; 2437.785;  -11.552; 5390.919
870.939; 2419.963;   -9.052; 5599.898
871.501; 2359.216;  -10.982; 5248.336
872.063; 2242.348;  -12.292; 4854.235
872.626; 2181.665;  -14.912; 4817.074
873.188; 2100.477;  -13.112; 4987.732
873.750; 2079.512;  -13.442; 4868.651
874.312; 2042.911;   -9.402; 4779.330
874.874; 2001.066;  -11.062; 4866.348
875.436; 1894.131;  -13.931; 4718.887
875.998; 1772.417;   -9.561; 4660.005
876.560; 1759.372;  -11.321; 4462.964
877.122; 1823.612;  -12.221; 4145.042
877.683; 1946.705;  -12.191; 4056.481
878.245; 1990.581;  -12.101; 3950.740
878.807; 2011.286;   -8.971; 4058.958
879.369; 1946.580;  -12.071; 3954.677
879.930; 1799.873;  -14.621; 3941.495
880.492; 1709.930;  -10.311; 4067.014
881.053; 1715.641;  -10.901; 3859.633
881.615; 1706.120;  -14.411; 3776.071
882.176; 1627.736;  -13.761; 3734.750
882.738; 1544.024;   -9.181; 3678.489
883.299; 1530.625;  -11.791; 3405.407
883.860; 1548.349;  -13.121; 3351.106
884.422; 1492.761;  -11.211; 3394.044
884.983; 1402.469;  -10.091; 3166.443
885.544; 1353.790;   -8.461; 3189.802
886.105; 1288.293;  -12.361; 3160.360
886.666; 1219.076;  -14.141; 3093.059
887.227; 1186.121;  -11.361; 2941.957
887.788; 1129.805;  -11.401; 2974.836
888.349; 1031.367;  -13.791; 2721.214
888.910;  986.689;  -13.191; 2696.493
889.471;  950.464;   -9.881; 2560.172
890.032;  956.242;   -9.881; 2558.190
890.593;  948.339;  -10.371; 2567.669
891.153;  855.662;  -13.301; 2460.307
891.714;  736.524;  -11.431; 2372.046
892.275;  687.745;  -11.291; 2309.505
892.835;  699.903;  -11.471; 2382.543
893.396;  693.616;  -11.541; 2295.502
893.956;  664.021;  -11.181; 2162.420
894.517;  621.074;  -11.741; 2125.439
895.077;  565.711;  -11.671; 2086.978
895.638;  522.904;  -11.311; 2126.316
896.198;  509.942;   -9.831; 1838.275
896.758;  493.390;   -8.421; 1892.813
897.319;  469.596;  -12.351; 1792.232
897.879;  450.453;  -13.511; 1762.751
898.439;  414.122;  -12.001; 1661.149
898.999;  391.698;  -10.180; 1781.468
899.559;  386.506;  -12.030; 1703.347
900.119;  377.879;  -15.710; 1537.525
900.679;  362.885;   -8.900; 1638.384
901.239;  341.282;   -8.340; 1527.902
901.799;  312.701;  -13.910; 1456.441
902.359;  289.844;  -13.460; 1357.140
902.919;  281.017;  -11.490; 1331.118
903.479;  280.189;  -12.110; 1317.257
904.038;  276.148;  -11.720; 1262.595
904.598;  266.906;  -13.610; 1152.034
905.158;  255.895;  -11.040; 1240.893
905.717;  238.818;  -10.900; 1233.691
906.277;  228.579;  -15.080; 1217.330
906.836;  225.450;  -13.380; 1222.408
907.396;  222.910;  -10.780; 1193.047
907.955;  215.693;   -8.500; 1182.526
908.515;  210.838;  -12.760; 1099.364
909.074;  210.153;  -11.900; 1092.863
909.633;  208.647;   -8.950; 1069.121
910.192;  206.302;   -8.770; 1196.460
910.752;  194.931;  -12.390; 1029.960
911.311;  185.337;  -13.680; 1009.780
911.870;  175.070;  -12.370;  971.460
912.429;  169.564;  -10.900; 1094.080
912.988;  166.304;  -11.690; 1081.060
913.547;  164.005;  -13.240;  940.380
914.106;  163.257;  -11.990;  999.420
914.665;  161.306;   -9.990;  984.020
915.224;  159.124;  -12.880; 1035.760
915.782;  155.957;  -12.350;  922.560
916.341;  155.180;   -9.110; 1049.840
916.900;  152.258;   -9.270;  925.260
917.458;  150.723;  -13.240;  884.220
918.017;  149.955;  -13.550;  942.600
918.576;  148.000;  -12.320;  904.440
919.134;  146.278;  -11.490;  837.980
919.693;  143.507;  -13.670;  893.060
920.251;  142.799;  -15.470;  876.500
920.809;  143.089;  -11.290;  839.580
921.368;  142.960;  -10.210;  885.360
921.926;  139.837;  -12.140;  842.940
922.484;  138.011;  -13.080;  903.360
923.042;  137.189;  -11.720;  880.340
923.601;  136.968;   -7.480;  998.680
924.159;  134.816;  -11.570;  935.560
924.717;  133.035;  -13.840;  841.080
925.275;  133.661;  -10.640;  903.240
925.833;  131.951;  -11.540;  779.320
926.391;  132.879;  -12.960;  938.380
926.949;  133.394;  -14.130;  857.680
927.506;  133.587;  -11.750;  903.500
928.064;  132.426;  -10.250;  877.580
928.622;  133.636;  -13.030;  880.100
929.180;  135.098;  -13.400;  814.180
929.737;  137.552;  -10.700;  808.540
930.295;  140.429;  -10.070;  928.480
930.853;  139.938;  -11.960;  849.100
931.410;  141.155;  -13.120;  821.120
931.968;  143.136;  -10.770;  940.660
932.525;  143.965;  -10.680;  909.380
933.082;  143.983;  -13.130;  811.440
933.640;  144.377;  -13.210;  925.900
934.197;  143.990;  -11.060;  886.360
934.754;  143.664;   -9.580;  897.780
935.312;  145.147;  -14.000;  863.340
935.869;  146.897;  -10.710; 1012.980
936.426;  145.721;   -9.860;  872.800
936.983;  145.808;   -9.710;  889.020
937.540;  146.729;  -13.990;  838.280
938.097;  152.511;  -14.040;  940.120
938.654;  155.208;  -10.310;  898.860
939.211;  156.099;  -10.560;  952.480
939.768;  155.696;  -13.900;  915.420
940.324;  158.553;  -14.760;  904.200
940.881;  162.716;  -10.370;  878.500
941.438;  165.893;   -8.260; 1021.200
941.995;  165.602;  -12.540;  992.560
942.551;  164.615;  -14.670;  875.620
943.108;  166.388;  -10.450;  937.920
943.664;  165.141;  -10.750;  869.340
944.221;  171.137;  -11.550; 1088.140
944.777;  171.055;  -14.770;  869.680
945.334;  169.758;  -12.820;  884.840
945.890;  163.225;  -10.130;  946.480
946.446;  160.001;  -13.470;  947.020
947.003;  162.215;  -12.120;  964.940
947.559;  162.654;   -9.980; 1063.040
948.115;  159.161;   -9.080; 1026.540
948.671;  156.451;  -10.830;  967.300
949.227;  156.613;  -12.440;  859.560
949.783;  156.688;  -12.910;  858.900
950.339;  160.908;  -10.270;  991.000
950.895;  162.600;  -13.630; 1023.840
951.451;  161.430;  -15.100;  925.280
952.007;  159.949;  -11.330;  998.540
952.563;  155.351;  -10.580;  937.780
953.118;  152.461;  -13.440;  904.940
953.674;  152.333;  -12.710;  935.780
954.230;  153.933;  -10.350;  949.640
954.785;  157.987;   -9.190;  936.640
955.341;  160.273;  -11.200;  998.160
955.897;  155.619;  -16.560;  834.660
956.452;  153.948;  -12.570;  953.840
957.008;  150.485;   -7.970; 1083.640
957.563;  145.671;  -11.940; 1009.540
958.118;  141.510;  -13.450;  877.700
958.674;  139.862;  -12.030;  946.780
959.229;  141.083;   -9.410; 1013.980
959.784;  141.669;  -12.000;  832.400
960.339;  142.774;  -14.780; 1001.280
960.894;  140.298;   -9.860;  963.760
961.449;  137.171;   -9.970;  859.960
962.004;  139.477;  -10.900; 1212.840
962.559;  138.523;  -13.150;  860.140
963.114;  137.857;  -13.740;  742.480
963.669;  138.036;   -9.820;  915.500
964.224;  134.883;  -13.890;  874.340
964.779;  131.079;  -12.600;  828.420
965.334;  125.467;  -10.950; 1017.860
965.888;  114.552;  -11.170;  875.360
966.443;  105.558;  -12.540;  972.380
966.998;   97.070;  -15.780;  819.460
967.552;   93.576;   -9.760;  908.380
968.107;   93.446;   -9.060;  868.300
968.661;   97.051;  -11.950;  922.440
969.216;   98.422;  -12.800;  856.280
969.770;  100.446;  -11.210;  917.200
970.324;  101.226;  -11.610;  923.140
970.879;  103.651;  -11.370;  947.180
971.433;  106.276;  -12.540;  952.720
971.987;  105.875;  -11.320;  895.340
972.541;  104.658;  -10.720;  917.100
973.095;  105.725;   -9.680; 1009.460
973.649;  102.352;  -11.440;  809.480
974.203;  101.531;  -11.210;  829.040
974.757;  101.223;  -10.240;  855.220
975.311;  100.072;  -13.720;  872.600
975.865;  100.719;  -13.770;  881.820
976.419;   97.774;  -11.690;  857.400
976.973;   96.778;   -9.510;  849.620
977.526;   96.111;  -12.620;  949.920
978.080;   94.727;  -12.010;  796.780
978.634;   94.559;  -10.170;  921.320
979.187;   93.283;   -9.020;  905.400
979.741;   95.200;   -9.820; 1018.380
980.294;   92.982;  -14.870;  789.160
980.848;   92.509;  -12.380;  717.220
981.401;   92.750;  -10.350;  816.540
981.955;   91.420;  -13.720;  844.300
982.508;   87.393;  -11.490;  746.340
983.061;   87.751;  -10.000;  915.260
983.615;   85.822;  -11.480;  798.800
984.168;   84.307;  -13.220;  770.080
984.721;   84.121;  -13.960;  880.760
985.274;   82.371;  -10.870;  867.500
985.827;   80.449;   -9.790;  834.220
986.380;   77.939;  -13.120;  721.340
986.933;   77.880;  -12.450;  864.800
987.486;   77.098;  -10.210;  861.920
988.039;   77.880;   -8.430;  863.100
988.591;   76.675;  -10.520;  893.260
989.144;   73.880;  -14.860;  737.260
989.697;   72.926;  -13.080;  758.740
990.250;   72.681;  -10.150;  858.100
990.802;   70.401;  -13.430;  755.860
991.355;   70.110;  -12.750;  974.880
991.907;   68.535;  -12.040;  864.320
992.460;   66.959;  -11.330;  753.760
993.012;   65.948;  -13.610;  749.540
993.565;   63.714;  -13.460;  711.360
994.117;   64.848;   -9.360;  950.780
994.669;   61.946;  -11.300;  701.320
995.221;   61.381;  -13.540;  791.920
995.774;   60.620;  -13.430;  787.580
996.326;   58.524;  -12.520;  740.220
996.878;   57.848;  -10.950;  838.420
997.430;   55.643;  -14.300;  699.860
997.982;   54.416;  -13.760;  750.140
998.534;   54.438;  -11.530;  739.060
999.086;   53.499;  -10.310;  738.220
999.638;   52.219;  -12.530;  661.380
1000.190;   51.299;  -11.840;  699.320
1000.741;   50.649;  -10.260;  742.700
1001.293;   49.956;   -8.860;  686.020
1001.845;   49.644;  -13.700;  676.640
1002.396;   49.954;  -12.100;  743.400
1002.948;   48.721;  -12.760;  737.400
1003.500;   46.828;  -10.380;  723.780
1004.051;   48.144;  -11.900;  907.580
1004.603;   46.826;  -12.250;  791.820
1005.154;   43.586;  -13.210;  608.980
1005.705;   42.893;  -10.950;  723.960
1006.257;   41.483;  -13.880;  707.220
1006.808;   40.918;  -12.840;  685.460
1007.359;   40.367;  -10.570;  763.240
1007.910;   39.744;   -9.620;  646.640
1008.461;   39.068;  -13.630;  732.940
1009.013;   37.853;  -17.200;  588.340
1009.564;   39.031;  -10.200;  793.520
1010.115;   36.986;  -12.570;  597.040
1010.665;   37.142;  -15.150;  602.160
1011.216;   37.906;  -14.480;  667.920
1011.767;   36.371;  -11.340;  697.920
1012.318;   36.445;   -9.780;  736.980
1012.869;   35.562;  -12.380;  679.000
1013.419;   35.341;  -15.560;  603.120
1013.970;   35.443;  -11.010;  666.640
1014.521;   35.039;  -11.610;  620.620
1015.071;   35.125;  -13.450;  670.380
1015.622;   35.164;  -13.870;  635.460
1016.172;   33.692;  -11.610;  596.820
1016.723;   33.101;  -12.120;  614.380
1017.273;   32.810;  -13.620;  604.160
1017.823;   33.003;  -14.140;  650.340
1018.374;   32.141;  -12.800;  611.760
1018.924;   32.278;  -12.340;  716.880
1019.474;   33.324;  -11.410;  718.880
1020.024;   31.899;  -14.770;  657.580
1020.574;   33.498;   -9.780;  726.160
1021.124;   31.892;   -8.560;  673.580
1021.674;   31.695;  -15.190;  559.120
1022.224;   32.420;  -13.530;  708.940
1022.774;   32.185;  -13.280;  668.820
1023.324;   32.099;  -10.690;  753.520
1023.874;   33.543;  -10.240;  875.760
1024.423;   30.857;  -12.540;  613.700
1024.973;   30.530;  -10.010;  610.760
1025.523;   29.876;  -10.550;  620.960
1026.072;   29.348;  -13.560;  606.420
1026.622;   29.827;  -15.120;  675.740
1027.172;   30.592;  -11.260;  715.660
1027.721;   29.403;  -11.410;  601.220
1028.270;   29.545;  -13.530;  663.400
1028.820;   29.630;  -13.680;  638.080
1029.369;   28.982;  -13.520;  612.700
1029.918;   28.805;  -10.980;  649.840
1030.468;   28.636;  -13.530;  564.780
1031.017;   28.492;  -13.170;  634.800
1031.566;   28.103;  -12.200;  608.900
1032.115;   27.862;   -9.960;  694.500
1032.664;   27.138;  -13.210;  596.480
1033.213;   28.364;  -12.500;  735.420
1033.762;   28.072;  -11.910;  635.620
1034.311;   27.204;   -9.640;  677.220
1034.860;   26.693;  -13.310;  691.000
1035.408;   27.970;  -11.830;  722.720
1035.957;   27.529;  -12.000;  719.540
1036.506;   25.258;  -11.690;  530.800
1037.055;   27.401;  -10.990;  844.320
1037.603;   25.781;  -15.120;  664.000
1038.152;   24.095;  -12.450;  534.760
1038.700;   24.823;  -10.560;  585.740
1039.249;   24.938;  -11.080;  681.220
1039.797;   25.237;  -12.540;  633.360
1040.345;   25.516;  -11.920;  705.420
1040.894;   25.024;  -11.410;  625.300
1041.442;   24.469;  -14.320;  632.200
1041.990;   23.340;  -16.240;  559.160
1042.538;   23.290;  -11.680;  536.180
1043.087;   23.998;  -10.760;  570.860
1043.635;   24.446;  -11.850;  670.500
1044.183;   23.830;  -15.480;  586.400
1044.731;   23.376;  -11.770;  576.000
1045.279;   23.355;  -13.090;  674.920
1045.827;   25.740;  -12.440;  892.400
1046.374;   22.304;  -13.840;  515.420
1046.922;   22.759;  -13.220;  590.580
1047.470;   23.494;  -10.230;  691.300
1048.018;   23.011;  -14.590;  647.960
1048.565;   23.667;  -12.050;  708.600
1049.113;   21.871;  -11.650;  557.000
1049.660;   22.072;  -10.510;  629.660
1050.208;   22.683;  -13.310;  675.640
1050.755;   21.396;  -15.900;  606.580
1051.303;   22.159;  -11.430;  686.820
1051.850;   21.678;   -8.480;  635.120
1052.397;   20.131;  -15.010;  473.960
1052.945;   20.342;  -13.960;  617.760
1053.492;   22.396;  -13.150;  741.840
1054.039;   22.214;   -9.630;  720.180
1054.586;   20.530;  -13.680;  557.240
1055.133;   20.945;  -14.570;  693.140
1055.680;   20.984;  -13.820;  646.620
1056.227;   19.186;  -11.730;  542.780
1056.774;   20.824;  -12.480;  794.980
1057.321;   19.607;  -13.930;  523.260
1057.868;   19.994;  -11.690;  651.320
1058.415;   19.116;   -9.520;  651.980
1058.961;   20.964;  -13.160;  678.940
1059.508;   19.546;  -12.920;  643.820
1060.055;   19.281;  -11.920;  581.780
1060.601;   19.694;  -11.500;  624.300
1061.148;   19.445;  -14.330;  616.820
1061.694;   18.575;  -16.870;  592.580
1062.241;   17.902;  -10.330;  596.320
1062.787;   18.623;  -10.620;  663.140
1063.334;   20.197;  -10.110;  808.560
1063.880;   18.681;  -13.400;  668.360
1064.426;   17.745;  -10.680;  706.820
1064.972;   17.807;   -9.920;  601.340
1065.518;   16.492;  -10.980;  566.640
1066.065;   18.455;  -14.890;  624.460
1066.611;   17.060;  -12.870;  598.800
1067.157;   17.745;  -12.950;  641.860
1067.703;   17.450;  -13.540;  668.480
1068.249;   17.034;  -13.540;  605.220
1068.794;   17.039;  -12.600;  626.880
1069.340;   15.655;  -10.620;  578.960
1069.886;   16.326;  -12.830;  590.700
1070.432;   16.050;  -14.870;  541.720
1070.977;   16.215;  -11.980;  601.080
1071.523;   15.944;   -8.200;  573.060
1072.068;   15.301;  -12.330;  582.000
1072.614;   16.702;  -16.370;  527.760
1073.160;   16.493;  -11.100;  687.040
1073.705;   15.576;  -10.480;  572.520
1074.250;   14.892;  -14.520;  559.900
1074.796;   16.482;  -11.460;  655.160
1075.341;   16.114;  -11.950;  664.100
1075.886;   14.615;  -11.460;  594.240
1076.431;   14.820;  -13.770;  649.880
1076.976;   14.908;  -12.680;  639.220
1077.521;   14.595;  -13.170;  583.080
1078.067;   14.322;  -10.860;  579.400
1078.612;   14.915;  -13.920;  661.620
1079.156;   14.553;  -13.880;  601.540
1079.701;   14.359;  -13.120;  693.260
1080.246;   15.210;   -9.940;  696.300
1080.791;   14.488;  -14.740;  625.020
1081.336;   14.169;  -13.750;  659.320
1081.880;   13.782;  -13.400;  649.680
1082.425;   13.157;  -12.220;  573.480
1082.970;   14.326;  -11.610;  717.040
1083.514;   13.336;  -13.580;  597.000
1084.059;   12.341;  -12.810;  586.720
1084.603;   13.355;  -12.320;  565.840
1085.147;   13.339;  -13.190;  645.220
1085.692;   13.923;  -12.480;  716.800
1086.236;   11.788;  -13.020;  503.140
1086.780;   14.543;   -9.190;  751.440
1087.325;   12.838;  -12.480;  654.620
1087.869;   12.763;  -12.450;  610.700
1088.413;   14.212;  -12.240;  705.040
1088.957;   11.540;   -9.020;  543.400
1089.501;   12.522;  -10.320;  766.640
1090.045;   12.702;  -12.720;  726.480
1090.589;   10.563;  -13.690;  569.920
1091.133;   12.308;  -10.020;  673.340
1091.676;   11.961;  -12.330;  591.940
1092.220;   11.159;  -14.970;  600.920
1092.764;   12.073;  -12.430;  706.960
1093.307;   12.116;   -9.800;  673.780
1093.851;   10.040;  -14.970;  556.540
1094.395;   11.549;  -15.310;  683.140
1094.938;   10.749;  -10.370;  632.520
1095.482;   10.476;  -11.050;  559.800
1096.025;   11.950;  -11.840;  710.880
1096.568;   11.897;  -12.840;  779.280
1097.112;    9.619;  -14.700;  508.180
1097.655;   11.038;   -8.720;  603.000
1098.198;    9.917;  -13.610;  600.180
1098.741;    9.562;  -13.350;  612.860
1099.285;   10.819;  -11.230;  657.300
1099.828;    8.841;  -11.840;  439.400
1100.371;    9.353;  -10.840;  608.160
1100.914;    9.684;  -14.190;  682.660
1101.457;    9.399;  -11.240;  679.900
1101.999;    9.404;  -11.270;  584.680
1102.542;    9.335;  -11.480;  641.440
1103.085;    9.814;  -11.750;  658.500
1103.628;   11.005;  -11.400;  762.060
1104.170;    9.034;  -10.490;  588.280
1104.713;    9.163;  -10.600;  646.700
1105.256;    8.469;  -14.360;  557.440
1105.798;    8.625;  -13.210;  499.980
1106.341;    9.918;  -10.270;  728.900
1106.883;    8.737;  -12.200;  521.340
1107.425;    8.750;  -13.110;  668.180
1107.968;    7.971;  -12.840;  612.380
1108.510;    8.740;   -6.480;  684.960
1109.052;    6.657;  -13.940;  612.620
1109.594;    7.882;  -13.690;  554.440
1110.136;    8.572;  -11.880;  643.220
1110.679;    7.811;   -9.500;  633.080
1111.221;    6.983;  -14.160;  604.460
1111.763;    6.788;  -13.980;  559.220
1112.304;    6.765;  -13.880;  547.140
1112.846;    7.833;  -12.210;  666.240
1113.388;   10.348;  -11.390;  942.180
1113.930;    7.445;  -14.540;  694.200
1114.472;    6.761;  -12.640;  606.540
1115.013;    5.551;  -11.620;  551.280
1115.555;    6.139;  -13.640;  587.100
1116.097;    5.995;  -15.380;  579.480
1116.638;    7.305;  -12.640;  684.600
1117.180;    7.274;   -9.850;  667.740
1117.721;    7.351;  -13.690;  568.580
1118.262;    7.345;  -12.680;  677.960
1118.804;    6.596;  -12.530;  637.340
1119.345;    5.855;  -11.690;  578.400
1119.886;    7.131;  -13.380;  704.040
1120.427;    5.861;  -14.070;  589.020
1120.969;    5.583;  -13.500;  597.920
1121.510;    4.803;  -11.480;  563.060
1122.051;    5.738;  -12.830;  723.580
1122.592;    4.670;  -14.290;  655.420
1123.133;    4.777;  -12.400;  547.940
1123.673;    6.616;  -10.130;  706.480
1124.214;    4.734;  -12.930;  612.460
1124.755;    5.898;  -14.380;  639.460
1125.296;    4.968;  -14.000;  627.320
1125.836;    5.214;  -10.070;  691.500
1126.377;    4.560;  -12.640;  599.660
1126.918;    5.223;  -12.960;  614.980
1127.458;    3.832;  -13.350;  622.220
1127.999;    5.504;  -10.750;  656.980
1128.539;    4.862;  -12.350;  694.240
1129.079;    4.537;  -14.860;  632.720
1129.620;    3.794;  -13.840;  558.100
1130.160;    3.828;  -12.330;  539.480
1130.700;    4.346;  -14.530;  640.840
1131.240;    4.800;  -12.530;  643.700
1131.781;    3.560;  -14.450;  619.680
1132.321;    4.363;   -9.790;  599.120
1132.861;    3.162;  -14.860;  564.200
1133.401;    3.066;  -14.290;  593.940
1133.941;    4.657;  -11.750;  626.280
1134.481;    2.685;   -9.920;  597.580
1135.020;    2.990;  -12.290;  609.160
1135.560;    3.428;  -11.650;  674.940
1136.100;    2.802;  -16.270;  501.160
1136.640;    3.067;  -10.890;  510.480
1137.179;    2.276;  -14.180;  537.960
1137.719;    2.590;  -16.250;  605.400
1138.258;    2.834;  -14.230;  587.360
1138.798;    3.705;   -9.090;  663.780
1139.337;    1.548;  -15.130;  482.840
1139.877;    2.482;  -13.680;  642.360
1140.416;    4.931;  -11.320;  878.060
1140.955;    1.739;  -10.860;  535.380
1141.494;    2.418;  -12.920;  669.280
1142.034;    1.858;  -13.930;  583.520
1142.573;    3.499;  -11.440;  646.280
1143.112;    2.514;  -12.000;  553.480
1143.651;    2.174;  -13.670;  536.480
1144.190;    2.857;  -12.730;  691.640
1144.729;    2.308;  -14.560;  607.420
1145.267;    1.848;  -11.830;  584.900
1145.806;    2.738;  -12.230;  637.040
1146.345;    1.517;  -14.130;  635.020
1146.884;    1.342;  -11.590;  622.500
1147.422;    2.075;  -12.550;  533.060
1147.961;    2.859;  -11.180;  708.460
1148.500;    2.857;  -11.510;  669.720
1149.038;    2.068;  -11.640;  632.500
1149.577;    1.654;  -10.130;  698.640
1150.115;    0.291;  -13.970;  452.280
1150.653;    1.159;  -14.520;  607.340
1151.192;    1.330;  -12.810;  552.920
1151.730;    0.778;   -9.100;  652.560
1152.268;    0.372;  -12.220;  589.520
1152.806;    0.341;  -14.140;  571.180
1153.344;    0.274;  -12.350;  577.640
1153.882;   -0.171;   -8.980;  600.060
1154.421;   -0.112;  -15.190;  470.620
1154.958;    0.526;  -15.210;  595.240
1155.496;    1.264;  -12.850;  645.280
1156.034;    0.100;   -9.940;  721.880
1156.572;    0.830;  -13.570;  667.060
1157.110;   -0.288;  -14.590;  473.940
1157.647;    0.181;  -13.030;  676.960
1158.185;   -0.641;  -12.140;  564.320
1158.723;   -1.142;  -14.390;  509.200
1159.260;    0.099;  -14.090;  701.700
1159.798;    0.502;  -11.920;  658.160
1160.335;    0.107;  -11.110;  631.820

