
Integration time [ms]:   3.276
Averaging Nr. [scans]: 1000
Smoothing Nr. [pixels]: 0
Data measured with spectrometer [name]: 7414430SP
Wave   ;Sample   ;Dark     ;Reference
[nm]   ;[counts] ;[counts] ;[counts] 

288.544;  150.785;    7.793;  793.890
289.143;  154.717;    7.462;  681.602
289.742;  155.707;    8.602;  828.814
290.341;  140.984;    1.321;  789.841
290.940;  129.362;   -0.709;  730.702
291.538;  130.224;    0.881;  881.108
292.137;  130.438;    0.122;  792.581
292.736;  134.523;   -1.929;  975.101
293.335;  131.638;   -8.229;  735.086
293.934;  130.803;   -5.279;  781.677
294.532;  130.419;   -1.369; 1031.958
295.131;  115.962;   -7.641;  834.394
295.730;  116.805;   -8.420;  809.588
296.328;  114.714;   -5.611;  783.442
296.927;  116.365;   -5.781;  779.652
297.525;  117.281;   -6.361;  781.236
298.124;  106.699;  -11.382;  654.009
298.722;  110.334;   -7.641;  761.933
299.321;  109.431;   -6.811;  708.597
299.919;  107.913;   -6.991;  751.918
300.518;  104.325;  -10.362;  689.338
301.116;  104.690;   -9.581;  691.381
301.715;  105.726;   -4.891;  730.222
302.313;  103.902;   -8.801;  704.943
302.911;   99.478;   -8.522;  733.830
303.509;  105.212;   -6.171;  925.627
304.108;  102.784;   -7.311;  760.383
304.706;  102.257;   -8.321;  801.664
305.304;   95.531;  -10.222;  796.707
305.902;  101.882;   -6.021;  784.484
306.500;   97.694;   -4.971;  728.200
307.098;   96.228;   -7.061;  746.560
307.696;   93.819;   -8.801;  780.432
308.294;   94.113;   -6.411;  731.359
308.892;   97.090;   -2.901;  759.769
309.490;   93.979;   -5.041;  712.161
310.088;   91.008;   -5.002;  788.444
310.686;   95.141;   -2.041;  821.749
311.284;   91.401;   -2.351;  766.040
311.882;   89.443;   -4.422;  731.225
312.480;   86.002;   -4.192;  697.167
313.078;   86.610;   -1.172;  808.331
313.675;   88.407;   -2.601;  691.600
314.273;   83.038;   -1.312;  797.837
314.871;   82.423;   -3.942;  589.829
315.468;   79.336;   -2.802;  652.090
316.066;   83.282;   -0.701;  694.427
316.664;   76.346;   -4.362;  656.351
317.261;   79.522;   -2.872;  910.128
317.859;   75.086;   -2.022;  768.735
318.456;   76.092;   -0.531;  830.096
319.054;   72.106;   -3.912;  787.828
319.651;   69.719;   -4.752;  759.928
320.249;   69.825;   -2.602;  810.188
320.846;   68.124;   -0.821;  714.286
321.443;   64.425;   -4.642;  832.135
322.041;   61.641;   -5.002;  812.315
322.638;   59.489;   -3.982;  701.456
323.235;   60.440;   -3.411;  665.683
323.833;   58.067;   -7.361;  740.354
324.430;   52.576;   -8.611;  615.900
325.027;   53.618;   -4.061;  876.855
325.624;   53.384;   -4.031;  644.532
326.221;   51.083;   -7.481;  689.717
326.818;   50.272;   -5.281;  818.332
327.415;   53.968;   -7.460;  748.828
328.012;   53.727;   -5.510;  690.585
328.609;   52.294;   -7.880;  731.389
329.206;   49.600;   -8.331;  778.621
329.803;   49.728;   -5.121;  737.841
330.400;   52.856;   -4.510;  704.260
330.997;   54.326;   -6.441;  817.147
331.594;   53.007;   -8.831;  788.185
332.191;   57.764;   -7.621;  728.722
332.787;   60.499;   -4.591;  844.463
333.384;   59.402;   -7.412;  763.093
333.981;   58.302;   -8.293;  815.687
334.578;   60.465;   -7.052;  708.378
335.174;   64.515;   -3.102;  731.469
335.771;   64.203;   -5.943;  836.456
336.367;   59.933;   -7.393;  710.631
336.964;   64.065;   -4.063;  793.266
337.561;   62.130;   -3.813;  731.112
338.157;   57.716;   -4.654;  911.916
338.754;   55.581;   -7.934;  796.589
339.350;   52.976;   -4.414;  722.493
339.946;   55.284;   -4.664;  773.135
340.543;   47.281;   -6.375;  846.136
341.139;   42.184;   -9.815;  720.836
341.735;   39.559;   -4.526;  772.593
342.332;   38.016;   -4.895;  691.472
342.928;   38.212;   -4.295;  795.394
343.524;   32.860;   -5.476;  761.684
344.120;   29.009;   -5.856;  738.562
344.716;   33.008;   -2.155;  723.717
345.313;   30.130;   -6.275;  795.342
345.909;   24.421;   -8.815;  627.336
346.505;   26.145;   -5.305;  740.247
347.101;   27.260;   -2.674;  827.864
347.697;   27.310;   -4.344;  785.398
348.293;   22.016;   -9.975;  627.244
348.889;   22.316;   -5.774;  745.914
349.485;   22.504;   -5.004;  688.205
350.081;   22.349;   -4.704;  772.592
350.676;   17.938;   -6.635;  691.606
351.272;   21.624;   -4.504;  809.530
351.868;   22.720;   -3.914;  780.497
352.464;   18.617;   -9.044;  723.932
353.059;   15.689;   -8.314;  646.017
353.655;   18.597;   -7.024;  777.063
354.251;   19.708;   -5.343;  759.845
354.846;   14.730;   -8.604;  740.646
355.442;   11.680;   -6.945;  753.071
356.038;   13.989;   -7.564;  751.708
356.633;   14.329;   -5.814;  728.594
357.229;   12.261;   -7.364;  724.757
357.824;   10.205;   -8.024;  703.600
358.420;    9.187;   -9.384;  679.726
359.015;   10.931;   -5.104;  695.357
359.610;   11.144;   -6.854;  763.920
360.206;    5.242;  -10.185;  603.240
360.801;    7.059;   -7.054;  646.503
361.396;   10.116;   -5.034;  725.975
361.992;    5.947;   -8.284;  668.220
362.587;    2.369;   -8.625;  670.160
363.182;    3.907;   -7.674;  689.631
363.777;    5.598;   -5.164;  738.242
364.372;    5.450;   -8.604;  737.314
364.967;    1.124;   -9.055;  680.744
365.563;    5.855;   -6.114;  815.567
366.158;    3.448;   -5.814;  685.161
366.753;    2.782;   -7.854;  649.263
367.348;    1.654;   -7.804;  746.056
367.942;    1.308;   -7.954;  697.298
368.537;    0.466;   -4.984;  754.245
369.132;    0.417;   -8.564;  703.428
369.727;   -3.794;   -8.855;  638.079
370.322;   -2.189;   -6.245;  580.186
370.917;   -1.978;   -6.425;  710.646
371.511;    1.236;   -6.294;  861.834
372.106;   -3.169;   -7.685;  776.964
372.701;   -6.362;   -7.335;  585.988
373.296;   -0.503;   -4.564;  863.135
373.890;   -4.628;  -10.235;  647.840
374.485;   -7.940;   -7.885;  691.199
375.079;   -4.041;   -7.324;  738.685
375.674;   -2.027;   -3.494;  812.970
376.268;   -6.657;   -8.525;  691.759
376.863;  -12.601;  -10.086;  580.327
377.457;   -6.508;   -7.025;  662.490
378.052;   -7.210;   -3.585;  764.884
378.646;   -7.963;   -7.595;  741.167
379.240;   -9.180;   -8.335;  721.176
379.835;   -8.596;   -5.785;  636.978
380.429;   -9.718;   -4.335;  562.557
381.023;   -9.929;   -6.805;  779.205
381.617;  -12.712;   -9.195;  680.106
382.212;   -9.841;   -6.905;  685.303
382.806;   -8.047;   -3.745;  760.690
383.400;  -11.991;   -7.745;  672.281
383.994;  -13.507;   -9.765;  664.870
384.588;   -9.960;   -6.564;  697.701
385.182;   -8.359;   -5.344;  726.624
385.776;   -9.461;   -8.514;  706.875
386.370;  -12.970;   -9.555;  681.968
386.964;  -11.958;   -8.715;  684.155
387.558;  -10.670;   -6.174;  598.360
388.152;  -13.505;   -8.725;  681.959
388.745;  -11.449;   -7.965;  814.707
389.339;  -10.330;   -5.924;  747.642
389.933;   -9.335;   -5.524;  695.370
390.527;  -10.335;   -7.114;  859.029
391.120;  -17.174;  -10.725;  595.318
391.714;  -14.346;   -8.035;  711.633
392.308;   -9.899;   -3.574;  780.253
392.901;  -14.210;   -7.245;  642.460
393.495;  -16.143;   -9.285;  595.414
394.089;  -13.835;   -5.895;  760.452
394.682;  -14.687;   -4.295;  697.188
395.275;  -15.538;   -9.875;  719.927
395.869;  -16.272;   -8.485;  667.314
396.462;  -15.396;   -7.455;  616.609
397.056;  -10.739;   -5.424;  776.621
397.649;  -15.731;   -6.605;  731.575
398.242;  -13.163;   -8.224;  712.645
398.836;  -12.796;   -7.474;  766.408
399.429;  -13.015;   -7.094;  631.041
400.022;  -16.812;   -9.475;  665.902
400.615;  -14.539;   -7.145;  805.609
401.208;  -11.647;   -7.174;  691.451
401.802;  -14.656;   -5.515;  699.329
402.395;  -16.360;   -9.875;  683.502
402.988;  -16.536;   -8.845;  696.627
403.581;  -12.941;   -8.874;  646.878
404.174;  -11.055;   -5.324;  686.568
404.767;  -14.373;   -9.575;  638.583
405.360;  -16.850;  -10.965;  621.445
405.953;  -10.814;   -8.764;  759.034
406.545;  -10.523;   -7.514;  725.342
407.138;  -14.786;  -10.025;  618.350
407.731;  -14.651;  -10.034;  613.303
408.324;  -10.367;   -9.374;  660.554
408.917;  -10.611;   -6.534;  681.864
409.509;  -11.690;   -8.004;  740.396
410.102;  -14.310;   -9.875;  643.948
410.695;   -8.919;   -8.604;  665.758
411.287;   -9.504;   -6.794;  599.821
411.880;  -10.560;   -9.334;  585.421
412.472;  -13.773;  -10.254;  613.092
413.065;  -11.247;   -6.714;  629.408
413.657;   -8.145;   -7.234;  576.678
414.250;   -9.056;  -10.544;  646.681
414.842;  -10.895;   -9.744;  676.353
415.434;   -8.695;   -6.994;  570.463
416.027;   -3.644;   -5.893;  652.196
416.619;   -6.324;   -7.264;  713.400
417.211;   -6.547;  -10.374;  599.352
417.804;   -3.598;   -7.993;  628.499
418.396;   -6.901;   -7.234;  607.643
418.988;   -4.959;   -9.443;  659.238
419.580;   -8.262;  -10.724;  568.276
420.172;   -6.556;  -10.323;  536.196
420.764;   -1.774;   -8.793;  672.482
421.356;   -3.406;  -11.143;  636.898
421.948;   -4.376;   -8.293;  677.661
422.540;    1.323;   -7.893;  680.027
423.132;    0.617;   -7.082;  600.641
423.724;   -2.886;   -8.653;  561.267
424.316;   -0.910;  -10.213;  621.345
424.908;    2.395;   -9.762;  591.517
425.500;    3.293;   -5.572;  647.978
426.092;    3.867;   -8.422;  648.268
426.683;    2.796;   -9.283;  684.836
427.275;    5.324;   -7.852;  641.471
427.867;    6.540;   -5.272;  668.948
428.458;    6.759;   -7.682;  732.344
429.050;    5.292;  -10.612;  680.749
429.642;    8.343;   -9.882;  743.124
430.233;    9.440;   -6.962;  569.356
430.825;   10.433;   -6.842;  724.809
431.416;    7.060;   -9.672;  698.241
432.008;    9.950;   -6.552;  651.723
432.599;   12.017;   -6.891;  656.073
433.190;    9.047;  -10.912;  637.670
433.782;    7.485;  -11.172;  590.395
434.373;   15.345;   -6.061;  884.765
434.964;   13.919;   -8.251;  602.920
435.556;   11.271;   -9.722;  634.537
436.147;   14.512;   -9.082;  758.490
436.738;   13.696;   -8.041;  701.099
437.329;   19.915;   -7.341;  721.723
437.920;   12.689;   -8.162;  666.688
438.511;   12.135;  -11.802;  564.526
439.103;   18.536;  -10.191;  623.998
439.694;   21.112;   -7.601;  681.583
440.285;   21.318;   -8.541;  764.432
440.876;   20.051;   -9.751;  845.738
441.466;   19.407;   -9.401;  575.162
442.057;   24.688;   -7.760;  665.814
442.648;   23.472;   -9.971;  746.255
443.239;   21.118;  -11.001;  620.477
443.830;   26.806;   -7.990;  704.958
444.421;   27.943;   -7.910;  655.474
445.011;   24.680;   -8.131;  693.619
445.602;   24.580;   -7.111;  743.126
446.193;   26.367;  -10.920;  488.117
446.783;   31.251;   -6.500;  640.397
447.374;   26.302;   -8.671;  692.759
447.964;   26.593;  -10.781;  713.770
448.555;   34.877;   -9.650;  822.742
449.145;   32.575;   -8.660;  662.853
449.736;   33.085;   -8.990;  803.179
450.326;   32.220;   -9.500;  713.626
450.917;   37.057;   -8.680;  675.324
451.507;   36.760;   -7.520;  600.661
452.097;   37.290;   -8.590;  746.267
452.688;   37.818;  -11.340;  742.160
453.278;   37.923;  -10.100;  566.840
453.868;   42.701;   -6.019;  793.550
454.458;   40.531;   -9.440;  651.141
455.048;   40.425;  -10.560;  711.783
455.639;   41.589;  -11.799;  567.096
456.229;   45.392;   -6.899;  710.694
456.819;   46.942;   -7.389;  751.158
457.409;   47.343;  -11.119;  773.993
457.999;   49.893;   -9.289;  737.505
458.589;   50.247;   -6.139;  686.606
459.179;   50.314;   -8.729;  717.658
459.769;   48.169;   -9.789;  627.099
460.358;   53.439;  -10.259;  797.262
460.948;   53.220;   -7.299;  689.503
461.538;   55.062;  -10.289;  660.677
462.128;   52.666;  -11.269;  664.934
462.717;   58.796;   -9.368;  710.326
463.307;   61.803;   -7.908;  705.846
463.897;   58.124;   -9.599;  656.942
464.486;   57.123;   -9.769;  837.128
465.076;   61.072;   -8.048;  733.776
465.666;   65.943;   -9.358;  652.900
466.255;   63.666;   -7.919;  785.651
466.845;   62.090;  -11.689;  666.749
467.434;   64.682;   -7.818;  725.873
468.023;   65.874;   -7.678;  658.357
468.613;   64.182;  -10.939;  713.946
469.202;   68.130;  -10.118;  646.507
469.791;   71.603;   -9.108;  737.811
470.381;   74.518;   -6.058;  742.813
470.970;   73.698;  -10.428;  711.099
471.559;   73.497;  -10.268;  733.291
472.148;   76.694;   -8.448;  675.737
472.738;   79.805;   -6.917;  765.466
473.327;   78.270;  -11.978;  637.529
473.916;   79.074;  -11.888;  737.446
474.505;   82.631;   -9.437;  751.703
475.094;   85.709;   -6.747;  806.570
475.683;   85.377;   -9.367;  797.699
476.272;   85.632;  -12.637;  730.632
476.861;   88.713;  -10.027;  706.754
477.449;   94.785;   -8.716;  728.487
478.038;   90.090;   -9.577;  692.513
478.627;   91.190;   -9.718;  714.852
479.216;   96.488;   -8.947;  769.441
479.805;   99.594;   -6.256;  783.375
480.393;  100.982;   -7.937; 1008.945
480.982;   98.814;   -7.717;  874.501
481.571;  105.125;   -9.266;  858.333
482.159;  105.836;   -7.636;  705.386
482.748;  105.107;   -9.667;  821.385
483.336;  110.388;  -10.376;  858.209
483.925;  110.944;   -7.147;  774.373
484.513;  117.629;   -7.996;  758.962
485.102;  114.590;  -10.027;  810.965
485.690;  123.020;  -10.446; 1011.050
486.278;  123.437;   -8.446;  979.329
486.867;  126.399;   -6.356;  809.662
487.455;  126.922;   -9.136;  898.229
488.043;  127.748;  -10.646;  748.361
488.631;  137.072;   -7.456; 1005.079
489.220;  140.834;   -6.636;  908.626
489.808;  141.139;  -11.036;  741.415
490.396;  149.239;  -10.246;  914.645
490.984;  154.592;   -8.556;  830.161
491.572;  164.016;   -5.886;  940.315
492.160;  170.118;   -9.486;  919.081
492.748;  181.052;  -10.976;  884.341
493.336;  203.684;   -8.776; 1019.693
493.924;  230.116;   -5.465;  958.077
494.512;  255.768;   -9.986; 1066.638
495.100;  290.943;  -10.636; 1103.280
495.687;  346.118;  -10.885; 1206.373
496.275;  407.502;   -8.126; 1150.796
496.863;  477.464;  -10.586; 1281.171
497.451;  576.283;  -11.926; 1386.805
498.038;  700.600;  -10.885; 1556.729
498.626;  802.855;   -6.315; 1741.407
499.214;  960.358;   -7.326; 2016.609
499.801; 1152.998;  -11.906; 2220.633
500.389; 1385.837;  -10.466; 2312.494
500.976; 1671.895;   -5.236; 2744.849
501.564; 2090.386;   -8.936; 3148.565
502.151; 2432.062;  -13.176; 3515.999
502.738; 2846.787;  -10.646; 3971.274
503.326; 3240.847;   -9.525; 4403.796
503.913; 3644.457;  -10.856; 5161.749
504.500; 4008.025;  -11.586; 5986.420
505.088; 4408.628;  -10.336; 6381.201
505.675; 4919.903;   -6.355; 6925.547
506.262; 5597.019;   -9.046; 7619.060
506.849; 6299.199;  -10.416; 8733.969
507.436; 6819.016;  -10.305; 9790.121
508.023; 7371.802;   -5.496; 9985.472
508.610; 7613.729;   -7.856;10434.618
509.197; 8209.087;  -10.097;11198.435
509.784; 9466.952;  -10.886;12391.194
510.371;10588.062;   -9.315;13603.713
510.958;11411.266;   -9.936;14426.586
511.545;12147.800;   -9.326;15243.775
512.132;12859.004;  -10.075;15945.876
512.719;13374.845;   -7.796;16340.369
513.305;14494.023;  -10.606;18011.766
513.892;15328.278;  -11.486;19754.971
514.479;16531.992;   -9.126;20967.805
515.066;17929.795;   -6.026;22299.793
515.652;19437.107;   -8.466;22908.660
516.239;20533.160;  -10.886;23798.875
516.825;21268.744;  -11.496;25567.275
517.412;22302.377;   -5.796;28154.959
517.998;23105.467;  -10.506;28344.111
518.585;23191.906;  -10.076;27134.219
519.171;23834.895;   -8.315;27268.576
519.758;25790.088;   -8.596;28964.129
520.344;27859.764;   -8.466;30664.494
520.930;27540.377;  -11.006;32550.605
521.516;28305.797;  -10.495;35422.895
522.103;30186.338;   -5.526;38280.004
522.689;30808.064;   -8.746;37835.117
523.275;30586.758;  -11.376;37288.613
523.861;32318.879;  -11.156;37281.395
524.447;34036.039;   -8.135;37846.949
525.033;33948.852;   -7.896;38321.949
525.619;34280.848;  -12.476;38579.285
526.205;35508.617;   -9.516;40622.875
526.791;37986.859;   -6.926;42258.836
527.377;37965.625;   -8.346;42966.902
527.963;39191.020;   -8.717;42018.949
528.549;38600.703;  -11.016;42476.828
529.135;37164.398;   -8.536;41854.852
529.721;35767.754;   -9.666;41237.711
530.306;34904.520;  -10.066;41259.445
530.892;34876.711;  -11.356;41506.047
531.478;36117.383;   -6.596;43559.613
532.063;39400.965;   -8.836;47695.563
532.649;40740.660;  -10.047;50808.324
533.235;41202.715;   -9.746;51787.500
533.820;41306.945;   -6.566;52145.035
534.406;42543.816;  -10.817;51133.488
534.991;42308.867;   -9.416;49996.805
535.576;40854.480;   -9.036;48882.852
536.162;41852.563;   -6.156;46942.285
536.747;43097.738;  -11.607;45711.746
537.333;45663.055;  -11.787;48510.180
537.918;48741.637;  -12.437;50439.891
538.503;48360.863;   -7.196;50863.711
539.088;44939.027;  -10.556;50906.922
539.673;44390.742;   -8.767;52621.965
540.259;45041.691;  -10.026;52368.094
540.844;42845.684;   -7.416;50879.109
541.429;44459.512;   -9.467;52077.777
542.014;46688.840;   -9.527;52716.695
542.599;45667.457;   -9.946;52363.281
543.184;42683.789;   -7.927;53187.137
543.769;43628.813;   -9.297;54697.605
544.354;43886.090;  -10.127;53913.914
544.938;42788.406;   -9.267;49680.164
545.523;44524.086;   -6.506;47386.277
546.108;47614.414;   -9.787;49151.949
546.693;49366.117;  -11.587;51384.637
547.278;49336.457;  -10.986;51853.254
547.862;46496.844;   -8.206;51173.750
548.447;42100.230;  -10.067;51691.395
549.031;41385.320;   -9.637;52456.703
549.616;45948.695;   -9.926;52714.516
550.201;45812.535;   -6.347;52414.598
550.785;46815.668;   -7.917;52355.059
551.370;45978.734;  -10.867;54589.453
551.954;45215.641;   -9.047;58267.348
552.538;46080.645;   -7.827;59062.176
553.123;44656.305;  -10.287;58115.285
553.707;42298.605;  -12.178;56556.285
554.291;44060.176;   -8.717;56201.668
554.876;47319.234;   -7.457;55335.762
555.460;47064.977;  -10.387;54155.703
556.044;47070.738;   -9.618;53721.484
556.628;45362.004;  -11.567;53731.016
557.212;44343.031;   -8.097;54312.531
557.796;42819.305;  -11.077;53797.773
558.380;42931.723;  -11.108;56145.984
558.964;43506.426;   -9.057;57277.930
559.548;44702.141;   -6.977;56459.641
560.132;42721.898;  -11.457;54434.543
560.716;41007.918;  -11.378;54800.617
561.300;41958.746;   -9.577;57606.945
561.884;43249.801;   -7.127;58972.445
562.467;41278.461;   -7.118;57327.570
563.051;40332.004;  -13.358;54962.434
563.635;41698.547;  -10.178;52594.473
564.219;42492.180;   -7.837;50610.410
564.802;43336.605;  -11.398;49551.180
565.386;42793.801;  -12.788;48370.953
565.969;41903.199;   -9.077;48178.871
566.553;40639.953;   -6.207;49957.305
567.136;41623.402;   -8.568;50369.594
567.720;38668.328;  -11.868;49492.004
568.303;36791.156;   -8.268;50616.352
568.887;36602.559;   -8.698;50727.148
569.470;37081.125;   -6.808;51698.379
570.053;36174.336;  -13.188;52122.078
570.637;34059.879;  -12.037;52536.438
571.220;33871.125;   -8.577;51186.098
571.803;34703.285;   -8.498;51032.762
572.386;36485.090;  -10.498;49609.887
572.969;38818.086;   -9.388;48285.926
573.552;37792.719;   -8.338;47624.285
574.135;36395.754;   -8.518;45498.641
574.718;33823.941;  -13.628;41970.434
575.301;33159.023;  -10.893;41447.137
575.884;32494.107;   -8.158;40923.836
576.467;33420.801;  -10.328;45267.723
577.050;34488.906;  -13.058;48175.543
577.633;35618.848;   -9.458;47729.328
578.216;35063.621;   -8.928;47579.793
578.799;34073.461;   -9.358;47820.996
579.381;32801.832;  -11.388;48115.551
579.964;30271.668;  -11.718;47333.766
580.547;31908.721;   -8.588;46668.969
581.129;33357.027;   -8.859;44466.141
581.712;34849.586;  -10.729;44164.922
582.294;35524.277;  -11.118;46477.855
582.877;35238.566;   -5.218;48244.254
583.459;33547.836;   -8.679;47437.895
584.042;31288.113;  -10.709;46943.219
584.624;30731.359;  -11.669;46792.227
585.206;30486.645;   -8.218;46557.250
585.789;30329.537;  -10.569;45793.773
586.371;31544.391;  -11.859;43836.391
586.953;30577.492;  -10.719;42972.492
587.536;29094.113;   -7.198;42487.211
588.118;29019.951;   -8.720;42086.414
588.700;28074.896;  -10.439;43389.930
589.282;29846.975;   -9.198;43646.039
589.864;32654.613;   -9.199;43438.109
590.446;34686.344;  -11.319;43151.926
591.028;34693.500;  -11.159;42781.867
591.610;33312.449;  -11.779;42839.098
592.192;30482.480;   -7.668;42820.402
592.774;29022.469;  -11.949;40724.277
593.356;28045.939;  -12.129;39874.789
593.937;27233.891;  -10.669;39980.648
594.519;29386.922;   -6.509;42069.633
595.101;31287.680;  -10.849;42976.031
595.683;31408.949;  -11.679;44084.441
596.264;32235.869;   -9.049;43478.797
596.846;32002.502;   -8.849;43803.672
597.427;32008.576;   -9.570;42986.934
598.009;33199.309;  -12.620;42832.219
598.591;33613.355;  -10.039;42580.086
599.172;33324.375;  -10.369;43061.805
599.753;33469.949;   -9.140;41691.469
600.335;34798.105;  -11.430;40692.520
600.916;32889.535;   -9.939;39982.422
601.498;30677.865;   -8.479;40318.617
602.079;29370.631;  -10.920;40670.609
602.660;29067.152;  -11.480;41450.898
603.241;30636.018;  -11.699;41137.738
603.823;29428.336;   -9.579;38868.797
604.404;28404.184;  -10.620;38182.785
604.985;30264.057;  -10.450;38078.047
605.566;30435.217;   -9.129;38056.633
606.147;30528.980;   -7.510;37020.418
606.728;31923.148;  -10.660;37883.359
607.309;30348.252;  -11.740;38748.273
607.890;30132.377;   -9.759;38850.230
608.471;29789.996;   -8.250;37457.918
609.051;29138.863;   -9.240;36066.457
609.632;28028.826;  -12.120;35991.074
610.213;28188.465;   -9.110;37402.641
610.794;29040.316;   -8.030;38383.363
611.374;29073.373;   -8.110;40562.387
611.955;30043.539;  -13.560;38533.727
612.536;31540.795;  -11.400;36951.789
613.116;30942.111;   -8.070;37197.891
613.697;31056.352;  -10.830;38411.125
614.277;29148.625;  -11.641;38673.938
614.858;29844.590;  -13.310;37075.863
615.438;29428.096;   -7.460;35092.906
616.019;27232.939;   -7.601;33666.301
616.599;27446.977;  -12.020;34189.023
617.179;29227.199;  -11.780;36952.047
617.760;30499.777;   -8.570;39582.574
618.340;31423.561;  -11.471;38943.977
618.920;32293.982;  -11.170;37594.156
619.500;32319.164;  -11.071;37866.938
620.080;31224.416;   -7.750;37869.043
620.660;32209.174;  -12.711;36868.617
621.241;33778.109;  -10.211;36352.309
621.821;34264.465;  -10.961;35459.520
622.401;33269.176;   -7.720;35207.414
622.980;32244.193;   -8.981;35980.422
623.560;30783.785;   -9.331;37351.328
624.140;29431.268;   -9.850;34388.582
624.720;24720.205;   -7.451;32368.764
625.300;21468.873;   -9.070;32638.629
625.880;24727.945;  -12.601;34599.035
626.459;28723.020;  -11.751;36831.738
627.039;31541.441;   -9.281;38299.098
627.619;31323.799;   -8.801;38289.574
628.198;29836.295;  -12.071;37220.695
628.778;28935.977;   -9.461;37632.563
629.357;29634.123;   -8.491;38003.012
629.937;29684.779;   -9.721;38402.039
630.516;29284.906;   -9.951;37868.801
631.096;29165.586;  -11.731;35760.410
631.675;31246.158;   -8.572;35225.219
632.254;36229.969;  -11.282;35130.289
632.834;35714.793;  -13.322;35794.570
633.413;33897.129;  -10.301;35788.922
633.992;31705.838;   -8.582;34532.863
634.571;32564.316;   -8.352;33590.113
635.151;35320.715;  -11.912;34943.863
635.730;33769.129;  -10.511;35352.523
636.309;30171.316;   -7.731;35366.605
636.888;27661.105;   -9.952;36165.637
637.467;27941.727;  -11.672;37515.902
638.046;29500.383;   -8.901;39288.695
638.625;32499.271;   -7.912;38279.699
639.204;32432.957;  -10.022;37741.598
639.782;31304.195;  -12.252;38364.551
640.361;27745.576;  -10.041;36740.621
640.940;25031.527;  -11.161;34950.082
641.519;25910.316;   -9.701;34137.398
642.097;28525.811;  -11.271;35654.258
642.676;31032.832;   -8.651;35637.957
643.255;32336.984;   -8.711;36567.074
643.833;31806.041;   -9.581;37809.434
644.412;31775.033;  -13.711;37337.293
644.990;30489.697;  -11.811;37018.531
645.569;30117.279;   -9.411;36518.469
646.147;29822.063;  -10.291;36186.430
646.726;30150.666;  -12.401;36267.688
647.304;31338.393;  -10.411;36647.625
647.882;32690.705;   -9.651;39286.742
648.461;34112.242;   -9.631;39157.703
649.039;32497.889;  -11.881;35412.883
649.617;31321.961;   -9.661;34744.918
650.195;30692.258;   -9.301;35403.098
650.773;29537.094;  -10.511;35053.797
651.352;27217.807;  -11.521;33756.816
651.930;24906.332;  -12.211;31868.773
652.508;23411.236;   -9.171;33121.551
653.086;27163.848;   -9.371;33564.793
653.663;30278.193;  -13.161;34054.668
654.241;28947.547;  -13.031;35693.309
654.819;30427.438;   -9.371;36422.906
655.397;30431.150;  -10.511;38213.484
655.975;29773.922;  -10.371;39507.625
656.553;29547.082;  -10.051;39498.223
657.130;28118.281;  -10.061;40395.480
657.708;27355.596;   -9.561;39242.020
658.286;27509.076;  -11.511;38920.020
658.863;28843.164;  -10.261;40202.898
659.441;32160.547;   -7.531;39677.938
660.018;32259.197;   -9.501;40413.355
660.596;30826.799;  -13.301;39931.414
661.173;32179.313;  -11.211;39604.531
661.750;32321.943;   -9.951;39700.070
662.328;31261.313;   -9.390;39292.809
662.905;30622.848;  -11.330;38235.648
663.482;26608.928;   -9.050;36212.305
664.060;24646.752;   -8.240;35944.945
664.637;27543.092;  -10.050;35170.785
665.214;29053.309;  -11.760;34197.523
665.791;30851.186;  -10.530;34549.520
666.368;30054.893;   -9.690;35118.578
666.945;30194.838;   -9.320;36019.418
667.522;31511.820;  -11.860;36048.438
668.099;31264.121;  -10.770;36243.914
668.676;29995.865;   -6.260;35958.875
669.253;28746.865;   -7.000;37384.730
669.830;29120.172;  -10.190;36779.629
670.407;29016.742;   -9.550;35231.289
670.984;28677.822;   -9.260;35544.270
671.560;29340.521;   -9.280;35466.867
672.137;28728.826;  -11.810;34280.863
672.714;29626.295;  -11.490;34632.863
673.290;30752.820;   -7.740;35135.422
673.867;31024.674;  -10.660;36114.480
674.443;31045.316;  -12.230;36152.859
675.020;28915.553;  -10.450;35327.238
675.596;29857.980;   -9.260;35795.176
676.173;30426.893;  -10.780;35430.355
676.749;29974.150;  -13.690;33549.516
677.326;29887.625;  -11.980;32210.012
677.902;29970.615;   -8.630;32068.871
678.478;29345.510;  -10.730;32583.891
679.054;28452.820;  -10.520;32088.928
679.631;28773.568;  -11.920;30978.848
680.207;30097.205;   -7.490;33160.887
680.783;31525.666;   -9.860;35570.363
681.359;30725.959;  -13.380;36125.184
681.935;30503.578;  -12.480;35240.922
682.511;30523.037;   -7.900;34429.961
683.087;30948.240;   -7.710;34463.680
683.663;30388.252;  -11.480;34648.898
684.239;28883.178;  -14.090;34546.457
684.815;27951.197;   -7.560;35586.375
685.390;28117.494;   -9.910;35821.895
685.966;28609.846;  -11.159;35085.871
686.542;30818.848;  -11.169;34198.230
687.118;33286.629;   -5.959;32847.707
687.693;33996.090;  -10.329;32794.027
688.269;33607.477;  -12.059;33072.367
688.844;31569.609;  -10.909;33141.664
689.420;29395.818;   -8.019;33965.742
689.995;27704.008;   -8.399;34655.523
690.571;26486.496;  -10.949;33576.742
691.146;26486.830;   -9.619;32657.219
691.722;26286.244;   -8.999;32526.979
692.297;26029.439;  -11.589;33014.617
692.872;27402.596;  -11.739;34012.254
693.448;27235.865;  -11.059;34237.434
694.023;26314.971;  -10.139;34142.672
694.598;28135.107;   -9.029;34132.031
695.173;28748.889;  -13.319;34205.250
695.748;27669.094;  -10.169;32882.488
696.323;27530.389;   -8.339;32864.906
696.898;27757.572;   -8.169;33170.004
697.473;28266.295;  -12.309;32432.984
698.048;27792.443;  -10.989;31649.303
698.623;27307.629;   -9.329;30778.141
699.198;28755.281;   -9.849;31140.119
699.773;30210.285;  -12.329;31764.299
700.348;28927.432;  -10.389;31780.816
700.922;28943.461;   -9.269;32046.375
701.497;29996.670;   -9.329;32603.574
702.072;30351.234;  -10.789;34799.871
702.646;28971.756;  -10.839;35793.172
703.221;26612.334;   -9.099;35201.590
703.795;28477.195;  -10.939;34764.527
704.370;29142.361;  -12.859;34307.367
704.944;29426.439;  -11.559;33509.887
705.519;30099.088;   -7.939;31388.584
706.093;31104.668;  -10.499;31340.104
706.668;31439.855;  -11.289;32630.281
707.242;30368.199;  -11.509;32728.779
707.816;29151.973;   -9.639;32947.238
708.390;27645.813;  -11.429;33277.855
708.965;27974.652;  -11.869;33834.336
709.539;27850.320;  -11.689;33709.273
710.113;27923.811;  -10.478;33044.313
710.687;27518.326;  -10.228;31953.992
711.261;26017.621;  -13.698;30505.949
711.835;25854.977;  -13.378;30262.369
712.409;26256.510;   -9.698;31254.447
712.983;28397.182;  -11.898;32754.986
713.557;29661.344;  -15.138;34018.824
714.131;29419.018;  -14.098;34579.625
714.704;28583.627;   -9.958;33890.262
715.278;26266.826;  -10.028;33531.102
715.852;24946.592;  -11.148;33601.660
716.425;25689.840;   -9.068;33515.117
716.999;26789.920;  -10.038;33185.555
717.573;27841.832;   -9.798;33905.996
718.146;28731.809;  -12.378;35199.293
718.720;28878.053;  -11.918;35060.551
719.293;28651.039;   -8.088;34973.230
719.867;31517.037;  -10.888;36394.449
720.440;31432.604;  -11.938;36663.008
721.013;29756.611;  -12.818;35102.426
721.587;28173.463;  -10.298;33985.266
722.160;26775.197;  -10.048;33524.965
722.733;25763.516;  -12.108;32987.043
723.306;26100.080;  -10.818;33066.301
723.880;28315.680;   -8.908;33399.500
724.453;30771.324;   -9.878;33468.297
725.026;30224.270;  -11.188;33816.637
725.599;27263.203;  -11.678;32797.996
726.172;26875.914;   -9.618;33187.434
726.745;27803.088;   -8.258;35136.613
727.318;29107.697;  -12.978;35751.730
727.891;30033.225;  -12.148;35890.430
728.463;29541.287;   -8.968;34822.090
729.036;28070.883;  -10.188;32895.086
729.609;28707.902;  -11.788;31823.225
730.182;25948.166;  -11.788;31445.283
730.754;23611.594;  -10.268;32373.223
731.327;24000.967;   -9.998;33676.820
731.900;24323.498;  -12.228;33417.000
732.472;25113.742;  -13.848;31978.498
733.045;26865.404;   -8.698;30368.777
733.617;26871.584;  -10.607;30574.215
734.190;27088.189;  -11.507;31280.975
734.762;24666.375;  -13.647;31674.412
735.334;22597.604;   -9.767;31247.291
735.907;22965.820;   -9.897;29876.211
736.479;23415.037;  -11.637;29808.488
737.051;23210.605;   -9.567;30233.547
737.623;23918.125;   -8.187;31469.086
738.195;24105.336;  -11.187;31784.225
738.768;25711.906;  -12.337;32120.523
739.340;26687.316;  -12.227;32094.342
739.912;26038.615;  -11.057;31312.680
740.484;24671.482;  -10.207;31946.238
741.056;23010.807;  -10.047;32984.059
741.628;24213.803;  -13.627;33897.715
742.199;26449.205;   -7.177;33213.016
742.771;25051.168;  -10.797;31369.113
743.343;22881.947;  -11.997;31865.473
743.915;21936.510;  -12.867;32388.631
744.487;21903.918;   -7.617;31079.568
745.058;21999.281;   -9.557;30570.107
745.630;22421.893;   -9.877;29970.127
746.201;23600.354;  -14.177;29186.766
746.773;24609.215;   -9.237;28805.723
747.344;24568.221;   -9.847;29591.223
747.916;22850.453;  -11.657;31412.201
748.487;22768.238;  -10.587;32194.898
749.059;24014.920;   -8.707;32533.719
749.630;24767.326;  -10.537;32158.518
750.201;23778.824;  -11.687;30855.395
750.773;21922.541;  -11.647;28622.555
751.344;21517.955;   -7.147;28405.732
751.915;22571.213;   -9.757;28461.551
752.486;22933.480;  -12.427;27842.850
753.057;20966.229;  -12.227;27845.008
753.628;19677.770;  -10.417;27728.107
754.199;20526.713;  -11.767;27381.086
754.770;21521.914;  -11.187;25882.203
755.341;21629.941;  -10.507;25886.184
755.912;21982.348;   -9.387;26050.861
756.483;21735.748;  -10.647;26798.779
757.054;20005.287;  -11.837;27048.238
757.625;18530.430;  -12.716;26294.838
758.195;18141.736;   -9.666;26142.076
758.766;17800.520;   -8.656;26392.234
759.337;18456.146;  -12.856;26334.594
759.907;19893.590;  -13.366;27579.652
760.478;20756.574;   -8.576;28352.770
761.048;20275.615;  -10.526;27325.088
761.619;19301.494;  -11.116;26460.428
762.189;19379.730;  -12.136;26029.826
762.760;20273.646;   -9.456;26430.145
763.330;21489.418;   -7.136;26670.902
763.900;21230.455;  -11.786;26603.021
764.471;18806.602;  -11.546;25542.740
765.041;17365.662;   -8.096;24358.459
765.611;17205.814;   -8.876;23991.297
766.181;17525.990;  -12.196;24470.236
766.751;18649.305;  -11.636;24845.975
767.321;18460.766;  -10.156;24533.633
767.891;16542.633;  -11.766;24916.492
768.461;15933.287;  -14.936;24776.771
769.031;16317.049;  -12.356;24757.988
769.601;17969.689;   -7.526;24181.088
770.171;18204.932;  -10.766;23670.387
770.741;17366.842;  -13.176;22960.045
771.311;17355.854;  -10.616;22917.523
771.880;17978.734;   -9.576;23562.941
772.450;17832.838;  -10.336;24216.500
773.020;17577.480;  -13.516;24140.398
773.589;16603.246;  -13.466;24414.857
774.159;15835.064;   -8.686;23858.717
774.729;15554.857;   -9.476;22942.135
775.298;15338.383;  -13.666;22324.033
775.867;14891.048;  -11.716;21140.313
776.437;14986.221;   -9.906;20838.092
777.006;14828.613;  -12.166;20599.510
777.576;14556.548;  -12.356;20508.809
778.145;14500.734;  -11.646;20732.947
778.714;14508.229;   -8.226;21062.465
779.283;13987.655;   -9.556;20949.664
779.853;13455.248;  -14.116;20508.623
780.422;13918.559;  -11.506;20649.082
780.991;13499.451;   -9.556;21527.520
781.560;12224.520;   -9.095;22632.658
782.129;12015.839;  -12.135;23048.277
782.698;12026.852;  -10.865;23438.555
783.267;11633.678;   -9.335;23267.734
783.836;11483.447;  -11.045;22415.133
784.404;12351.930;  -13.865;20443.152
784.973;13002.848;  -13.095;19699.150
785.542;13108.645;  -11.575;19763.828
786.111;12985.015;   -9.705;20341.408
786.679;12523.293;  -12.105;20207.967
787.248;12210.232;  -12.455;19516.465
787.817;11987.964;  -11.535;18900.363
788.385;11628.912;   -9.765;17879.121
788.954;11115.669;  -14.005;17658.301
789.522;10545.239;  -11.955;17788.879
790.090;10999.710;  -10.135;18118.277
790.659;11607.527;  -10.975;18338.736
791.227;11170.766;  -13.375;18508.615
791.795;11543.407;  -12.375;17898.254
792.364;11914.606;  -10.725;17295.133
792.932;12286.452;   -9.715;16822.051
793.500;12523.394;  -12.675;17040.148
794.068;12721.835;  -13.495;17179.787
794.636;12904.846;  -10.885;16664.246
795.204;12140.489;  -11.045;16524.545
795.772;12115.349;  -13.175;17274.564
796.340;11666.160;  -12.445;17891.002
796.908;11414.512;   -9.735;17648.561
797.476;11362.546;   -9.815;17064.080
798.044;10982.528;  -13.985;16672.777
798.612;10215.832;  -13.115;17023.996
799.180; 9798.257;  -10.185;16561.615
799.747; 9662.517;   -9.055;15962.773
800.315; 9353.802;  -12.385;15296.992
800.883; 9121.414;  -15.035;14801.771
801.450; 9333.058;  -10.365;14534.430
802.018; 9465.570;   -9.855;14173.248
802.585; 9448.269;  -11.905;14029.547
803.153; 9392.521;  -11.585;13836.846
803.720; 9236.387;   -9.095;13567.324
804.287; 8802.283;   -9.135;13360.622
804.855; 8314.129;  -11.604;13681.981
805.422; 8197.698;  -11.794;13536.560
805.989; 8294.790;  -10.734;13355.958
806.556; 8454.775;  -10.444;13747.896
807.124; 8700.490;  -12.764;13987.376
807.691; 8647.077;  -12.964;14038.674
808.258; 8447.895;  -11.134;14120.152
808.825; 8118.080;   -9.854;13860.111
809.392; 8232.699;  -10.504;13268.790
809.959; 7799.231;  -13.054;12680.389
810.526; 7294.964;   -8.294;12427.308
811.093; 7250.365;   -8.394;12030.105
811.659; 7890.627;  -12.304;11653.664
812.226; 8486.919;  -13.944;11637.183
812.793; 8252.146;  -10.484;11611.521
813.360; 7606.325;  -10.144;11885.181
813.926; 7229.779;  -11.684;12770.539
814.493; 7013.695;  -13.644;12677.638
815.060; 6608.884;   -9.724;11974.336
815.626; 6536.846;   -9.854;11594.715
816.193; 6920.045;  -13.254;11579.474
816.759; 6953.125;  -13.204;11666.972
817.325; 6970.394;   -9.434;11325.530
817.892; 7331.477;  -10.134;11105.369
818.458; 7761.175;  -13.474;10843.928
819.024; 7406.237;  -11.854;10714.406
819.591; 7131.689;  -10.244;10469.165
820.157; 6934.353;  -10.704;10235.523
820.723; 6359.086;  -12.324;10847.563
821.289; 6028.760;   -9.444;11040.980
821.855; 5959.469;   -8.374;10357.100
822.421; 5945.976;  -10.234; 9978.918
822.987; 5941.681;  -13.294; 9754.177
823.553; 5576.913;  -10.884;10065.755
824.119; 5347.551;   -8.884;10036.294
824.685; 5499.964;   -6.784;10029.192
825.251; 5653.836;  -12.004;10199.230
825.816; 5620.524;  -11.474; 9820.189
826.382; 5359.424;   -9.174; 9297.248
826.948; 5483.871;   -9.214; 9381.347
827.513; 5881.568;  -10.774; 9450.726
828.079; 5743.757;  -11.924; 9472.444
828.645; 5134.670;  -10.543; 9292.643
829.210; 4936.438;  -10.533; 9065.341
829.776; 4901.394;  -10.753; 9132.620
830.341; 4793.240;  -10.173; 9092.878
830.906; 4952.893;  -10.743; 9078.557
831.472; 5325.202;  -11.113; 8534.535
832.037; 5182.316;  -10.603; 8677.874
832.602; 4663.734;  -13.323; 8628.692
833.167; 4378.724;  -10.823; 8879.031
833.733; 4308.094;  -10.113; 9189.790
834.298; 4458.376;  -13.583; 9052.608
834.863; 4591.426;  -12.703; 8895.087
835.428; 4586.330;  -10.523; 8824.266
835.993; 4387.923;   -6.963; 8845.385
836.558; 4162.015;  -10.763; 8888.563
837.123; 4206.394;   -9.903; 8966.582
837.688; 4452.112;   -9.913; 8617.860
838.253; 4753.435;  -10.283; 8590.699
838.817; 4983.244;  -12.963; 8443.797
839.382; 4930.036;  -14.243; 8799.356
839.947; 4644.037;  -10.733; 8810.595
840.511; 4359.482;   -9.383; 8796.394
841.076; 3986.999;  -12.563; 8347.231
841.641; 4016.257;  -12.953; 8224.330
842.205; 4098.169;   -7.043; 8223.349
842.770; 4109.186;   -8.163; 8622.107
843.334; 4237.190;  -12.503; 8410.386
843.898; 4177.996;  -11.693; 8337.465
844.463; 4160.238;  -10.203; 8506.283
845.027; 3951.518;   -9.533; 8280.962
845.591; 3761.613;  -13.443; 8231.141
846.156; 3797.108;  -13.143; 7969.179
846.720; 3738.352;   -9.433; 7768.278
847.284; 3639.765;  -11.033; 7630.957
847.848; 3505.163;  -10.403; 7472.395
848.412; 3422.601;  -11.553; 7437.394
848.976; 3470.239;   -8.393; 7674.592
849.540; 3383.516;   -8.713; 7836.011
850.104; 3414.898;  -12.463; 7913.669
850.668; 3771.081;  -12.973; 7694.508
851.232; 3951.219;  -10.793; 7756.887
851.796; 3834.272;  -10.662; 7926.545
852.359; 3524.759;  -13.082; 7827.844
852.923; 3330.360;  -12.192; 7641.163
853.487; 3177.296;  -11.912; 7342.501
854.050; 3168.418;  -10.892; 7042.820
854.614; 3320.667;  -13.992; 7151.338
855.177; 3425.862;  -11.732; 7105.077
855.741; 3459.883;   -8.962; 6989.675
856.304; 3347.705;   -9.442; 6596.634
856.868; 3315.117;  -14.192; 6356.272
857.431; 3409.255;  -12.702; 6468.571
857.995; 3500.545;   -9.942; 6373.210
858.558; 3517.062;   -9.112; 6324.448
859.121; 3261.361;  -12.932; 6408.327
859.684; 3105.995;  -13.442; 6347.886
860.247; 3229.555;  -10.632; 6321.264
860.810; 3275.781;  -11.272; 6301.903
861.374; 3035.983;   -9.832; 6607.881
861.937; 2772.850;  -11.762; 6408.200
862.500; 2770.215;   -9.722; 6572.639
863.062; 2922.810;  -10.512; 6387.297
863.625; 3071.214;  -11.232; 6190.836
864.188; 3239.147;  -14.112; 5807.254
864.751; 3313.721;  -11.302; 5682.413
865.314; 3222.223;  -10.112; 5547.492
865.876; 2980.995;  -12.182; 5500.150
866.439; 2926.115;  -10.722; 5415.909
867.002; 2888.184;   -9.252; 5501.567
867.564; 2708.271;   -9.572; 5413.946
868.127; 2506.703;  -13.142; 5160.325
868.689; 2392.458;  -12.902; 5133.183
869.252; 2286.112;   -9.732; 5252.382
869.814; 2182.627;   -9.432; 5297.141
870.377; 2177.338;  -11.552; 5390.919
870.939; 2233.920;   -9.052; 5599.898
871.501; 2310.491;  -10.982; 5248.336
872.063; 2329.098;  -12.292; 4854.235
872.626; 2268.273;  -14.912; 4817.074
873.188; 2261.787;  -13.112; 4987.732
873.750; 2236.369;  -13.442; 4868.651
874.312; 2140.045;   -9.402; 4779.330
874.874; 2050.180;  -11.062; 4866.348
875.436; 1970.660;  -13.931; 4718.887
875.998; 1968.041;   -9.561; 4660.005
876.560; 1998.880;  -11.321; 4462.964
877.122; 1943.707;  -12.221; 4145.042
877.683; 1833.780;  -12.191; 4056.481
878.245; 1746.757;  -12.101; 3950.740
878.807; 1779.764;   -8.971; 4058.958
879.369; 1804.451;  -12.071; 3954.677
879.930; 1718.774;  -14.621; 3941.495
880.492; 1648.029;  -10.311; 4067.014
881.053; 1617.244;  -10.901; 3859.633
881.615; 1519.678;  -14.411; 3776.071
882.176; 1418.367;  -13.761; 3734.750
882.738; 1360.771;   -9.181; 3678.489
883.299; 1331.981;  -11.791; 3405.407
883.860; 1317.013;  -13.121; 3351.106
884.422; 1307.864;  -11.211; 3394.044
884.983; 1271.722;  -10.091; 3166.443
885.544; 1199.693;   -8.461; 3189.802
886.105; 1121.939;  -12.361; 3160.360
886.666; 1053.378;  -14.141; 3093.059
887.227;  996.976;  -11.361; 2941.957
887.788;  936.384;  -11.401; 2974.836
888.349;  870.900;  -13.791; 2721.214
888.910;  864.122;  -13.191; 2696.493
889.471;  865.636;   -9.881; 2560.172
890.032;  848.630;   -9.881; 2558.190
890.593;  823.537;  -10.371; 2567.669
891.153;  796.573;  -13.301; 2460.307
891.714;  749.082;  -11.431; 2372.046
892.275;  714.072;  -11.291; 2309.505
892.835;  682.177;  -11.471; 2382.543
893.396;  631.129;  -11.541; 2295.502
893.956;  572.509;  -11.181; 2162.420
894.517;  530.749;  -11.741; 2125.439
895.077;  522.169;  -11.671; 2086.978
895.638;  522.896;  -11.311; 2126.316
896.198;  495.550;   -9.831; 1838.275
896.758;  453.529;   -8.421; 1892.813
897.319;  419.578;  -12.351; 1792.232
897.879;  404.562;  -13.511; 1762.751
898.439;  380.019;  -12.001; 1661.149
898.999;  355.155;  -10.180; 1781.468
899.559;  345.474;  -12.030; 1703.347
900.119;  340.903;  -15.710; 1537.525
900.679;  336.920;   -8.900; 1638.384
901.239;  320.185;   -8.340; 1527.902
901.799;  310.067;  -13.910; 1456.441
902.359;  302.780;  -13.460; 1357.140
902.919;  297.675;  -11.490; 1331.118
903.479;  286.568;  -12.110; 1317.257
904.038;  265.331;  -11.720; 1262.595
904.598;  249.295;  -13.610; 1152.034
905.158;  245.542;  -11.040; 1240.893
905.717;  238.956;  -10.900; 1233.691
906.277;  227.954;  -15.080; 1217.330
906.836;  218.274;  -13.380; 1222.408
907.396;  208.984;  -10.780; 1193.047
907.955;  201.707;   -8.500; 1182.526
908.515;  196.718;  -12.760; 1099.364
909.074;  188.963;  -11.900; 1092.863
909.633;  183.419;   -8.950; 1069.121
910.192;  179.558;   -8.770; 1196.460
910.752;  174.473;  -12.390; 1029.960
911.311;  168.703;  -13.680; 1009.780
911.870;  166.597;  -12.370;  971.460
912.429;  167.876;  -10.900; 1094.080
912.988;  167.200;  -11.690; 1081.060
913.547;  162.417;  -13.240;  940.380
914.106;  157.787;  -11.990;  999.420
914.665;  154.626;   -9.990;  984.020
915.224;  153.191;  -12.880; 1035.760
915.782;  153.805;  -12.350;  922.560
916.341;  153.592;   -9.110; 1049.840
916.900;  149.070;   -9.270;  925.260
917.458;  146.951;  -13.240;  884.220
918.017;  145.563;  -13.550;  942.600
918.576;  146.836;  -12.320;  904.440
919.134;  144.732;  -11.490;  837.980
919.693;  141.817;  -13.670;  893.060
920.251;  141.223;  -15.470;  876.500
920.809;  141.103;  -11.290;  839.580
921.368;  140.551;  -10.210;  885.360
921.926;  139.299;  -12.140;  842.940
922.484;  137.060;  -13.080;  903.360
923.042;  136.566;  -11.720;  880.340
923.601;  139.687;   -7.480;  998.680
924.159;  139.326;  -11.570;  935.560
924.717;  133.984;  -13.840;  841.080
925.275;  134.276;  -10.640;  903.240
925.833;  134.733;  -11.540;  779.320
926.391;  135.590;  -12.960;  938.380
926.949;  132.923;  -14.130;  857.680
927.506;  133.545;  -11.750;  903.500
928.064;  134.469;  -10.250;  877.580
928.622;  133.863;  -13.030;  880.100
929.180;  132.386;  -13.400;  814.180
929.737;  133.949;  -10.700;  808.540
930.295;  137.990;  -10.070;  928.480
930.853;  139.169;  -11.960;  849.100
931.410;  139.280;  -13.120;  821.120
931.968;  137.893;  -10.770;  940.660
932.525;  138.716;  -10.680;  909.380
933.082;  139.486;  -13.130;  811.440
933.640;  140.663;  -13.210;  925.900
934.197;  138.891;  -11.060;  886.360
934.754;  140.616;   -9.580;  897.780
935.312;  143.674;  -14.000;  863.340
935.869;  147.425;  -10.710; 1012.980
936.426;  147.827;   -9.860;  872.800
936.983;  149.047;   -9.710;  889.020
937.540;  150.338;  -13.990;  838.280
938.097;  148.418;  -14.040;  940.120
938.654;  148.393;  -10.310;  898.860
939.211;  150.560;  -10.560;  952.480
939.768;  154.375;  -13.900;  915.420
940.324;  157.494;  -14.760;  904.200
940.881;  159.619;  -10.370;  878.500
941.438;  161.690;   -8.260; 1021.200
941.995;  157.821;  -12.540;  992.560
942.551;  154.168;  -14.670;  875.620
943.108;  153.910;  -10.450;  937.920
943.664;  156.646;  -10.750;  869.340
944.221;  160.558;  -11.550; 1088.140
944.777;  157.304;  -14.770;  869.680
945.334;  157.819;  -12.820;  884.840
945.890;  159.567;  -10.130;  946.480
946.446;  160.254;  -13.470;  947.020
947.003;  162.305;  -12.120;  964.940
947.559;  164.462;   -9.980; 1063.040
948.115;  163.889;   -9.080; 1026.540
948.671;  162.268;  -10.830;  967.300
949.227;  158.932;  -12.440;  859.560
949.783;  156.576;  -12.910;  858.900
950.339;  157.950;  -10.270;  991.000
950.895;  158.999;  -13.630; 1023.840
951.451;  158.013;  -15.100;  925.280
952.007;  157.828;  -11.330;  998.540
952.563;  158.794;  -10.580;  937.780
953.118;  157.654;  -13.440;  904.940
953.674;  156.352;  -12.710;  935.780
954.230;  156.448;  -10.350;  949.640
954.785;  153.904;   -9.190;  936.640
955.341;  151.139;  -11.200;  998.160
955.897;  148.812;  -16.560;  834.660
956.452;  151.481;  -12.570;  953.840
957.008;  151.633;   -7.970; 1083.640
957.563;  149.730;  -11.940; 1009.540
958.118;  143.058;  -13.450;  877.700
958.674;  142.691;  -12.030;  946.780
959.229;  145.291;   -9.410; 1013.980
959.784;  143.400;  -12.000;  832.400
960.339;  141.948;  -14.780; 1001.280
960.894;  138.728;   -9.860;  963.760
961.449;  135.151;   -9.970;  859.960
962.004;  135.104;  -10.900; 1212.840
962.559;  128.745;  -13.150;  860.140
963.114;  126.476;  -13.740;  742.480
963.669;  127.058;   -9.820;  915.500
964.224;  125.249;  -13.890;  874.340
964.779;  124.926;  -12.600;  828.420
965.334;  125.006;  -10.950; 1017.860
965.888;  125.423;  -11.170;  875.360
966.443;  128.501;  -12.540;  972.380
966.998;  128.275;  -15.780;  819.460
967.552;  127.532;   -9.760;  908.380
968.107;  124.113;   -9.060;  868.300
968.661;  124.894;  -11.950;  922.440
969.216;  124.769;  -12.800;  856.280
969.770;  124.953;  -11.210;  917.200
970.324;  124.416;  -11.610;  923.140
970.879;  121.541;  -11.370;  947.180
971.433;  117.460;  -12.540;  952.720
971.987;  112.843;  -11.320;  895.340
972.541;  109.650;  -10.720;  917.100
973.095;  108.634;   -9.680; 1009.460
973.649;  106.192;  -11.440;  809.480
974.203;  105.599;  -11.210;  829.040
974.757;  106.344;  -10.240;  855.220
975.311;  106.802;  -13.720;  872.600
975.865;  104.691;  -13.770;  881.820
976.419;   98.981;  -11.690;  857.400
976.973;   92.153;   -9.510;  849.620
977.526;   86.295;  -12.620;  949.920
978.080;   78.351;  -12.010;  796.780
978.634;   77.988;  -10.170;  921.320
979.187;   78.292;   -9.020;  905.400
979.741;   80.436;   -9.820; 1018.380
980.294;   78.043;  -14.870;  789.160
980.848;   77.902;  -12.380;  717.220
981.401;   81.802;  -10.350;  816.540
981.955;   83.787;  -13.720;  844.300
982.508;   82.959;  -11.490;  746.340
983.061;   83.545;  -10.000;  915.260
983.615;   82.268;  -11.480;  798.800
984.168;   79.806;  -13.220;  770.080
984.721;   79.236;  -13.960;  880.760
985.274;   79.197;  -10.870;  867.500
985.827;   78.430;   -9.790;  834.220
986.380;   76.974;  -13.120;  721.340
986.933;   76.047;  -12.450;  864.800
987.486;   74.265;  -10.210;  861.920
988.039;   74.437;   -8.430;  863.100
988.591;   73.092;  -10.520;  893.260
989.144;   70.250;  -14.860;  737.260
989.697;   69.003;  -13.080;  758.740
990.250;   71.157;  -10.150;  858.100
990.802;   70.194;  -13.430;  755.860
991.355;   70.286;  -12.750;  974.880
991.907;   68.107;  -12.040;  864.320
992.460;   65.928;  -11.330;  753.760
993.012;   65.913;  -13.610;  749.540
993.565;   64.393;  -13.460;  711.360
994.117;   66.385;   -9.360;  950.780
994.669;   63.178;  -11.300;  701.320
995.221;   60.592;  -13.540;  791.920
995.774;   57.532;  -13.430;  787.580
996.326;   56.138;  -12.520;  740.220
996.878;   56.754;  -10.950;  838.420
997.430;   54.714;  -14.300;  699.860
997.982;   54.341;  -13.760;  750.140
998.534;   54.775;  -11.530;  739.060
999.086;   53.719;  -10.310;  738.220
999.638;   51.224;  -12.530;  661.380
1000.190;   50.438;  -11.840;  699.320
1000.741;   50.664;  -10.260;  742.700
1001.293;   50.812;   -8.860;  686.020
1001.845;   49.641;  -13.700;  676.640
1002.396;   49.600;  -12.100;  743.400
1002.948;   48.709;  -12.760;  737.400
1003.500;   47.622;  -10.380;  723.780
1004.051;   48.530;  -11.900;  907.580
1004.603;   46.117;  -12.250;  791.820
1005.154;   42.620;  -13.210;  608.980
1005.705;   42.646;  -10.950;  723.960
1006.257;   42.280;  -13.880;  707.220
1006.808;   41.168;  -12.840;  685.460
1007.359;   40.226;  -10.570;  763.240
1007.910;   39.374;   -9.620;  646.640
1008.461;   40.253;  -13.630;  732.940
1009.013;   38.203;  -17.200;  588.340
1009.564;   39.125;  -10.200;  793.520
1010.115;   37.804;  -12.570;  597.040
1010.665;   37.804;  -15.150;  602.160
1011.216;   37.146;  -14.480;  667.920
1011.767;   36.456;  -11.340;  697.920
1012.318;   37.248;   -9.780;  736.980
1012.869;   36.316;  -12.380;  679.000
1013.419;   34.765;  -15.560;  603.120
1013.970;   35.644;  -11.010;  666.640
1014.521;   34.991;  -11.610;  620.620
1015.071;   35.390;  -13.450;  670.380
1015.622;   34.344;  -13.870;  635.460
1016.172;   33.811;  -11.610;  596.820
1016.723;   34.301;  -12.120;  614.380
1017.273;   33.453;  -13.620;  604.160
1017.823;   33.767;  -14.140;  650.340
1018.374;   32.732;  -12.800;  611.760
1018.924;   32.999;  -12.340;  716.880
1019.474;   33.625;  -11.410;  718.880
1020.024;   31.433;  -14.770;  657.580
1020.574;   32.412;   -9.780;  726.160
1021.124;   32.584;   -8.560;  673.580
1021.674;   31.558;  -15.190;  559.120
1022.224;   32.248;  -13.530;  708.940
1022.774;   31.970;  -13.280;  668.820
1023.324;   32.460;  -10.690;  753.520
1023.874;   34.245;  -10.240;  875.760
1024.423;   31.423;  -12.540;  613.700
1024.973;   30.457;  -10.010;  610.760
1025.523;   30.126;  -10.550;  620.960
1026.072;   29.671;  -13.560;  606.420
1026.622;   29.496;  -15.120;  675.740
1027.172;   30.092;  -11.260;  715.660
1027.721;   29.373;  -11.410;  601.220
1028.270;   29.983;  -13.530;  663.400
1028.820;   29.450;  -13.680;  638.080
1029.369;   29.020;  -13.520;  612.700
1029.918;   29.503;  -10.980;  649.840
1030.468;   28.140;  -13.530;  564.780
1031.017;   28.487;  -13.170;  634.800
1031.566;   28.035;  -12.200;  608.900
1032.115;   29.362;   -9.960;  694.500
1032.664;   27.440;  -13.210;  596.480
1033.213;   28.350;  -12.500;  735.420
1033.762;   27.028;  -11.910;  635.620
1034.311;   28.359;   -9.640;  677.220
1034.860;   27.225;  -13.310;  691.000
1035.408;   27.563;  -11.830;  722.720
1035.957;   27.390;  -12.000;  719.540
1036.506;   25.798;  -11.690;  530.800
1037.055;   28.098;  -10.990;  844.320
1037.603;   25.940;  -15.120;  664.000
1038.152;   23.709;  -12.450;  534.760
1038.700;   25.642;  -10.560;  585.740
1039.249;   25.717;  -11.080;  681.220
1039.797;   25.523;  -12.540;  633.360
1040.345;   25.098;  -11.920;  705.420
1040.894;   25.295;  -11.410;  625.300
1041.442;   24.892;  -14.320;  632.200
1041.990;   24.051;  -16.240;  559.160
1042.538;   23.927;  -11.680;  536.180
1043.087;   24.550;  -10.760;  570.860
1043.635;   25.465;  -11.850;  670.500
1044.183;   23.457;  -15.480;  586.400
1044.731;   22.982;  -11.770;  576.000
1045.279;   23.630;  -13.090;  674.920
1045.827;   25.555;  -12.440;  892.400
1046.374;   22.202;  -13.840;  515.420
1046.922;   22.052;  -13.220;  590.580
1047.470;   24.048;  -10.230;  691.300
1048.018;   23.032;  -14.590;  647.960
1048.565;   23.678;  -12.050;  708.600
1049.113;   21.544;  -11.650;  557.000
1049.660;   21.793;  -10.510;  629.660
1050.208;   22.874;  -13.310;  675.640
1050.755;   21.415;  -15.900;  606.580
1051.303;   22.174;  -11.430;  686.820
1051.850;   22.037;   -8.480;  635.120
1052.397;   20.537;  -15.010;  473.960
1052.945;   19.843;  -13.960;  617.760
1053.492;   22.238;  -13.150;  741.840
1054.039;   21.436;   -9.630;  720.180
1054.586;   20.795;  -13.680;  557.240
1055.133;   21.447;  -14.570;  693.140
1055.680;   20.645;  -13.820;  646.620
1056.227;   20.031;  -11.730;  542.780
1056.774;   22.495;  -12.480;  794.980
1057.321;   19.476;  -13.930;  523.260
1057.868;   19.669;  -11.690;  651.320
1058.415;   20.143;   -9.520;  651.980
1058.961;   20.181;  -13.160;  678.940
1059.508;   19.412;  -12.920;  643.820
1060.055;   19.041;  -11.920;  581.780
1060.601;   19.865;  -11.500;  624.300
1061.148;   19.655;  -14.330;  616.820
1061.694;   18.464;  -16.870;  592.580
1062.241;   18.313;  -10.330;  596.320
1062.787;   19.336;  -10.620;  663.140
1063.334;   20.834;  -10.110;  808.560
1063.880;   18.554;  -13.400;  668.360
1064.426;   18.201;  -10.680;  706.820
1064.972;   18.708;   -9.920;  601.340
1065.518;   17.024;  -10.980;  566.640
1066.065;   18.654;  -14.890;  624.460
1066.611;   17.501;  -12.870;  598.800
1067.157;   18.498;  -12.950;  641.860
1067.703;   18.014;  -13.540;  668.480
1068.249;   17.431;  -13.540;  605.220
1068.794;   17.545;  -12.600;  626.880
1069.340;   16.690;  -10.620;  578.960
1069.886;   17.747;  -12.830;  590.700
1070.432;   15.657;  -14.870;  541.720
1070.977;   15.672;  -11.980;  601.080
1071.523;   16.820;   -8.200;  573.060
1072.068;   16.455;  -12.330;  582.000
1072.614;   16.055;  -16.370;  527.760
1073.160;   17.290;  -11.100;  687.040
1073.705;   15.764;  -10.480;  572.520
1074.250;   16.165;  -14.520;  559.900
1074.796;   16.702;  -11.460;  655.160
1075.341;   16.061;  -11.950;  664.100
1075.886;   15.798;  -11.460;  594.240
1076.431;   15.748;  -13.770;  649.880
1076.976;   14.915;  -12.680;  639.220
1077.521;   14.093;  -13.170;  583.080
1078.067;   15.062;  -10.860;  579.400
1078.612;   15.344;  -13.920;  661.620
1079.156;   15.593;  -13.880;  601.540
1079.701;   15.313;  -13.120;  693.260
1080.246;   15.017;   -9.940;  696.300
1080.791;   14.966;  -14.740;  625.020
1081.336;   15.143;  -13.750;  659.320
1081.880;   14.871;  -13.400;  649.680
1082.425;   13.715;  -12.220;  573.480
1082.970;   15.445;  -11.610;  717.040
1083.514;   13.548;  -13.580;  597.000
1084.059;   12.727;  -12.810;  586.720
1084.603;   13.176;  -12.320;  565.840
1085.147;   13.615;  -13.190;  645.220
1085.692;   14.150;  -12.480;  716.800
1086.236;   12.383;  -13.020;  503.140
1086.780;   15.411;   -9.190;  751.440
1087.325;   13.682;  -12.480;  654.620
1087.869;   13.524;  -12.450;  610.700
1088.413;   13.179;  -12.240;  705.040
1088.957;   11.911;   -9.020;  543.400
1089.501;   13.792;  -10.320;  766.640
1090.045;   13.113;  -12.720;  726.480
1090.589;   11.188;  -13.690;  569.920
1091.133;   13.113;  -10.020;  673.340
1091.676;   12.938;  -12.330;  591.940
1092.220;   11.478;  -14.970;  600.920
1092.764;   12.642;  -12.430;  706.960
1093.307;   12.851;   -9.800;  673.780
1093.851;   11.033;  -14.970;  556.540
1094.395;   12.058;  -15.310;  683.140
1094.938;   11.391;  -10.370;  632.520
1095.482;   11.616;  -11.050;  559.800
1096.025;   12.681;  -11.840;  710.880
1096.568;   11.834;  -12.840;  779.280
1097.112;    9.136;  -14.700;  508.180
1097.655;   11.908;   -8.720;  603.000
1098.198;   10.444;  -13.610;  600.180
1098.741;   10.633;  -13.350;  612.860
1099.285;   10.655;  -11.230;  657.300
1099.828;    9.140;  -11.840;  439.400
1100.371;   10.605;  -10.840;  608.160
1100.914;    9.942;  -14.190;  682.660
1101.457;   10.079;  -11.240;  679.900
1101.999;    9.059;  -11.270;  584.680
1102.542;   11.052;  -11.480;  641.440
1103.085;    9.930;  -11.750;  658.500
1103.628;    9.932;  -11.400;  762.060
1104.170;    9.215;  -10.490;  588.280
1104.713;   10.516;  -10.600;  646.700
1105.256;    8.894;  -14.360;  557.440
1105.798;    8.260;  -13.210;  499.980
1106.341;   10.611;  -10.270;  728.900
1106.883;    9.217;  -12.200;  521.340
1107.425;    8.588;  -13.110;  668.180
1107.968;    8.488;  -12.840;  612.380
1108.510;    9.508;   -6.480;  684.960
1109.052;    8.081;  -13.940;  612.620
1109.594;    8.092;  -13.690;  554.440
1110.136;    8.361;  -11.880;  643.220
1110.679;    7.844;   -9.500;  633.080
1111.221;    9.280;  -14.160;  604.460
1111.763;    7.569;  -13.980;  559.220
1112.304;    7.125;  -13.880;  547.140
1112.846;    7.900;  -12.210;  666.240
1113.388;   11.094;  -11.390;  942.180
1113.930;    7.501;  -14.540;  694.200
1114.472;    6.211;  -12.640;  606.540
1115.013;    6.636;  -11.620;  551.280
1115.555;    7.106;  -13.640;  587.100
1116.097;    6.032;  -15.380;  579.480
1116.638;    6.981;  -12.640;  684.600
1117.180;    7.649;   -9.850;  667.740
1117.721;    6.812;  -13.690;  568.580
1118.262;    7.210;  -12.680;  677.960
1118.804;    7.442;  -12.530;  637.340
1119.345;    6.147;  -11.690;  578.400
1119.886;    7.300;  -13.380;  704.040
1120.427;    5.834;  -14.070;  589.020
1120.969;    4.988;  -13.500;  597.920
1121.510;    5.387;  -11.480;  563.060
1122.051;    6.576;  -12.830;  723.580
1122.592;    5.414;  -14.290;  655.420
1123.133;    4.345;  -12.400;  547.940
1123.673;    6.863;  -10.130;  706.480
1124.214;    6.786;  -12.930;  612.460
1124.755;    5.899;  -14.380;  639.460
1125.296;    5.460;  -14.000;  627.320
1125.836;    6.549;  -10.070;  691.500
1126.377;    5.356;  -12.640;  599.660
1126.918;    5.437;  -12.960;  614.980
1127.458;    4.660;  -13.350;  622.220
1127.999;    5.382;  -10.750;  656.980
1128.539;    6.236;  -12.350;  694.240
1129.079;    4.506;  -14.860;  632.720
1129.620;    3.843;  -13.840;  558.100
1130.160;    4.748;  -12.330;  539.480
1130.700;    5.442;  -14.530;  640.840
1131.240;    5.138;  -12.530;  643.700
1131.781;    4.527;  -14.450;  619.680
1132.321;    4.401;   -9.790;  599.120
1132.861;    3.212;  -14.860;  564.200
1133.401;    3.646;  -14.290;  593.940
1133.941;    3.585;  -11.750;  626.280
1134.481;    3.393;   -9.920;  597.580
1135.020;    4.067;  -12.290;  609.160
1135.560;    4.542;  -11.650;  674.940
1136.100;    2.939;  -16.270;  501.160
1136.640;    2.909;  -10.890;  510.480
1137.179;    3.538;  -14.180;  537.960
1137.719;    3.722;  -16.250;  605.400
1138.258;    3.036;  -14.230;  587.360
1138.798;    3.898;   -9.090;  663.780
1139.337;    2.988;  -15.130;  482.840
1139.877;    3.417;  -13.680;  642.360
1140.416;    4.686;  -11.320;  878.060
1140.955;    2.297;  -10.860;  535.380
1141.494;    3.372;  -12.920;  669.280
1142.034;    2.377;  -13.930;  583.520
1142.573;    3.131;  -11.440;  646.280
1143.112;    2.788;  -12.000;  553.480
1143.651;    2.296;  -13.670;  536.480
1144.190;    3.346;  -12.730;  691.640
1144.729;    1.921;  -14.560;  607.420
1145.267;    3.162;  -11.830;  584.900
1145.806;    3.395;  -12.230;  637.040
1146.345;    1.864;  -14.130;  635.020
1146.884;    1.574;  -11.590;  622.500
1147.422;    1.838;  -12.550;  533.060
1147.961;    3.489;  -11.180;  708.460
1148.500;    2.493;  -11.510;  669.720
1149.038;    2.725;  -11.640;  632.500
1149.577;    2.716;  -10.130;  698.640
1150.115;    0.256;  -13.970;  452.280
1150.653;    1.457;  -14.520;  607.340
1151.192;    1.963;  -12.810;  552.920
1151.730;    1.904;   -9.100;  652.560
1152.268;    1.747;  -12.220;  589.520
1152.806;    1.556;  -14.140;  571.180
1153.344;   -0.176;  -12.350;  577.640
1153.882;    1.376;   -8.980;  600.060
1154.421;    0.071;  -15.190;  470.620
1154.958;    0.853;  -15.210;  595.240
1155.496;    2.200;  -12.850;  645.280
1156.034;    1.204;   -9.940;  721.880
1156.572;    2.530;  -13.570;  667.060
1157.110;   -0.217;  -14.590;  473.940
1157.647;    1.024;  -13.030;  676.960
1158.185;   -0.050;  -12.140;  564.320
1158.723;   -0.305;  -14.390;  509.200
1159.260;   -0.266;  -14.090;  701.700
1159.798;   -0.008;  -11.920;  658.160
1160.335;    0.192;  -11.110;  631.820

