
Integration time [ms]:   3.882
Averaging Nr. [scans]: 1000
Smoothing Nr. [pixels]: 0
Data measured with spectrometer [name]: 7414430SP
Wave   ;Sample   ;Dark     ;Reference
[nm]   ;[counts] ;[counts] ;[counts] 

288.544;  124.415;   10.292;  793.890
289.143;  128.573;    4.564;  681.602
289.742;  130.887;    6.144;  828.814
290.341;  118.321;    4.396;  789.841
290.940;  108.308;    0.938;  730.702
291.538;  109.100;   -0.684;  881.108
292.137;  108.555;   -2.845;  792.581
292.736;  113.531;   -0.144;  975.101
293.335;  108.986;   -6.352;  735.086
293.934;  110.276;   -7.642;  781.677
294.532;  111.620;   -4.992; 1031.958
295.131;   96.123;   -5.478;  834.394
295.730;   95.999;   -6.549;  809.588
296.328;   94.098;   -9.558;  783.442
296.927;   94.653;   -8.118;  779.652
297.525;   95.856;   -6.908;  781.236
298.124;   86.438;   -9.195;  654.009
298.722;   90.277;   -8.198;  761.933
299.321;   88.682;   -8.817;  708.597
299.919;   86.662;   -7.716;  751.918
300.518;   83.286;  -10.745;  689.338
301.116;   84.254;   -9.647;  691.381
301.715;   84.696;  -10.828;  730.222
302.313;   84.333;   -6.087;  704.943
302.911;   79.788;   -6.824;  733.830
303.509;   84.907;   -8.807;  925.627
304.108;   82.245;   -8.198;  760.383
304.706;   82.208;   -6.218;  801.664
305.304;   76.396;   -7.185;  796.707
305.902;   83.551;   -8.568;  784.484
306.500;   78.826;   -7.737;  728.200
307.098;   76.733;   -6.026;  746.560
307.696;   74.869;   -7.176;  780.432
308.294;   75.348;   -8.656;  731.359
308.892;   77.690;   -6.838;  759.769
309.490;   73.314;   -2.596;  712.161
310.088;   71.793;   -4.485;  788.444
310.686;   76.685;   -3.907;  821.749
311.284;   72.219;   -2.806;  766.040
311.882;   70.806;   -2.845;  731.225
312.480;   66.741;   -3.274;  697.167
313.078;   68.460;   -3.645;  808.331
313.675;   70.488;   -4.997;  691.600
314.273;   65.226;   -0.894;  797.837
314.871;   64.414;   -2.854;  589.829
315.468;   62.121;   -3.644;  652.090
316.066;   66.711;   -3.947;  694.427
316.664;   58.965;   -1.824;  656.351
317.261;   63.220;    1.565;  910.128
317.859;   59.552;   -3.955;  768.735
318.456;   60.291;   -2.886;  830.096
319.054;   56.008;   -0.995;  787.828
319.651;   55.282;   -1.765;  759.928
320.249;   54.483;   -3.685;  810.188
320.846;   52.803;   -3.736;  714.286
321.443;   50.284;   -2.065;  832.135
322.041;   47.703;   -5.635;  812.315
322.638;   45.923;   -5.985;  701.456
323.235;   48.098;   -6.677;  665.683
323.833;   45.366;   -3.497;  740.354
324.430;   41.059;   -6.756;  615.900
325.027;   42.741;   -7.647;  876.855
325.624;   43.458;   -7.598;  644.532
326.221;   40.331;   -5.848;  689.717
326.818;   39.830;   -5.777;  818.332
327.415;   42.129;   -8.769;  748.828
328.012;   41.980;   -6.299;  690.585
328.609;   40.879;   -6.639;  731.389
329.206;   38.485;   -6.358;  778.621
329.803;   37.731;   -8.698;  737.841
330.400;   38.770;   -8.379;  704.260
330.997;   40.015;   -6.178;  817.147
331.594;   37.430;   -5.646;  788.185
332.191;   42.307;   -6.928;  728.722
332.787;   44.833;   -6.057;  844.463
333.384;   41.896;   -6.445;  763.093
333.981;   38.325;   -8.002;  815.687
334.578;   41.662;   -8.443;  708.378
335.174;   44.592;   -6.053;  731.469
335.771;   44.581;   -5.791;  836.456
336.367;   40.332;   -6.570;  710.631
336.964;   43.371;   -6.741;  793.266
337.561;   44.668;   -5.710;  731.112
338.157;   40.228;   -3.928;  911.916
338.754;   35.313;   -5.577;  796.589
339.350;   35.389;   -9.667;  722.493
339.946;   39.350;   -5.269;  773.135
340.543;   30.563;   -4.485;  846.136
341.139;   25.272;   -7.584;  720.836
341.735;   22.750;   -8.553;  772.593
342.332;   22.890;   -4.984;  691.472
342.928;   23.617;   -3.475;  795.394
343.524;   17.885;   -6.653;  761.684
344.120;   14.091;   -7.173;  738.562
344.716;   17.793;   -4.385;  723.717
345.313;   16.137;   -3.565;  795.342
345.909;   10.541;   -7.495;  627.336
346.505;   13.156;   -8.276;  740.247
347.101;   14.322;   -5.697;  827.864
347.697;   14.937;   -4.767;  785.398
348.293;    9.113;   -7.226;  627.244
348.889;    9.652;   -7.547;  745.914
349.485;   10.940;   -9.147;  688.205
350.081;   11.298;   -6.568;  772.592
350.676;    5.687;   -6.516;  691.606
351.272;   10.763;   -7.378;  809.530
351.868;   10.231;   -6.759;  780.497
352.464;    8.204;   -4.798;  723.932
353.059;    4.024;   -7.977;  646.017
353.655;    7.795;   -8.769;  777.063
354.251;    8.214;   -5.920;  759.845
354.846;    3.017;   -7.647;  740.646
355.442;    1.361;   -6.956;  753.071
356.038;    2.699;   -9.928;  751.708
356.633;    2.578;   -7.698;  728.594
357.229;    1.680;   -6.307;  724.757
357.824;   -0.203;   -7.647;  703.600
358.420;   -1.388;  -10.047;  679.726
359.015;   -0.561;   -7.458;  695.357
359.610;    0.975;   -5.748;  763.920
360.206;   -5.725;   -9.346;  603.240
360.801;   -1.267;  -11.268;  646.503
361.396;    0.638;   -8.789;  725.975
361.992;   -4.012;   -6.347;  668.220
362.587;   -6.539;   -6.476;  670.160
363.182;   -4.417;   -9.457;  689.631
363.777;   -3.526;   -7.147;  738.242
364.372;   -3.874;   -5.507;  737.314
364.967;   -7.908;   -6.386;  680.744
365.563;   -2.897;   -7.858;  815.567
366.158;   -5.834;   -8.517;  685.161
366.753;   -5.310;   -8.728;  649.263
367.348;   -6.601;   -7.677;  746.056
367.942;   -7.078;  -10.387;  697.298
368.537;   -8.478;   -7.187;  754.245
369.132;   -7.691;   -8.587;  703.428
369.727;  -12.202;   -8.606;  638.079
370.322;  -10.148;  -10.426;  580.186
370.917;  -10.444;   -5.776;  710.646
371.511;   -6.690;   -6.007;  861.834
372.106;  -10.950;   -6.686;  776.964
372.701;  -14.397;   -9.335;  585.988
373.296;   -8.281;   -6.777;  863.135
373.890;  -13.238;   -7.546;  647.840
374.485;  -15.650;   -8.755;  691.199
375.079;  -11.453;   -9.797;  738.685
375.674;   -9.464;   -6.327;  812.970
376.268;  -14.234;   -9.046;  691.759
376.863;  -20.260;   -7.993;  580.327
377.457;  -13.199;   -9.206;  662.490
378.052;  -14.682;   -5.345;  764.884
378.646;  -15.943;   -5.605;  741.167
379.240;  -16.251;   -6.825;  721.176
379.835;  -15.480;  -10.476;  636.978
380.429;  -17.485;   -8.676;  562.557
381.023;  -16.855;   -4.945;  779.205
381.617;  -19.041;   -8.094;  680.106
382.212;  -15.432;  -10.646;  685.303
382.806;  -15.423;   -8.136;  760.690
383.400;  -18.406;   -7.855;  672.281
383.994;  -19.666;   -8.125;  664.870
384.588;  -15.757;   -7.637;  697.701
385.182;  -13.841;   -7.458;  726.624
385.776;  -15.431;   -6.277;  706.875
386.370;  -19.911;   -7.485;  681.968
386.964;  -17.709;   -9.416;  684.155
387.558;  -15.724;   -8.518;  598.360
388.152;  -19.570;   -7.096;  681.959
388.745;  -17.274;   -7.656;  814.707
389.339;  -15.934;   -8.927;  747.642
389.933;  -14.852;   -9.538;  695.370
390.527;  -15.824;   -5.857;  859.029
391.120;  -22.158;   -9.455;  595.318
391.714;  -18.959;   -9.746;  711.633
392.308;  -15.520;   -7.857;  780.253
392.901;  -19.636;   -9.106;  642.460
393.495;  -21.927;  -10.365;  595.414
394.089;  -18.520;   -9.696;  760.452
394.682;  -19.671;   -7.016;  697.188
395.275;  -19.819;   -8.466;  719.927
395.869;  -21.571;   -8.985;  667.314
396.462;  -20.209;  -11.496;  616.609
397.056;  -15.207;   -7.838;  776.621
397.649;  -20.446;   -6.895;  731.575
398.242;  -16.795;   -5.017;  712.645
398.836;  -16.637;   -8.787;  766.408
399.429;  -17.739;   -8.967;  631.041
400.022;  -20.919;   -8.815;  665.902
400.615;  -18.037;   -6.276;  805.609
401.208;  -16.312;   -8.407;  691.451
401.802;  -18.609;   -7.296;  699.329
402.395;  -20.203;   -7.585;  683.502
402.988;  -20.904;   -8.015;  696.627
403.581;  -17.731;   -9.577;  646.878
404.174;  -14.852;   -7.588;  686.568
404.767;  -18.262;   -7.906;  638.583
405.360;  -20.370;   -7.875;  621.445
405.953;  -14.775;   -8.127;  759.034
406.545;  -13.714;   -7.198;  725.342
407.138;  -18.842;   -8.916;  618.350
407.731;  -17.825;   -9.767;  613.303
408.324;  -13.557;  -10.659;  660.554
408.917;  -14.220;   -8.068;  681.864
409.509;  -16.031;   -9.837;  740.396
410.102;  -18.884;   -8.146;  643.948
410.695;  -11.899;   -7.969;  665.758
411.287;  -12.388;   -8.579;  599.821
411.880;  -13.993;   -6.968;  585.421
412.472;  -16.583;   -9.487;  613.092
413.065;  -13.635;  -10.338;  629.408
413.657;  -12.164;   -9.169;  576.678
414.250;  -11.152;  -10.119;  646.681
414.842;  -13.544;   -9.938;  676.353
415.434;  -11.101;  -10.409;  570.463
416.027;   -6.970;   -9.591;  652.196
416.619;   -9.062;   -7.379;  713.400
417.211;   -9.166;   -9.159;  599.352
417.804;   -5.643;   -9.191;  628.499
418.396;   -9.716;   -8.159;  607.643
418.988;   -8.068;   -6.960;  659.238
419.580;  -10.429;  -11.389;  568.276
420.172;   -8.913;  -13.460;  536.196
420.764;   -4.157;  -10.701;  672.482
421.356;   -5.676;   -8.961;  636.898
421.948;   -5.961;   -9.770;  677.661
422.540;   -0.403;   -8.832;  680.027
423.132;   -1.444;   -8.153;  600.641
423.724;   -5.375;   -8.481;  561.267
424.316;   -3.424;   -9.261;  621.345
424.908;    0.862;   -9.643;  591.517
425.500;    1.761;   -8.663;  647.978
426.092;    1.412;   -8.503;  648.268
426.683;    1.170;  -10.522;  684.836
427.275;    3.617;  -11.734;  641.471
427.867;    5.364;  -10.264;  668.948
428.458;    5.867;   -7.644;  732.344
429.050;    4.334;   -7.853;  680.749
429.642;    7.048;   -8.904;  743.124
430.233;    7.751;  -10.795;  569.356
430.825;    8.986;   -7.665;  724.809
431.416;    5.122;   -8.843;  698.241
432.008;    9.402;   -9.885;  651.723
432.599;    9.829;   -9.966;  656.073
433.190;    7.181;   -9.164;  637.670
433.782;    6.351;   -8.584;  590.395
434.373;   14.042;   -8.296;  884.765
434.964;   12.076;   -9.896;  602.920
435.556;   10.371;   -8.255;  634.537
436.147;   13.148;   -8.075;  758.490
436.738;   13.150;   -9.716;  701.099
437.329;   18.517;   -7.318;  721.723
437.920;   10.964;   -6.694;  666.688
438.511;   11.353;   -9.644;  564.526
439.103;   18.409;   -9.427;  623.998
439.694;   20.026;  -10.748;  681.583
440.285;   21.010;   -7.997;  764.432
440.876;   18.967;  -10.046;  845.738
441.466;   18.446;  -13.467;  575.162
442.057;   23.451;   -9.329;  665.814
442.648;   22.232;   -7.707;  746.255
443.239;   19.582;   -9.017;  620.477
443.830;   25.697;  -10.279;  704.958
444.421;   27.338;  -12.630;  655.474
445.011;   23.988;   -8.697;  693.619
445.602;   23.638;   -7.787;  743.126
446.193;   25.673;  -13.329;  488.117
446.783;   30.025;   -9.171;  640.397
447.374;   26.166;   -7.457;  692.759
447.964;   26.705;   -9.277;  713.770
448.555;   35.588;   -9.041;  822.742
449.145;   31.740;   -8.969;  662.853
449.736;   31.985;   -6.809;  803.179
450.326;   31.954;   -7.229;  713.626
450.917;   36.847;  -11.391;  675.324
451.507;   36.532;   -9.501;  600.661
452.097;   37.308;   -8.460;  746.267
452.688;   38.202;  -10.080;  742.160
453.278;   37.026;  -12.861;  566.840
453.868;   42.763;   -8.372;  793.550
454.458;   40.566;   -8.131;  651.141
455.048;   40.412;   -8.520;  711.783
455.639;   42.350;  -13.632;  567.096
456.229;   46.206;  -10.143;  710.694
456.819;   47.791;   -9.163;  751.158
457.409;   47.580;   -8.652;  773.993
457.999;   50.878;   -9.933;  737.505
458.589;   50.456;  -10.363;  686.606
459.179;   50.235;  -10.633;  717.658
459.769;   48.637;  -12.442;  627.099
460.358;   54.111;   -9.844;  797.262
460.948;   53.599;   -9.924;  689.503
461.538;   55.448;  -10.484;  660.677
462.128;   53.033;  -10.703;  664.934
462.717;   60.344;  -11.486;  710.326
463.307;   63.173;  -10.767;  705.846
463.897;   58.933;   -8.814;  656.942
464.486;   57.653;   -8.182;  837.128
465.076;   62.175;   -9.985;  733.776
465.666;   66.032;  -10.447;  652.900
466.255;   63.981;   -7.754;  785.651
466.845;   62.795;  -10.884;  666.749
467.434;   66.852;  -12.525;  725.873
468.023;   67.031;  -11.456;  658.357
468.613;   65.239;   -9.173;  713.946
469.202;   68.554;   -9.306;  646.507
469.791;   73.562;   -8.917;  737.811
470.381;   75.064;   -9.657;  742.813
470.970;   73.996;   -9.947;  711.099
471.559;   74.601;   -9.256;  733.291
472.148;   77.358;  -13.397;  675.737
472.738;   79.086;   -9.928;  765.466
473.327;   80.022;  -10.897;  637.529
473.916;   78.855;   -8.526;  737.446
474.505;   84.108;  -11.078;  751.703
475.094;   87.058;   -9.559;  806.570
475.683;   86.478;   -8.838;  797.699
476.272;   87.238;  -10.198;  730.632
476.861;   89.546;  -11.489;  706.754
477.449;   96.425;  -10.721;  728.487
478.038;   90.210;   -9.818;  692.513
478.627;   91.258;   -9.887;  714.852
479.216;   98.092;  -10.030;  769.441
479.805;  100.969;   -9.401;  783.375
480.393;  101.299;   -5.739; 1008.945
480.982;  100.286;   -7.838;  874.501
481.571;  106.690;   -9.111;  858.333
482.159;  106.575;  -10.601;  705.386
482.748;  106.543;   -8.500;  821.385
483.336;  110.116;   -9.241;  858.209
483.925;  111.649;  -10.440;  774.373
484.513;  118.645;  -11.063;  758.962
485.102;  115.201;   -9.540;  810.965
485.690;  124.214;   -6.742; 1011.050
486.278;  125.763;   -8.442;  979.329
486.867;  126.402;  -10.472;  809.662
487.455;  128.815;   -8.811;  898.229
488.043;  128.944;  -10.721;  748.361
488.631;  139.476;  -10.393; 1005.079
489.220;  141.823;  -10.843;  908.626
489.808;  141.478;  -10.572;  741.415
490.396;  149.476;  -10.482;  914.645
490.984;  155.820;  -11.542;  830.161
491.572;  165.215;   -8.463;  940.315
492.160;  169.667;   -8.491;  919.081
492.748;  178.247;   -9.681;  884.341
493.336;  196.378;  -10.493; 1019.693
493.924;  221.383;   -9.354;  958.077
494.512;  249.515;   -9.132; 1066.638
495.100;  283.546;   -9.001; 1103.280
495.687;  331.758;  -11.924; 1206.373
496.275;  392.558;  -11.193; 1150.796
496.863;  486.273;   -9.241; 1281.171
497.451;  594.703;  -11.341; 1386.805
498.038;  687.034;  -11.364; 1556.729
498.626;  788.778;   -8.104; 1741.407
499.214;  955.750;   -8.842; 2016.609
499.801; 1136.641;  -10.112; 2220.633
500.389; 1321.230;  -11.953; 2312.494
500.976; 1553.662;  -10.023; 2744.849
501.564; 1840.346;   -8.662; 3148.565
502.151; 2193.369;  -10.531; 3515.999
502.738; 2554.495;  -13.853; 3971.274
503.326; 3063.161;  -10.794; 4403.796
503.913; 3593.227;   -8.663; 5161.749
504.500; 3912.768;  -10.172; 5986.420
505.088; 4235.703;  -13.472; 6381.201
505.675; 4907.240;  -10.924; 6925.547
506.262; 5657.935;   -8.551; 7619.060
506.849; 6436.777;  -10.523; 8733.969
507.436; 7094.677;  -10.834; 9790.121
508.023; 7334.049;   -9.093; 9985.472
508.610; 7703.583;  -10.073;10434.618
509.197; 8226.454;   -9.500;11198.435
509.784; 9507.828;  -13.242;12391.194
510.371;10277.896;  -10.964;13603.713
510.958;10133.088;   -9.772;14426.586
511.545;11154.985;   -7.842;15243.775
512.132;11448.401;  -12.184;15945.876
512.719;11590.887;   -9.733;16340.369
513.305;13331.279;   -9.172;18011.766
513.892;14857.524;   -9.581;19754.971
514.479;16612.828;  -10.253;20967.805
515.066;18697.525;   -8.183;22299.793
515.652;20013.723;   -9.253;22908.660
516.239;21047.777;   -9.412;23798.875
516.825;23496.029;  -11.153;25567.275
517.412;23571.854;  -10.263;28154.959
517.998;23749.494;   -8.802;28344.111
518.585;23262.441;  -10.401;27134.219
519.171;23093.588;  -12.744;27268.576
519.758;24969.352;  -11.793;28964.129
520.344;27180.379;   -8.912;30664.494
520.930;26929.682;  -10.901;32550.605
521.516;27625.506;  -12.034;35422.895
522.103;28684.404;  -10.473;38280.004
522.689;30079.428;   -8.311;37835.117
523.275;33614.156;  -10.691;37288.613
523.861;35057.980;  -11.193;37281.395
524.447;35810.719;  -11.484;37846.949
525.033;35882.602;   -7.702;38321.949
525.619;35685.273;  -11.241;38579.285
526.205;36900.828;  -12.152;40622.875
526.791;36534.688;  -11.423;42258.836
527.377;33846.410;   -7.981;42966.902
527.963;34268.848;   -9.450;42018.949
528.549;37756.602;  -11.351;42476.828
529.135;39364.242;  -10.202;41854.852
529.721;38288.434;   -8.672;41237.711
530.306;36367.328;   -9.111;41259.445
530.892;37408.348;  -11.252;41506.047
531.478;39112.469;  -10.432;43559.613
532.063;41201.379;  -10.721;47695.563
532.649;42038.703;   -7.450;50808.324
533.235;40606.086;  -11.811;51787.500
533.820;37649.559;   -9.383;52145.035
534.406;33292.063;   -9.400;51133.488
534.991;30420.209;   -8.861;49996.805
535.576;32048.994;  -10.612;48882.852
536.162;37099.129;   -7.322;46942.285
536.747;43182.223;   -9.360;45711.746
537.333;47639.988;  -10.450;48510.180
537.918;50006.297;  -12.610;50439.891
538.503;51185.586;  -12.132;50863.711
539.088;48275.051;  -10.831;50906.922
539.673;45401.723;  -11.220;52621.965
540.259;47119.172;  -11.481;52368.094
540.844;50096.398;  -11.462;50879.109
541.429;51550.676;   -7.869;52077.777
542.014;52305.746;  -11.859;52716.695
542.599;51777.434;  -11.061;52363.281
543.184;51172.633;  -12.300;53187.137
543.769;50554.539;   -9.369;54697.605
544.354;50400.594;  -12.020;53913.914
544.938;47341.516;  -10.350;49680.164
545.523;44928.656;  -10.841;47386.277
546.108;46657.004;   -8.579;49151.949
546.693;49044.188;   -8.818;51384.637
547.278;50100.273;  -11.331;51853.254
547.862;46623.371;  -10.292;51173.750
548.447;42468.418;   -8.349;51691.395
549.031;43637.395;  -10.838;52456.703
549.616;49379.770;  -11.681;52714.516
550.201;52601.727;  -11.140;52414.598
550.785;50374.797;   -8.649;52355.059
551.370;50060.410;  -11.889;54589.453
551.954;50157.848;  -11.239;58267.348
552.538;49831.176;   -8.850;59062.176
553.123;50878.809;  -10.829;58115.285
553.707;50907.109;   -8.887;56556.285
554.291;49910.199;  -10.430;56201.668
554.876;48016.879;   -9.799;55335.762
555.460;49065.633;  -10.018;54155.703
556.044;50314.594;   -7.307;53721.484
556.628;47242.023;  -12.229;53731.016
557.212;44179.734;   -9.820;54312.531
557.796;43636.816;   -9.109;53797.773
558.380;45772.766;   -9.707;56145.984
558.964;44743.988;  -10.980;57277.930
559.548;44679.945;  -12.010;56459.641
560.132;48185.840;   -7.928;54434.543
560.716;49941.320;  -10.247;54800.617
561.300;49798.551;  -11.250;57606.945
561.884;51556.711;  -10.568;58972.445
562.467;49856.340;   -9.727;57327.570
563.051;48371.328;  -11.847;54962.434
563.635;47133.578;  -10.747;52594.473
564.219;43838.066;  -13.108;50610.410
564.802;40757.605;  -11.417;49551.180
565.386;41885.676;  -10.457;48370.953
565.969;43705.125;   -8.959;48178.871
566.553;42880.766;  -10.328;49957.305
567.136;41307.355;  -10.257;50369.594
567.720;41216.199;  -10.186;49492.004
568.303;41665.164;  -10.027;50616.352
568.887;42636.207;  -10.397;50727.148
569.470;40884.902;   -8.185;51698.379
570.053;39777.520;  -11.596;52122.078
570.637;39495.020;  -11.378;52536.438
571.220;39387.547;   -9.138;51186.098
571.803;38609.918;   -7.675;51032.762
572.386;37200.250;   -8.976;49609.887
572.969;34762.211;  -12.477;48285.926
573.552;35686.996;   -9.767;47624.285
574.135;36227.762;   -8.175;45498.641
574.718;32864.641;  -11.096;41970.434
575.301;31002.225;  -11.966;41447.137
575.884;29139.807;  -12.836;40923.836
576.467;33154.324;   -9.116;45267.723
577.050;34035.125;  -10.536;48175.543
577.633;35087.453;  -11.027;47729.328
578.216;36134.145;   -9.946;47579.793
578.799;36178.660;   -9.645;47820.996
579.381;37186.879;   -9.446;48115.551
579.964;38779.434;  -12.217;47333.766
580.547;39685.637;  -10.586;46668.969
581.129;39943.887;   -8.374;44466.141
581.712;37577.426;  -10.434;44164.922
582.294;35361.758;  -10.896;46477.855
582.877;35431.422;   -8.906;48244.254
583.459;36203.566;   -9.994;47437.895
584.042;36927.016;  -10.084;46943.219
584.624;37248.891;  -13.534;46792.227
585.206;35319.723;  -12.716;46557.250
585.789;35602.719;  -11.614;45793.773
586.371;33876.141;  -10.203;43836.391
586.953;31079.570;  -10.314;42972.492
587.536;31536.168;   -9.776;42487.211
588.118;33116.145;   -9.821;42086.414
588.700;34283.422;  -10.073;43389.930
589.282;32766.820;  -12.395;43646.039
589.864;32026.381;  -11.514;43438.109
590.446;32155.658;  -10.803;43151.926
591.028;31615.332;  -11.043;42781.867
591.610;31837.498;  -13.244;42839.098
592.192;31594.156;  -11.095;42820.402
592.774;30127.406;  -10.823;40724.277
593.356;29192.475;  -11.052;39874.789
593.937;30568.844;  -11.664;39980.648
594.519;34305.078;  -10.454;42069.633
595.101;36954.645;  -10.322;42976.031
595.683;36030.480;  -10.042;44084.441
596.264;32352.328;  -14.334;43478.797
596.846;33509.930;  -10.863;43803.672
597.427;32562.268;   -9.901;42986.934
598.009;31207.324;  -10.911;42832.219
598.591;31752.320;  -10.483;42580.086
599.172;33471.789;   -9.663;43061.805
599.753;34622.672;  -10.631;41691.469
600.335;35025.902;   -9.371;40692.520
600.916;32868.137;  -13.992;39982.422
601.498;32250.391;   -8.352;40318.617
602.079;32881.379;   -8.411;40670.609
602.660;32693.465;  -10.841;41450.898
603.241;32260.291;  -12.963;41137.738
603.823;32530.902;  -11.523;38868.797
604.404;32226.697;  -11.881;38182.785
604.985;33240.367;  -11.721;38078.047
605.566;33245.863;   -9.293;38056.633
606.147;31768.088;  -10.940;37020.418
606.728;33412.980;  -11.840;37883.359
607.309;34634.906;  -11.781;38748.273
607.890;34947.023;  -11.262;38850.230
608.471;33052.195;  -10.111;37457.918
609.051;32560.867;   -7.709;36066.457
609.632;29841.332;  -12.409;35991.074
610.213;30087.818;  -10.811;37402.641
610.794;31701.369;  -11.630;38383.363
611.374;35298.680;   -8.030;40562.387
611.955;35416.664;  -10.809;38533.727
612.536;33945.938;  -10.531;36951.789
613.116;33790.598;  -12.820;37197.891
613.697;34755.652;  -11.419;38411.125
614.277;35967.418;   -9.768;38673.938
614.858;33040.168;  -10.251;37075.863
615.438;29615.670;  -11.981;35092.906
616.019;27380.932;   -8.978;33666.301
616.599;29686.037;  -12.219;34189.023
617.179;31798.389;  -14.170;36952.047
617.760;32547.070;   -9.211;39582.574
618.340;32777.586;   -9.018;38943.977
618.920;33130.441;   -9.249;37594.156
619.500;33115.195;  -12.728;37866.938
620.080;33493.867;  -12.939;37869.043
620.660;34370.953;  -11.586;36868.617
621.241;33794.918;  -11.538;36352.309
621.821;32425.865;  -11.398;35459.520
622.401;31093.645;  -10.179;35207.414
622.980;31244.953;  -11.587;35980.422
623.560;32768.375;  -12.888;37351.328
624.140;31050.963;  -13.149;34388.582
624.720;26861.652;   -9.928;32368.764
625.300;26428.016;  -10.869;32638.629
625.880;29234.129;   -8.617;34599.035
626.459;30425.051;  -12.138;36831.738
627.039;32871.848;  -12.267;38299.098
627.619;36018.555;   -7.476;38289.574
628.198;37544.078;  -11.347;37220.695
628.778;35062.973;  -11.678;37632.563
629.357;32407.535;  -12.438;38003.012
629.937;31564.506;   -9.576;38402.039
630.516;31400.508;  -11.096;37868.801
631.096;32439.512;  -11.828;35760.410
631.675;33732.438;  -11.565;35225.219
632.254;34245.191;  -11.845;35130.289
632.834;35686.430;  -11.545;35794.570
633.413;35200.355;  -10.887;35788.922
633.992;34691.602;  -10.175;34532.863
634.571;35259.926;   -9.704;33590.113
635.151;33871.074;  -10.815;34943.863
635.730;32592.813;  -11.617;35352.523
636.309;32334.381;  -10.836;35366.605
636.888;32783.445;   -9.755;36165.637
637.467;32868.555;  -11.684;37515.902
638.046;33241.238;  -11.987;39288.695
638.625;32848.453;  -10.455;38279.699
639.204;32554.441;  -11.234;37741.598
639.782;33454.973;  -12.023;38364.551
640.361;31864.238;  -11.506;36740.621
640.940;28749.033;  -12.316;34950.082
641.519;26545.682;  -11.616;34137.398
642.097;28605.268;   -9.266;35654.258
642.676;32459.611;  -12.936;35637.957
643.255;33183.816;   -9.966;36567.074
643.833;33641.465;   -8.916;37809.434
644.412;31674.365;  -10.936;37337.293
644.990;31098.160;  -12.176;37018.531
645.569;32083.131;  -12.246;36518.469
646.147;34800.520;  -12.107;36186.430
646.726;37425.527;  -12.937;36267.688
647.304;34584.441;  -12.547;36647.625
647.882;33623.809;  -12.597;39286.742
648.461;32908.273;   -9.427;39157.703
649.039;32935.242;   -8.937;35412.883
649.617;33599.414;  -11.067;34744.918
650.195;31841.701;  -10.657;35403.098
650.773;29350.873;  -10.097;35053.797
651.352;29013.535;  -11.887;33756.816
651.930;28147.979;  -13.557;31868.773
652.508;28114.195;  -11.767;33121.551
653.086;30819.197;  -10.777;33564.793
653.663;33579.402;  -12.067;34054.668
654.241;36165.770;  -14.918;35693.309
654.819;35784.195;  -11.788;36422.906
655.397;33815.121;  -11.268;38213.484
655.975;32020.811;  -11.738;39507.625
656.553;30105.232;  -11.018;39498.223
657.130;28885.102;  -12.848;40395.480
657.708;27810.400;  -10.098;39242.020
658.286;28844.215;  -11.678;38920.020
658.863;31325.225;  -11.498;40202.898
659.441;33944.512;  -11.008;39677.938
660.018;35775.543;  -11.048;40413.355
660.596;36661.488;  -12.058;39931.414
661.173;37281.066;  -14.158;39604.531
661.750;36742.016;  -12.298;39700.070
662.328;36223.883;  -10.699;39292.809
662.905;35505.871;  -12.119;38235.648
663.482;31572.391;  -11.829;36212.305
664.060;27919.264;  -11.009;35944.945
664.637;31116.469;  -10.369;35170.785
665.214;33671.801;  -10.459;34197.523
665.791;32918.477;  -12.599;34549.520
666.368;30419.828;  -12.919;35118.578
666.945;28785.152;  -10.699;36019.418
667.522;29949.240;  -11.359;36048.438
668.099;30500.445;  -13.529;36243.914
668.676;29036.594;  -10.229;35958.875
669.253;28646.334;   -9.279;37384.730
669.830;28371.625;  -11.370;36779.629
670.407;28281.707;  -10.950;35231.289
670.984;29289.096;  -12.850;35544.270
671.560;28083.123;   -8.440;35466.867
672.137;28848.678;  -13.520;34280.863
672.714;30216.316;  -13.620;34632.863
673.290;30577.734;  -10.450;35135.422
673.867;29695.443;  -10.960;36114.480
674.443;30721.936;  -13.300;36152.859
675.020;28996.896;  -12.370;35327.238
675.596;28279.867;  -11.250;35795.176
676.173;28931.711;  -11.080;35430.355
676.749;28751.266;  -13.220;33549.516
677.326;29748.850;  -13.000;32210.012
677.902;29593.242;  -12.701;32068.871
678.478;28192.361;  -12.801;32583.891
679.054;29073.287;   -8.601;32088.928
679.631;30263.105;  -12.631;30978.848
680.207;31083.848;   -9.451;33160.887
680.783;30488.777;  -11.701;35570.363
681.359;30843.234;  -12.701;36125.184
681.935;32750.609;  -13.271;35240.922
682.511;34730.402;  -10.791;34429.961
683.087;32707.885;  -10.791;34463.680
683.663;29322.750;   -8.121;34648.898
684.239;27144.400;  -13.261;34546.457
684.815;27753.834;  -10.581;35586.375
685.390;29621.443;   -9.961;35821.895
685.966;29156.096;  -11.182;35085.871
686.542;28316.465;  -13.512;34198.230
687.118;26346.381;  -11.472;32847.707
687.693;25214.906;  -10.152;32794.027
688.269;25544.676;  -14.442;33072.367
688.844;24617.389;  -11.852;33141.664
689.420;23647.463;  -13.942;33965.742
689.995;25001.514;   -9.702;34655.523
690.571;26852.176;  -11.312;33576.742
691.146;27033.166;  -14.332;32657.219
691.722;26757.383;  -11.192;32526.979
692.297;27506.910;  -10.962;33014.617
692.872;28802.398;  -11.082;34012.254
693.448;29581.447;  -14.732;34237.434
694.023;29057.020;  -12.363;34142.672
694.598;27228.074;  -12.393;34132.031
695.173;27766.439;  -11.023;34205.250
695.748;29260.334;  -12.743;32882.488
696.323;28536.318;  -11.103;32864.906
696.898;27755.609;   -8.123;33170.004
697.473;27467.244;  -12.603;32432.984
698.048;27848.434;  -12.553;31649.303
698.623;29284.477;  -12.573;30778.141
699.198;29163.506;  -12.743;31140.119
699.773;28516.586;  -12.843;31764.299
700.348;28791.529;  -16.683;31780.816
700.922;29743.527;  -11.403;32046.375
701.497;31291.969;  -11.253;32603.574
702.072;30788.648;  -10.044;34799.871
702.646;30187.844;  -13.054;35793.172
703.221;30775.334;  -11.414;35201.590
703.795;30166.393;  -10.644;34764.527
704.370;28360.232;  -13.484;34307.367
704.944;27496.033;  -12.144;33509.887
705.519;26919.055;  -12.024;31388.584
706.093;28578.889;  -11.234;31340.104
706.668;29697.045;   -9.874;32630.281
707.242;28840.352;  -12.404;32728.779
707.816;27227.121;  -10.644;32947.238
708.390;26757.896;  -11.174;33277.855
708.965;26579.137;  -10.324;33834.336
709.539;27039.342;  -12.014;33709.273
710.113;27475.709;  -12.295;33044.313
710.687;29175.279;  -10.965;31953.992
711.261;31296.289;  -13.685;30505.949
711.835;29748.795;  -15.335;30262.369
712.409;28353.131;  -13.785;31254.447
712.983;28531.879;  -10.525;32754.986
713.557;26913.920;  -13.175;34018.824
714.131;26738.756;  -13.245;34579.625
714.704;30000.428;  -13.175;33890.262
715.278;32389.926;  -11.545;33531.102
715.852;30792.816;  -10.975;33601.660
716.425;28964.324;  -10.075;33515.117
716.999;29171.814;  -12.185;33185.555
717.573;31500.256;   -9.685;33905.996
718.146;32419.369;  -10.516;35199.293
718.720;31078.781;  -12.106;35060.551
719.293;29472.889;  -12.386;34973.230
719.867;29450.828;  -12.456;36394.449
720.440;29395.855;  -10.686;36663.008
721.013;29710.205;  -12.596;35102.426
721.587;31329.377;  -13.956;33985.266
722.160;33271.211;   -9.806;33524.965
722.733;33733.164;  -11.676;32987.043
723.306;33022.938;  -14.276;33066.301
723.880;30722.275;  -12.126;33399.500
724.453;28426.965;  -10.156;33468.297
725.026;28144.629;  -12.956;33816.637
725.599;28368.646;  -11.676;32797.996
726.172;28822.146;  -12.337;33187.434
726.745;29043.441;  -11.277;35136.613
727.318;29050.670;  -11.927;35751.730
727.891;28261.879;  -13.607;35890.430
728.463;25878.754;  -11.327;34822.090
729.036;25655.906;  -11.917;32895.086
729.609;27373.150;  -12.697;31823.225
730.182;28224.021;  -11.787;31445.283
730.754;27850.764;  -12.957;32373.223
731.327;27572.859;  -11.017;33676.820
731.900;27272.496;  -12.797;33417.000
732.472;26724.365;  -10.677;31978.498
733.045;26170.572;  -12.797;30368.777
733.617;26171.904;  -13.908;30574.215
734.190;25012.457;  -12.258;31280.975
734.762;24938.033;  -13.438;31674.412
735.334;26087.305;  -11.758;31247.291
735.907;28996.928;  -11.158;29876.211
736.479;32507.836;  -11.258;29808.488
737.051;32938.727;  -10.918;30233.547
737.623;31710.342;  -11.038;31469.086
738.195;32783.000;  -12.188;31784.225
738.768;30638.816;  -11.378;32120.523
739.340;24686.646;  -12.598;32094.342
739.912;22482.646;  -11.568;31312.680
740.484;24060.354;   -9.348;31946.238
741.056;26858.898;  -12.628;32984.059
741.628;28967.588;  -13.349;33897.715
742.199;28072.729;  -11.309;33213.016
742.771;28421.070;  -12.699;31369.113
743.343;29590.238;  -11.919;31865.473
743.915;29589.238;  -11.679;32388.631
744.487;28096.168;  -12.249;31079.568
745.058;25783.010;  -11.119;30570.107
745.630;24508.848;   -9.439;29970.127
746.201;23725.160;  -11.949;29186.766
746.773;23819.979;  -12.639;28805.723
747.344;25008.525;  -11.039;29591.223
747.916;27187.609;  -12.549;31412.201
748.487;26147.664;  -12.659;32194.898
749.059;24409.195;  -13.059;32533.719
749.630;23618.797;  -12.080;32158.518
750.201;22108.672;  -13.100;30855.395
750.773;21333.783;  -15.310;28622.555
751.344;20998.176;  -12.240;28405.732
751.915;21003.639;  -11.960;28461.551
752.486;20048.908;  -13.200;27842.850
753.057;18833.320;  -15.230;27845.008
753.628;20020.336;  -13.130;27728.107
754.199;22527.973;  -12.720;27381.086
754.770;22736.777;  -10.680;25882.203
755.341;21379.592;  -11.010;25886.184
755.912;20848.719;  -12.990;26050.861
756.483;20274.305;  -11.110;26798.779
757.054;19813.135;  -12.190;27048.238
757.625;19742.254;  -13.981;26294.838
758.195;19820.891;  -11.041;26142.076
758.766;20891.027;  -11.861;26392.234
759.337;21293.990;  -11.461;26334.594
759.907;20666.619;  -15.001;27579.652
760.478;19473.904;   -9.681;28352.770
761.048;18339.443;  -12.421;27325.088
761.619;19240.412;  -11.761;26460.428
762.189;19858.906;  -12.391;26029.826
762.760;19252.189;  -10.201;26430.145
763.330;19780.604;  -10.811;26670.902
763.900;20294.660;  -10.261;26603.021
764.471;19244.547;  -13.061;25542.740
765.041;17857.391;  -11.051;24358.459
765.611;17715.693;  -11.032;23991.297
766.181;17880.287;  -10.532;24470.236
766.751;18240.564;  -13.502;24845.975
767.321;19435.717;  -11.392;24533.633
767.891;21211.412;  -11.522;24916.492
768.461;22457.332;  -13.672;24776.771
769.031;20004.275;  -14.652;24757.988
769.601;17190.871;  -10.182;24181.088
770.171;16049.507;  -11.752;23670.387
770.741;15160.229;  -12.272;22960.045
771.311;14927.947;  -13.112;22917.523
771.880;15876.015;  -14.122;23562.941
772.450;16536.783;  -11.782;24216.500
773.020;16689.746;  -12.642;24140.398
773.589;15835.506;  -13.043;24414.857
774.159;15332.787;  -11.783;23858.717
774.729;16248.240;  -13.473;22942.135
775.298;17070.982;  -14.523;22324.033
775.867;16614.688;  -12.013;21140.313
776.437;15855.626;  -12.113;20838.092
777.006;15419.165;  -13.543;20599.510
777.576;16062.727;  -12.523;20508.809
778.145;16358.286;  -12.173;20732.947
778.714;15702.220;  -12.153;21062.465
779.283;14950.721;  -11.833;20949.664
779.853;15119.331;  -13.483;20508.623
780.422;15296.882;  -12.933;20649.082
780.991;14817.031;  -13.173;21527.520
781.560;14526.369;  -10.224;22632.658
782.129;14979.902;  -12.684;23048.277
782.698;15093.317;  -11.284;23438.555
783.267;14985.646;  -11.684;23267.734
783.836;14671.247;  -10.974;22415.133
784.404;14209.835;  -13.534;20443.152
784.973;13499.061;  -16.734;19699.150
785.542;12424.226;  -12.594;19763.828
786.111;12029.331;  -11.644;20341.408
786.679;13104.766;  -11.384;20207.967
787.248;13409.890;  -12.014;19516.465
787.817;12243.822;  -12.804;18900.363
788.385;10949.300;  -11.994;17879.121
788.954;11202.074;  -12.564;17658.301
789.522;12198.354;  -12.225;17788.879
790.090;12306.364;  -13.775;18118.277
790.659;12142.367;  -12.485;18338.736
791.227;12806.983;  -12.295;18508.615
791.795;13425.326;  -13.415;17898.254
792.364;13889.412;  -12.995;17295.133
792.932;13697.732;   -8.365;16822.051
793.500;12654.200;  -11.925;17040.148
794.068;12783.150;  -13.245;17179.787
794.636;13628.896;  -13.815;16664.246
795.204;13681.519;  -13.375;16524.545
795.772;13421.897;  -12.125;17274.564
796.340;12551.543;  -13.855;17891.002
796.908;10912.471;  -13.456;17648.561
797.476;10055.865;  -13.116;17064.080
798.044;10255.218;  -13.226;16672.777
798.612;10563.116;  -11.236;17023.996
799.180;10465.879;  -10.476;16561.615
799.747;10115.080;  -11.746;15962.773
800.315; 9748.426;  -12.366;15296.992
800.883; 9171.690;  -14.616;14801.771
801.450; 9286.015;  -11.996;14534.430
802.018;10136.906;  -11.206;14173.248
802.585;10564.139;  -12.466;14029.547
803.153;10039.540;  -12.846;13836.846
803.720; 9404.800;  -12.136;13567.324
804.287; 9577.391;  -10.966;13360.622
804.855; 9728.854;   -9.797;13681.981
805.422; 8915.132;  -13.037;13536.560
805.989; 8169.988;  -12.697;13355.958
806.556; 8322.520;  -11.737;13747.896
807.124; 9018.824;  -11.997;13987.376
807.691; 8805.130;  -13.997;14038.674
808.258; 8233.477;  -10.927;14120.152
808.825; 8539.299;  -13.727;13860.111
809.392; 8630.281;  -11.847;13268.790
809.959; 8587.356;  -14.217;12680.389
810.526; 8544.641;   -8.277;12427.308
811.093; 8682.510;   -9.647;12030.105
811.659; 8710.824;  -10.987;11653.664
812.226; 8102.135;  -13.447;11637.183
812.793; 7611.215;  -14.418;11611.521
813.360; 7757.119;  -13.908;11885.181
813.926; 8245.658;  -12.918;12770.539
814.493; 8464.748;  -14.888;12677.638
815.060; 8021.674;  -12.758;11974.336
815.626; 7721.270;  -13.478;11594.715
816.193; 7681.979;  -13.898;11579.474
816.759; 7811.583;  -13.588;11666.972
817.325; 7829.692;  -12.018;11325.530
817.892; 7476.008;  -14.068;11105.369
818.458; 7499.542;  -13.458;10843.928
819.024; 7366.509;  -11.968;10714.406
819.591; 7126.397;  -11.028;10469.165
820.157; 7197.352;  -12.088;10235.523
820.723; 7292.256;  -12.599;10847.563
821.289; 6993.634;  -10.419;11040.980
821.855; 6783.521;  -10.939;10357.100
822.421; 6763.680;  -12.539; 9978.918
822.987; 6694.373;  -13.259; 9754.177
823.553; 6484.079;  -15.369;10065.755
824.119; 6344.810;  -10.779;10036.294
824.685; 6332.919;   -9.999;10029.192
825.251; 6184.176;  -11.819;10199.230
825.816; 6124.803;  -13.369; 9820.189
826.382; 5981.069;  -12.679; 9297.248
826.948; 5508.679;  -11.199; 9381.347
827.513; 5302.473;  -11.179; 9450.726
828.079; 5382.963;  -13.489; 9472.444
828.645; 5471.837;  -12.500; 9292.643
829.210; 5469.875;  -15.120; 9065.341
829.776; 5429.154;  -12.590; 9132.620
830.341; 5553.398;  -11.540; 9092.878
830.906; 5936.601;  -12.400; 9078.557
831.472; 5934.614;  -12.720; 8534.535
832.037; 5219.106;  -11.490; 8677.874
832.602; 4553.696;  -14.380; 8628.692
833.167; 4276.801;  -12.780; 8879.031
833.733; 4476.723;  -11.100; 9189.790
834.298; 4815.210;  -12.080; 9052.608
834.863; 4649.728;  -13.910; 8895.087
835.428; 4369.150;  -13.470; 8824.266
835.993; 4203.365;  -11.760; 8845.385
836.558; 4382.001;  -12.731; 8888.563
837.123; 4548.814;  -12.431; 8966.582
837.688; 4390.709;  -11.241; 8617.860
838.253; 4202.790;  -13.681; 8590.699
838.817; 4311.033;  -12.531; 8443.797
839.382; 4443.966;  -12.671; 8799.356
839.947; 4503.068;  -11.541; 8810.595
840.511; 4617.410;  -12.021; 8796.394
841.076; 4679.458;  -13.071; 8347.231
841.641; 4872.355;  -11.411; 8224.330
842.205; 5080.026;  -13.671; 8223.349
842.770; 4949.415;  -11.291; 8622.107
843.334; 4667.933;  -12.951; 8410.386
843.898; 4442.485;  -11.221; 8337.465
844.463; 4508.661;  -11.322; 8506.283
845.027; 4487.165;  -11.412; 8280.962
845.591; 4231.775;  -11.512; 8231.141
846.156; 4104.410;  -14.042; 7969.179
846.720; 4161.371;  -12.152; 7768.278
847.284; 3977.577;  -10.922; 7630.957
847.848; 3791.725;  -10.962; 7472.395
848.412; 3583.773;  -14.612; 7437.394
848.976; 3582.946;  -11.492; 7674.592
849.540; 3868.347;   -9.172; 7836.011
850.104; 4062.398;  -11.232; 7913.669
850.668; 3973.972;  -15.182; 7694.508
851.232; 3834.042;  -15.332; 7756.887
851.796; 3770.424;  -13.703; 7926.545
852.359; 3824.508;  -11.113; 7827.844
852.923; 3915.416;  -11.843; 7641.163
853.487; 3881.969;  -11.173; 7342.501
854.050; 3761.820;  -13.443; 7042.820
854.614; 3727.579;  -13.823; 7151.338
855.177; 3650.335;  -16.393; 7105.077
855.741; 3589.896;  -11.693; 6989.675
856.304; 3564.137;  -10.843; 6596.634
856.868; 3456.941;  -13.783; 6356.272
857.431; 3246.262;  -11.953; 6468.571
857.995; 3005.364;  -13.683; 6373.210
858.558; 2979.084;  -11.433; 6324.448
859.121; 3084.759;  -12.493; 6408.327
859.684; 3016.383;  -12.384; 6347.886
860.247; 2695.023;  -14.774; 6321.264
860.810; 2439.537;  -13.154; 6301.903
861.374; 2441.460;  -11.264; 6607.881
861.937; 2516.821;  -15.424; 6408.200
862.500; 2507.919;  -12.854; 6572.639
863.062; 2482.622;  -12.344; 6387.297
863.625; 2479.765;  -13.314; 6190.836
864.188; 2563.615;  -14.724; 5807.254
864.751; 2753.964;  -13.464; 5682.413
865.314; 3099.905;  -11.684; 5547.492
865.876; 3326.834;  -11.104; 5500.150
866.439; 3280.847;  -12.344; 5415.909
867.002; 3100.189;  -13.494; 5501.567
867.564; 2837.972;  -10.935; 5413.946
868.127; 2647.242;  -12.665; 5160.325
868.689; 2609.887;  -14.515; 5133.183
869.252; 2655.249;  -13.425; 5252.382
869.814; 2813.804;  -11.595; 5297.141
870.377; 2913.523;  -12.175; 5390.919
870.939; 2809.521;  -10.265; 5599.898
871.501; 2685.054;  -12.375; 5248.336
872.063; 2609.007;  -14.355; 4854.235
872.626; 2539.491;  -14.435; 4817.074
873.188; 2450.927;  -12.415; 4987.732
873.750; 2478.532;  -14.555; 4868.651
874.312; 2410.763;  -11.185; 4779.330
874.874; 2228.912;  -12.715; 4866.348
875.436; 2144.203;  -13.196; 4718.887
875.998; 2138.755;  -11.426; 4660.005
876.560; 2054.677;   -9.786; 4462.964
877.122; 1993.660;  -12.796; 4145.042
877.683; 1974.066;  -13.226; 4056.481
878.245; 1959.479;  -12.036; 3950.740
878.807; 1957.932;  -11.536; 4058.958
879.369; 1949.938;  -10.806; 3954.677
879.930; 1856.144;  -13.946; 3941.495
880.492; 1719.463;  -11.876; 4067.014
881.053; 1688.961;  -13.216; 3859.633
881.615; 1762.538;  -12.226; 3776.071
882.176; 1811.713;  -12.946; 3734.750
882.738; 1757.467;  -10.736; 3678.489
883.299; 1688.105;  -12.057; 3405.407
883.860; 1661.025;  -12.677; 3351.106
884.422; 1630.950;  -14.097; 3394.044
884.983; 1527.912;  -13.667; 3166.443
885.544; 1376.405;  -10.717; 3189.802
886.105; 1271.330;  -14.357; 3160.360
886.666; 1270.680;  -14.287; 3093.059
887.227; 1272.749;  -14.297; 2941.957
887.788; 1176.084;  -13.137; 2974.836
888.349;  919.165;  -14.637; 2721.214
888.910;  687.426;  -12.247; 2696.493
889.471;  589.225;  -10.577; 2560.172
890.032;  558.011;  -12.937; 2558.190
890.593;  552.055;  -12.487; 2567.669
891.153;  557.399;  -11.898; 2460.307
891.714;  587.876;  -14.278; 2372.046
892.275;  622.289;  -13.308; 2309.505
892.835;  608.415;  -12.058; 2382.543
893.396;  565.788;  -15.268; 2295.502
893.956;  534.784;  -13.278; 2162.420
894.517;  514.584;  -11.968; 2125.439
895.077;  508.505;  -12.798; 2086.978
895.638;  495.814;  -11.908; 2126.316
896.198;  473.785;  -13.288; 1838.275
896.758;  454.619;  -12.198; 1892.813
897.319;  433.089;  -13.048; 1792.232
897.879;  402.189;  -13.718; 1762.751
898.439;  368.609;  -14.138; 1661.149
898.999;  358.640;  -13.659; 1781.468
899.559;  349.412;  -14.699; 1703.347
900.119;  329.810;  -14.339; 1537.525
900.679;  308.928;  -11.789; 1638.384
901.239;  288.683;  -13.629; 1527.902
901.799;  275.439;  -13.679; 1456.441
902.359;  262.642;  -13.679; 1357.140
902.919;  253.360;  -14.159; 1331.118
903.479;  244.627;  -13.419; 1317.257
904.038;  232.796;  -14.899; 1262.595
904.598;  221.412;  -14.339; 1152.034
905.158;  215.365;  -13.959; 1240.893
905.717;  212.535;  -12.749; 1233.691
906.277;  205.179;  -11.889; 1217.330
906.836;  198.615;  -12.870; 1222.408
907.396;  196.455;  -11.790; 1193.047
907.955;  193.983;  -13.750; 1182.526
908.515;  187.833;  -14.760; 1099.364
909.074;  180.350;  -12.540; 1092.863
909.633;  174.751;  -12.120; 1069.121
910.192;  172.963;  -12.550; 1196.460
910.752;  170.359;  -12.760; 1029.960
911.311;  168.906;  -14.750; 1009.780
911.870;  164.331;  -13.860;  971.460
912.429;  162.539;  -13.480; 1094.080
912.988;  159.620;  -12.370; 1081.060
913.547;  154.128;  -14.670;  940.380
914.106;  152.192;  -12.800;  999.420
914.665;  149.615;  -11.370;  984.020
915.224;  147.879;  -11.430; 1035.760
915.782;  147.360;  -12.260;  922.560
916.341;  148.658;  -12.540; 1049.840
916.900;  145.756;  -12.540;  925.260
917.458;  144.459;  -13.480;  884.220
918.017;  143.806;  -12.470;  942.600
918.576;  142.624;  -13.450;  904.440
919.134;  141.252;  -12.890;  837.980
919.693;  140.368;  -15.480;  893.060
920.251;  137.084;  -14.420;  876.500
920.809;  136.817;  -12.170;  839.580
921.368;  137.070;  -13.650;  885.360
921.926;  137.487;  -12.750;  842.940
922.484;  137.224;  -14.150;  903.360
923.042;  137.249;  -15.100;  880.340
923.601;  141.711;  -10.990;  998.680
924.159;  141.020;  -12.470;  935.560
924.717;  139.864;  -15.640;  841.080
925.275;  140.948;  -12.380;  903.240
925.833;  140.907;  -12.710;  779.320
926.391;  142.417;  -11.200;  938.380
926.949;  143.255;  -16.000;  857.680
927.506;  144.199;  -12.260;  903.500
928.064;  144.674;  -11.300;  877.580
928.622;  144.907;  -13.750;  880.100
929.180;  144.791;  -15.290;  814.180
929.737;  143.397;  -14.500;  808.540
930.295;  145.370;  -10.630;  928.480
930.853;  148.194;  -14.590;  849.100
931.410;  149.963;  -14.450;  821.120
931.968;  152.004;  -14.390;  940.660
932.525;  152.840;  -13.050;  909.380
933.082;  152.059;  -15.620;  811.440
933.640;  154.826;  -15.650;  925.900
934.197;  157.351;  -13.610;  886.360
934.754;  160.975;  -13.320;  897.780
935.312;  166.157;  -13.370;  863.340
935.869;  167.868;  -12.780; 1012.980
936.426;  165.816;  -14.480;  872.800
936.983;  166.967;  -13.180;  889.020
937.540;  168.505;  -15.710;  838.280
938.097;  169.975;  -14.980;  940.120
938.654;  172.455;  -13.060;  898.860
939.211;  172.725;  -12.760;  952.480
939.768;  171.218;  -16.230;  915.420
940.324;  172.283;  -10.940;  904.200
940.881;  171.914;  -12.570;  878.500
941.438;  170.798;  -13.650; 1021.200
941.995;  170.557;  -13.300;  992.560
942.551;  172.453;  -15.800;  875.620
943.108;  172.795;  -14.180;  937.920
943.664;  170.702;  -13.890;  869.340
944.221;  175.120;  -12.640; 1088.140
944.777;  172.314;  -14.700;  869.680
945.334;  170.672;  -13.010;  884.840
945.890;  173.428;  -13.480;  946.480
946.446;  172.769;  -14.920;  947.020
947.003;  170.864;  -13.860;  964.940
947.559;  170.925;  -12.000; 1063.040
948.115;  170.923;  -10.510; 1026.540
948.671;  169.747;  -12.760;  967.300
949.227;  166.226;  -15.390;  859.560
949.783;  162.865;  -15.570;  858.900
950.339;  160.985;  -12.800;  991.000
950.895;  160.104;  -13.780; 1023.840
951.451;  159.426;  -13.810;  925.280
952.007;  160.951;  -12.390;  998.540
952.563;  161.262;  -11.980;  937.780
953.118;  159.415;  -14.070;  904.940
953.674;  160.306;  -14.140;  935.780
954.230;  165.910;  -12.680;  949.640
954.785;  167.843;  -12.770;  936.640
955.341;  164.211;  -11.450;  998.160
955.897;  156.929;  -15.350;  834.660
956.452;  152.339;  -14.200;  953.840
957.008;  147.403;  -10.820; 1083.640
957.563;  145.180;  -13.200; 1009.540
958.118;  144.954;  -14.460;  877.700
958.674;  146.387;  -13.840;  946.780
959.229;  146.296;  -10.670; 1013.980
959.784;  145.635;  -17.040;  832.400
960.339;  148.210;  -12.970; 1001.280
960.894;  151.059;  -12.700;  963.760
961.449;  154.449;  -13.790;  859.960
962.004;  161.610;  -11.760; 1212.840
962.559;  158.032;  -14.840;  860.140
963.114;  154.012;  -14.530;  742.480
963.669;  151.447;  -12.780;  915.500
964.224;  147.322;  -14.330;  874.340
964.779;  141.406;  -14.380;  828.420
965.334;  138.469;  -12.460; 1017.860
965.888;  133.695;  -13.490;  875.360
966.443;  132.402;  -14.140;  972.380
966.998;  130.636;  -16.240;  819.460
967.552;  129.593;  -12.730;  908.380
968.107;  127.511;  -14.510;  868.300
968.661;  128.210;  -11.850;  922.440
969.216;  124.872;  -14.370;  856.280
969.770;  123.041;  -13.010;  917.200
970.324;  121.467;  -12.460;  923.140
970.879;  123.018;  -11.580;  947.180
971.433;  124.074;  -13.130;  952.720
971.987;  122.049;  -12.360;  895.340
972.541;  119.455;  -14.330;  917.100
973.095;  116.241;  -13.310; 1009.460
973.649;  112.602;  -15.830;  809.480
974.203;  113.602;  -15.830;  829.040
974.757;  115.997;  -13.480;  855.220
975.311;  118.589;  -13.720;  872.600
975.865;  119.311;  -15.780;  881.820
976.419;  117.094;  -14.290;  857.400
976.973;  115.866;  -13.210;  849.620
977.526;  112.828;  -12.300;  949.920
978.080;  107.209;  -14.840;  796.780
978.634;  106.064;  -13.100;  921.320
979.187;  102.633;  -12.300;  905.400
979.741;  102.238;  -12.020; 1018.380
980.294;   99.133;  -14.590;  789.160
980.848;   98.508;  -14.390;  717.220
981.401;   98.257;  -14.280;  816.540
981.955;   97.516;  -11.920;  844.300
982.508;   95.139;  -15.790;  746.340
983.061;   94.994;  -12.070;  915.260
983.615;   91.975;  -13.260;  798.800
984.168;   89.738;  -15.540;  770.080
984.721;   88.913;  -13.230;  880.760
985.274;   86.817;  -11.820;  867.500
985.827;   84.555;  -13.510;  834.220
986.380;   82.197;  -14.840;  721.340
986.933;   83.204;  -13.970;  864.800
987.486;   83.509;  -12.450;  861.920
988.039;   80.217;  -11.170;  863.100
988.591;   78.039;  -13.070;  893.260
989.144;   74.527;  -15.530;  737.260
989.697;   73.395;  -14.300;  758.740
990.250;   71.791;  -13.310;  858.100
990.802;   69.258;  -14.490;  755.860
991.355;   70.817;  -12.980;  974.880
991.907;   68.640;  -13.715;  864.320
992.460;   66.463;  -14.450;  753.760
993.012;   64.523;  -12.590;  749.540
993.565;   63.385;  -15.180;  711.360
994.117;   64.985;  -11.630;  950.780
994.669;   61.499;  -13.760;  701.320
995.221;   61.257;  -12.710;  791.920
995.774;   60.269;  -14.620;  787.580
996.326;   59.419;  -13.150;  740.220
996.878;   59.545;  -12.880;  838.420
997.430;   57.556;  -14.580;  699.860
997.982;   56.637;  -14.030;  750.140
998.534;   56.338;  -12.190;  739.060
999.086;   54.345;  -12.990;  738.220
999.638;   53.638;  -13.180;  661.380
1000.190;   52.996;  -14.970;  699.320
1000.741;   52.851;  -12.200;  742.700
1001.293;   51.696;  -13.400;  686.020
1001.845;   51.152;  -14.490;  676.640
1002.396;   51.272;  -15.280;  743.400
1002.948;   51.115;  -12.380;  737.400
1003.500;   49.830;  -13.260;  723.780
1004.051;   51.820;  -13.730;  907.580
1004.603;   49.883;  -12.300;  791.820
1005.154;   46.938;  -15.330;  608.980
1005.705;   45.760;  -12.800;  723.960
1006.257;   44.566;  -13.900;  707.220
1006.808;   43.950;  -14.430;  685.460
1007.359;   43.872;  -12.010;  763.240
1007.910;   42.124;  -12.690;  646.640
1008.461;   41.716;  -13.610;  732.940
1009.013;   40.360;  -14.990;  588.340
1009.564;   41.323;  -11.860;  793.520
1010.115;   38.830;  -12.640;  597.040
1010.665;   39.007;  -14.570;  602.160
1011.216;   39.373;  -15.190;  667.920
1011.767;   38.475;  -13.470;  697.920
1012.318;   38.852;  -13.760;  736.980
1012.869;   37.730;  -15.950;  679.000
1013.419;   37.368;  -15.880;  603.120
1013.970;   37.810;  -14.540;  666.640
1014.521;   36.749;  -13.220;  620.620
1015.071;   37.207;  -15.020;  670.380
1015.622;   35.926;  -17.510;  635.460
1016.172;   36.504;  -14.130;  596.820
1016.723;   35.294;  -14.220;  614.380
1017.273;   34.870;  -15.370;  604.160
1017.823;   35.438;  -15.290;  650.340
1018.374;   35.633;  -13.420;  611.760
1018.924;   35.366;  -11.740;  716.880
1019.474;   36.086;  -12.250;  718.880
1020.024;   33.460;  -15.850;  657.580
1020.574;   34.744;  -13.280;  726.160
1021.124;   35.042;  -13.560;  673.580
1021.674;   32.495;  -13.790;  559.120
1022.224;   34.358;  -14.610;  708.940
1022.774;   33.735;  -13.100;  668.820
1023.324;   34.576;  -11.470;  753.520
1023.874;   36.035;  -11.990;  875.760
1024.423;   32.767;  -14.550;  613.700
1024.973;   32.607;  -14.440;  610.760
1025.523;   31.853;  -13.250;  620.960
1026.072;   31.460;  -15.200;  606.420
1026.622;   31.031;  -14.590;  675.740
1027.172;   32.087;  -11.080;  715.660
1027.721;   30.634;  -14.010;  601.220
1028.270;   31.601;  -13.690;  663.400
1028.820;   30.867;  -15.380;  638.080
1029.369;   30.532;  -14.980;  612.700
1029.918;   31.318;  -13.100;  649.840
1030.468;   29.955;  -13.680;  564.780
1031.017;   30.672;  -13.770;  634.800
1031.566;   29.384;  -14.100;  608.900
1032.115;   30.341;  -11.770;  694.500
1032.664;   29.070;  -14.940;  596.480
1033.213;   29.982;  -13.370;  735.420
1033.762;   29.397;  -13.660;  635.620
1034.311;   29.244;  -13.650;  677.220
1034.860;   29.783;  -13.820;  691.000
1035.408;   28.665;  -12.860;  722.720
1035.957;   28.781;  -13.060;  719.540
1036.506;   25.766;  -14.510;  530.800
1037.055;   29.889;  -13.470;  844.320
1037.603;   27.234;  -14.800;  664.000
1038.152;   26.371;  -14.190;  534.760
1038.700;   26.254;  -11.810;  585.740
1039.249;   27.332;  -12.850;  681.220
1039.797;   27.496;  -14.610;  633.360
1040.345;   26.590;  -15.220;  705.420
1040.894;   26.506;  -13.480;  625.300
1041.442;   25.358;  -13.310;  632.200
1041.990;   24.967;  -14.510;  559.160
1042.538;   24.730;  -15.700;  536.180
1043.087;   25.490;  -13.910;  570.860
1043.635;   26.248;  -13.620;  670.500
1044.183;   24.706;  -14.230;  586.400
1044.731;   25.020;  -13.730;  576.000
1045.279;   25.060;  -13.970;  674.920
1045.827;   26.366;  -10.750;  892.400
1046.374;   23.284;  -15.230;  515.420
1046.922;   23.295;  -15.390;  590.580
1047.470;   25.278;  -12.320;  691.300
1048.018;   23.969;  -13.230;  647.960
1048.565;   24.797;  -13.390;  708.600
1049.113;   22.992;  -15.030;  557.000
1049.660;   23.111;  -12.540;  629.660
1050.208;   23.871;  -15.040;  675.640
1050.755;   22.941;  -14.680;  606.580
1051.303;   24.028;  -13.610;  686.820
1051.850;   23.183;  -14.340;  635.120
1052.397;   21.152;  -16.330;  473.960
1052.945;   21.848;  -15.710;  617.760
1053.492;   23.578;  -12.320;  741.840
1054.039;   22.837;  -13.730;  720.180
1054.586;   22.086;  -16.140;  557.240
1055.133;   22.786;  -14.020;  693.140
1055.680;   23.077;  -13.430;  646.620
1056.227;   21.098;  -14.570;  542.780
1056.774;   23.122;  -14.400;  794.980
1057.321;   20.308;  -14.230;  523.260
1057.868;   21.450;  -14.220;  651.320
1058.415;   20.498;  -14.060;  651.980
1058.961;   21.267;  -14.640;  678.940
1059.508;   21.128;  -13.970;  643.820
1060.055;   20.515;  -15.100;  581.780
1060.601;   20.820;  -12.180;  624.300
1061.148;   20.520;  -15.010;  616.820
1061.694;   20.368;  -14.750;  592.580
1062.241;   19.988;  -14.130;  596.320
1062.787;   20.099;  -14.770;  663.140
1063.334;   22.025;  -13.130;  808.560
1063.880;   20.092;  -14.420;  668.360
1064.426;   19.571;  -13.130;  706.820
1064.972;   18.872;  -13.960;  601.340
1065.518;   18.217;  -13.680;  566.640
1066.065;   19.161;  -15.720;  624.460
1066.611;   18.056;  -13.970;  598.800
1067.157;   19.150;  -13.920;  641.860
1067.703;   18.958;  -14.760;  668.480
1068.249;   18.758;  -14.490;  605.220
1068.794;   18.174;  -14.740;  626.880
1069.340;   17.953;  -13.220;  578.960
1069.886;   18.154;  -14.930;  590.700
1070.432;   16.810;  -14.700;  541.720
1070.977;   17.555;  -14.470;  601.080
1071.523;   17.538;  -14.330;  573.060
1072.068;   17.125;  -14.960;  582.000
1072.614;   17.017;  -16.220;  527.760
1073.160;   18.198;  -11.280;  687.040
1073.705;   16.289;  -15.990;  572.520
1074.250;   16.928;  -16.550;  559.900
1074.796;   17.393;  -14.600;  655.160
1075.341;   17.849;  -13.440;  664.100
1075.886;   16.888;  -14.450;  594.240
1076.431;   16.746;  -13.160;  649.880
1076.976;   15.767;  -14.710;  639.220
1077.521;   16.549;  -14.000;  583.080
1078.067;   14.532;  -14.470;  579.400
1078.612;   15.234;  -14.530;  661.620
1079.156;   15.359;  -15.660;  601.540
1079.701;   15.469;  -16.120;  693.260
1080.246;   16.914;  -12.960;  696.300
1080.791;   15.938;  -13.700;  625.020
1081.336;   15.815;  -15.540;  659.320
1081.880;   15.720;  -14.640;  649.680
1082.425;   14.586;  -14.220;  573.480
1082.970;   16.680;  -11.890;  717.040
1083.514;   14.338;  -13.820;  597.000
1084.059;   14.011;  -14.280;  586.720
1084.603;   13.930;  -12.890;  565.840
1085.147;   14.536;  -13.590;  645.220
1085.692;   14.956;  -14.050;  716.800
1086.236;   13.297;  -14.990;  503.140
1086.780;   15.579;  -12.640;  751.440
1087.325;   14.398;  -15.550;  654.620
1087.869;   13.772;  -14.980;  610.700
1088.413;   14.707;  -13.440;  705.040
1088.957;   12.736;  -12.170;  543.400
1089.501;   15.013;  -12.730;  766.640
1090.045;   14.908;  -14.650;  726.480
1090.589;   11.895;  -14.500;  569.920
1091.133;   13.302;  -12.320;  673.340
1091.676;   13.003;  -16.130;  591.940
1092.220;   12.594;  -13.930;  600.920
1092.764;   14.129;  -12.820;  706.960
1093.307;   13.374;  -11.700;  673.780
1093.851;   11.564;  -15.600;  556.540
1094.395;   13.178;  -13.920;  683.140
1094.938;   12.695;  -16.090;  632.520
1095.482;   11.816;  -13.820;  559.800
1096.025;   13.247;  -12.720;  710.880
1096.568;   13.280;  -12.100;  779.280
1097.112;   10.700;  -15.450;  508.180
1097.655;   12.073;  -14.310;  603.000
1098.198;   10.479;  -14.740;  600.180
1098.741;   11.027;  -15.550;  612.860
1099.285;   12.034;  -12.600;  657.300
1099.828;    8.605;  -15.050;  439.400
1100.371;   10.832;  -14.800;  608.160
1100.914;   11.802;  -16.480;  682.660
1101.457;   10.927;  -12.990;  679.900
1101.999;   10.615;  -14.110;  584.680
1102.542;   11.079;  -11.450;  641.440
1103.085;   10.047;  -13.350;  658.500
1103.628;   11.899;  -13.200;  762.060
1104.170;    9.753;  -12.310;  588.280
1104.713;   10.083;  -14.320;  646.700
1105.256;    9.107;  -16.110;  557.440
1105.798;    8.754;  -15.910;  499.980
1106.341;   10.779;  -12.200;  728.900
1106.883;    9.167;  -14.910;  521.340
1107.425;    9.916;  -14.960;  668.180
1107.968;    9.095;  -13.440;  612.380
1108.510;   10.719;  -14.010;  684.960
1109.052;    8.344;  -15.430;  612.620
1109.594;    8.684;  -15.290;  554.440
1110.136;    9.803;  -13.360;  643.220
1110.679;    8.919;  -13.820;  633.080
1111.221;    8.751;  -13.690;  604.460
1111.763;    7.840;  -14.890;  559.220
1112.304;    7.723;  -14.550;  547.140
1112.846;    8.690;  -12.760;  666.240
1113.388;   12.086;  -10.780;  942.180
1113.930;    9.043;  -12.690;  694.200
1114.472;    8.221;  -15.730;  606.540
1115.013;    6.886;  -14.620;  551.280
1115.555;    7.786;  -14.950;  587.100
1116.097;    7.084;  -16.460;  579.480
1116.638;    7.740;  -13.730;  684.600
1117.180;    8.126;  -13.810;  667.740
1117.721;    7.321;  -13.280;  568.580
1118.262;    8.136;  -15.080;  677.960
1118.804;    7.700;  -14.040;  637.340
1119.345;    7.022;  -15.430;  578.400
1119.886;    8.430;  -15.240;  704.040
1120.427;    6.092;  -15.820;  589.020
1120.969;    6.356;  -14.550;  597.920
1121.510;    6.013;  -14.030;  563.060
1122.051;    7.392;  -11.990;  723.580
1122.592;    6.323;  -16.490;  655.420
1123.133;    5.757;  -15.580;  547.940
1123.673;    7.279;  -12.850;  706.480
1124.214;    6.514;  -13.630;  612.460
1124.755;    6.367;  -14.830;  639.460
1125.296;    6.780;  -13.110;  627.320
1125.836;    8.196;  -11.320;  691.500
1126.377;    5.971;  -14.330;  599.660
1126.918;    6.920;  -12.800;  614.980
1127.458;    5.809;  -13.580;  622.220
1127.999;    6.613;  -10.330;  656.980
1128.539;    6.528;  -13.390;  694.240
1129.079;    5.432;  -16.420;  632.720
1129.620;    4.657;  -15.700;  558.100
1130.160;    4.924;  -14.790;  539.480
1130.700;    5.048;  -12.910;  640.840
1131.240;    6.355;  -15.610;  643.700
1131.781;    4.952;  -12.920;  619.680
1132.321;    5.156;  -15.300;  599.120
1132.861;    3.772;  -14.760;  564.200
1133.401;    3.909;  -15.470;  593.940
1133.941;    5.654;  -13.710;  626.280
1134.481;    4.335;  -11.820;  597.580
1135.020;    3.734;  -14.810;  609.160
1135.560;    4.885;  -13.660;  674.940
1136.100;    3.213;  -13.940;  501.160
1136.640;    3.030;  -15.410;  510.480
1137.179;    3.951;  -16.920;  537.960
1137.719;    3.400;  -16.430;  605.400
1138.258;    3.614;  -16.300;  587.360
1138.798;    4.502;  -13.710;  663.780
1139.337;    3.031;  -13.840;  482.840
1139.877;    3.698;  -16.140;  642.360
1140.416;    6.366;  -11.410;  878.060
1140.955;    2.589;  -12.820;  535.380
1141.494;    3.088;  -12.310;  669.280
1142.034;    2.770;  -16.280;  583.520
1142.573;    3.830;  -13.090;  646.280
1143.112;    2.438;  -13.770;  553.480
1143.651;    2.134;  -15.830;  536.480
1144.190;    3.678;  -15.010;  691.640
1144.729;    3.067;  -13.650;  607.420
1145.267;    2.127;  -13.670;  584.900
1145.806;    3.456;  -13.630;  637.040
1146.345;    2.785;  -14.160;  635.020
1146.884;    3.449;  -11.180;  622.500
1147.422;    2.107;  -15.890;  533.060
1147.961;    3.500;  -12.760;  708.460
1148.500;    3.156;  -15.220;  669.720
1149.038;    3.308;  -13.720;  632.500
1149.577;    3.031;  -13.250;  698.640
1150.115;    0.944;  -16.790;  452.280
1150.653;    2.429;  -15.810;  607.340
1151.192;    2.507;  -14.730;  552.920
1151.730;    1.966;  -13.660;  652.560
1152.268;    2.512;  -15.120;  589.520
1152.806;    1.510;  -15.580;  571.180
1153.344;    0.602;  -16.210;  577.640
1153.882;    2.050;  -12.810;  600.060
1154.421;    0.409;  -14.150;  470.620
1154.958;    0.862;  -15.360;  595.240
1155.496;    2.348;  -14.710;  645.280
1156.034;    2.230;  -13.640;  721.880
1156.572;    2.667;  -13.740;  667.060
1157.110;    0.195;  -16.960;  473.940
1157.647;    2.372;  -11.940;  676.960
1158.185;    0.702;  -14.090;  564.320
1158.723;   -0.184;  -13.610;  509.200
1159.260;    1.633;  -14.760;  701.700
1159.798;    2.539;  -13.700;  658.160
1160.335;    0.431;  -13.820;  631.820

