
Integration time [ms]:   3.882
Averaging Nr. [scans]: 1000
Smoothing Nr. [pixels]: 0
Data measured with spectrometer [name]: 7414430SP
Wave   ;Sample   ;Dark     ;Reference
[nm]   ;[counts] ;[counts] ;[counts] 

288.544;  126.080;   10.292;  793.890
289.143;  130.063;    4.564;  681.602
289.742;  132.087;    6.144;  828.814
290.341;  119.593;    4.396;  789.841
290.940;  109.151;    0.938;  730.702
291.538;  110.732;   -0.684;  881.108
292.137;  109.836;   -2.845;  792.581
292.736;  113.228;   -0.144;  975.101
293.335;  110.168;   -6.352;  735.086
293.934;  111.764;   -7.642;  781.677
294.532;  112.002;   -4.992; 1031.958
295.131;   97.320;   -5.478;  834.394
295.730;   96.958;   -6.549;  809.588
296.328;   96.103;   -9.558;  783.442
296.927;   96.056;   -8.118;  779.652
297.525;   97.344;   -6.908;  781.236
298.124;   86.762;   -9.195;  654.009
298.722;   92.425;   -8.198;  761.933
299.321;   89.775;   -8.817;  708.597
299.919;   87.343;   -7.716;  751.918
300.518;   83.492;  -10.745;  689.338
301.116;   85.343;   -9.647;  691.381
301.715;   86.529;  -10.828;  730.222
302.313;   85.464;   -6.087;  704.943
302.911;   80.742;   -6.824;  733.830
303.509;   86.701;   -8.807;  925.627
304.108;   83.943;   -8.198;  760.383
304.706;   83.034;   -6.218;  801.664
305.304;   77.947;   -7.185;  796.707
305.902;   84.283;   -8.568;  784.484
306.500;   79.849;   -7.737;  728.200
307.098;   77.490;   -6.026;  746.560
307.696;   76.271;   -7.176;  780.432
308.294;   77.165;   -8.656;  731.359
308.892;   79.328;   -6.838;  759.769
309.490;   73.482;   -2.596;  712.161
310.088;   72.326;   -4.485;  788.444
310.686;   78.833;   -3.907;  821.749
311.284;   74.299;   -2.806;  766.040
311.882;   71.402;   -2.845;  731.225
312.480;   67.338;   -3.274;  697.167
313.078;   70.430;   -3.645;  808.331
313.675;   72.187;   -4.997;  691.600
314.273;   66.362;   -0.894;  797.837
314.871;   64.861;   -2.854;  589.829
315.468;   64.337;   -3.644;  652.090
316.066;   67.358;   -3.947;  694.427
316.664;   60.041;   -1.824;  656.351
317.261;   64.204;    1.565;  910.128
317.859;   60.552;   -3.955;  768.735
318.456;   61.700;   -2.886;  830.096
319.054;   57.257;   -0.995;  787.828
319.651;   55.966;   -1.765;  759.928
320.249;   56.430;   -3.685;  810.188
320.846;   54.597;   -3.736;  714.286
321.443;   52.027;   -2.065;  832.135
322.041;   49.135;   -5.635;  812.315
322.638;   48.124;   -5.985;  701.456
323.235;   49.126;   -6.677;  665.683
323.833;   47.289;   -3.497;  740.354
324.430;   42.763;   -6.756;  615.900
325.027;   44.715;   -7.647;  876.855
325.624;   45.056;   -7.598;  644.532
326.221;   42.413;   -5.848;  689.717
326.818;   41.221;   -5.777;  818.332
327.415;   44.144;   -8.769;  748.828
328.012;   44.537;   -6.299;  690.585
328.609;   41.440;   -6.639;  731.389
329.206;   40.065;   -6.358;  778.621
329.803;   39.467;   -8.698;  737.841
330.400;   40.882;   -8.379;  704.260
330.997;   42.321;   -6.178;  817.147
331.594;   39.575;   -5.646;  788.185
332.191;   45.001;   -6.928;  728.722
332.787;   47.227;   -6.057;  844.463
333.384;   43.706;   -6.445;  763.093
333.981;   40.968;   -8.002;  815.687
334.578;   43.790;   -8.443;  708.378
335.174;   46.572;   -6.053;  731.469
335.771;   46.451;   -5.791;  836.456
336.367;   41.333;   -6.570;  710.631
336.964;   44.896;   -6.741;  793.266
337.561;   46.356;   -5.710;  731.112
338.157;   42.806;   -3.928;  911.916
338.754;   37.690;   -5.577;  796.589
339.350;   36.951;   -9.667;  722.493
339.946;   41.197;   -5.269;  773.135
340.543;   32.863;   -4.485;  846.136
341.139;   26.594;   -7.584;  720.836
341.735;   24.761;   -8.553;  772.593
342.332;   24.465;   -4.984;  691.472
342.928;   26.238;   -3.475;  795.394
343.524;   19.570;   -6.653;  761.684
344.120;   16.107;   -7.173;  738.562
344.716;   20.690;   -4.385;  723.717
345.313;   18.038;   -3.565;  795.342
345.909;   13.064;   -7.495;  627.336
346.505;   15.862;   -8.276;  740.247
347.101;   16.866;   -5.697;  827.864
347.697;   16.692;   -4.767;  785.398
348.293;   10.648;   -7.226;  627.244
348.889;   12.278;   -7.547;  745.914
349.485;   12.702;   -9.147;  688.205
350.081;   12.213;   -6.568;  772.592
350.676;    7.601;   -6.516;  691.606
351.272;   13.416;   -7.378;  809.530
351.868;   12.993;   -6.759;  780.497
352.464;    9.238;   -4.798;  723.932
353.059;    6.109;   -7.977;  646.017
353.655;   10.789;   -8.769;  777.063
354.251;   11.080;   -5.920;  759.845
354.846;    5.484;   -7.647;  740.646
355.442;    3.001;   -6.956;  753.071
356.038;    5.993;   -9.928;  751.708
356.633;    6.050;   -7.698;  728.594
357.229;    3.317;   -6.307;  724.757
357.824;    2.238;   -7.647;  703.600
358.420;    1.256;  -10.047;  679.726
359.015;    2.122;   -7.458;  695.357
359.610;    3.309;   -5.748;  763.920
360.206;   -3.186;   -9.346;  603.240
360.801;    0.662;  -11.268;  646.503
361.396;    2.756;   -8.789;  725.975
361.992;   -2.396;   -6.347;  668.220
362.587;   -4.367;   -6.476;  670.160
363.182;   -2.616;   -9.457;  689.631
363.777;   -0.985;   -7.147;  738.242
364.372;   -1.696;   -5.507;  737.314
364.967;   -6.041;   -6.386;  680.744
365.563;   -0.583;   -7.858;  815.567
366.158;   -3.696;   -8.517;  685.161
366.753;   -2.704;   -8.728;  649.263
367.348;   -4.610;   -7.677;  746.056
367.942;   -4.529;  -10.387;  697.298
368.537;   -5.356;   -7.187;  754.245
369.132;   -5.735;   -8.587;  703.428
369.727;  -10.628;   -8.606;  638.079
370.322;   -7.755;  -10.426;  580.186
370.917;   -7.748;   -5.776;  710.646
371.511;   -4.233;   -6.007;  861.834
372.106;   -8.634;   -6.686;  776.964
372.701;  -11.888;   -9.335;  585.988
373.296;   -5.043;   -6.777;  863.135
373.890;  -10.999;   -7.546;  647.840
374.485;  -12.439;   -8.755;  691.199
375.079;   -7.883;   -9.797;  738.685
375.674;   -6.551;   -6.327;  812.970
376.268;  -11.741;   -9.046;  691.759
376.863;  -17.862;   -7.993;  580.327
377.457;   -9.581;   -9.206;  662.490
378.052;  -11.477;   -5.345;  764.884
378.646;  -12.873;   -5.605;  741.167
379.240;  -13.239;   -6.825;  721.176
379.835;  -12.211;  -10.476;  636.978
380.429;  -14.339;   -8.676;  562.557
381.023;  -14.083;   -4.945;  779.205
381.617;  -16.886;   -8.094;  680.106
382.212;  -12.784;  -10.646;  685.303
382.806;  -11.635;   -8.136;  760.690
383.400;  -16.343;   -7.855;  672.281
383.994;  -16.908;   -8.125;  664.870
384.588;  -12.238;   -7.637;  697.701
385.182;  -10.970;   -7.458;  726.624
385.776;  -12.590;   -6.277;  706.875
386.370;  -16.229;   -7.485;  681.968
386.964;  -15.155;   -9.416;  684.155
387.558;  -13.082;   -8.518;  598.360
388.152;  -16.463;   -7.096;  681.959
388.745;  -14.565;   -7.656;  814.707
389.339;  -12.305;   -8.927;  747.642
389.933;  -11.489;   -9.538;  695.370
390.527;  -12.559;   -5.857;  859.029
391.120;  -19.496;   -9.455;  595.318
391.714;  -15.528;   -9.746;  711.633
392.308;  -12.025;   -7.857;  780.253
392.901;  -16.187;   -9.106;  642.460
393.495;  -18.741;  -10.365;  595.414
394.089;  -15.288;   -9.696;  760.452
394.682;  -16.352;   -7.016;  697.188
395.275;  -16.472;   -8.466;  719.927
395.869;  -18.775;   -8.985;  667.314
396.462;  -16.552;  -11.496;  616.609
397.056;  -12.279;   -7.838;  776.621
397.649;  -17.125;   -6.895;  731.575
398.242;  -14.214;   -5.017;  712.645
398.836;  -13.293;   -8.787;  766.408
399.429;  -13.807;   -8.967;  631.041
400.022;  -18.488;   -8.815;  665.902
400.615;  -16.094;   -6.276;  805.609
401.208;  -12.667;   -8.407;  691.451
401.802;  -15.599;   -7.296;  699.329
402.395;  -16.461;   -7.585;  683.502
402.988;  -18.017;   -8.015;  696.627
403.581;  -13.724;   -9.577;  646.878
404.174;  -11.107;   -7.588;  686.568
404.767;  -15.020;   -7.906;  638.583
405.360;  -18.051;   -7.875;  621.445
405.953;  -11.248;   -8.127;  759.034
406.545;  -10.034;   -7.198;  725.342
407.138;  -14.928;   -8.916;  618.350
407.731;  -13.659;   -9.767;  613.303
408.324;   -9.679;  -10.659;  660.554
408.917;  -10.397;   -8.068;  681.864
409.509;  -12.947;   -9.837;  740.396
410.102;  -15.360;   -8.146;  643.948
410.695;   -8.290;   -7.969;  665.758
411.287;   -7.949;   -8.579;  599.821
411.880;  -10.133;   -6.968;  585.421
412.472;  -13.783;   -9.487;  613.092
413.065;   -9.837;  -10.338;  629.408
413.657;   -8.265;   -9.169;  576.678
414.250;   -7.356;  -10.119;  646.681
414.842;   -9.247;   -9.938;  676.353
415.434;   -6.894;  -10.409;  570.463
416.027;   -2.931;   -9.591;  652.196
416.619;   -5.415;   -7.379;  713.400
417.211;   -6.060;   -9.159;  599.352
417.804;   -2.330;   -9.191;  628.499
418.396;   -5.792;   -8.159;  607.643
418.988;   -3.379;   -6.960;  659.238
419.580;   -7.191;  -11.389;  568.276
420.172;   -4.096;  -13.460;  536.196
420.764;   -0.277;  -10.701;  672.482
421.356;   -1.438;   -8.961;  636.898
421.948;   -2.645;   -9.770;  677.661
422.540;    3.527;   -8.832;  680.027
423.132;    3.255;   -8.153;  600.641
423.724;   -1.477;   -8.481;  561.267
424.316;    0.970;   -9.261;  621.345
424.908;    5.221;   -9.643;  591.517
425.500;    5.702;   -8.663;  647.978
426.092;    5.996;   -8.503;  648.268
426.683;    4.805;  -10.522;  684.836
427.275;    7.898;  -11.734;  641.471
427.867;    9.923;  -10.264;  668.948
428.458;   10.376;   -7.644;  732.344
429.050;    7.914;   -7.853;  680.749
429.642;   10.462;   -8.904;  743.124
430.233;   11.609;  -10.795;  569.356
430.825;   13.054;   -7.665;  724.809
431.416;   10.199;   -8.843;  698.241
432.008;   13.662;   -9.885;  651.723
432.599;   15.369;   -9.966;  656.073
433.190;   12.019;   -9.164;  637.670
433.782;   10.396;   -8.584;  590.395
434.373;   19.765;   -8.296;  884.765
434.964;   17.216;   -9.896;  602.920
435.556;   14.822;   -8.255;  634.537
436.147;   17.307;   -8.075;  758.490
436.738;   17.541;   -9.716;  701.099
437.329;   23.796;   -7.318;  721.723
437.920;   16.048;   -6.694;  666.688
438.511;   15.681;   -9.644;  564.526
439.103;   23.205;   -9.427;  623.998
439.694;   25.786;  -10.748;  681.583
440.285;   25.483;   -7.997;  764.432
440.876;   24.270;  -10.046;  845.738
441.466;   23.287;  -13.467;  575.162
442.057;   29.386;   -9.329;  665.814
442.648;   27.463;   -7.707;  746.255
443.239;   25.279;   -9.017;  620.477
443.830;   30.970;  -10.279;  704.958
444.421;   32.739;  -12.630;  655.474
445.011;   29.948;   -8.697;  693.619
445.602;   28.938;   -7.787;  743.126
446.193;   31.691;  -13.329;  488.117
446.783;   36.369;   -9.171;  640.397
447.374;   31.214;   -7.457;  692.759
447.964;   30.794;   -9.277;  713.770
448.555;   40.068;   -9.041;  822.742
449.145;   37.240;   -8.969;  662.853
449.736;   37.702;   -6.809;  803.179
450.326;   36.863;   -7.229;  713.626
450.917;   42.624;  -11.391;  675.324
451.507;   42.292;   -9.501;  600.661
452.097;   42.847;   -8.460;  746.267
452.688;   42.982;  -10.080;  742.160
453.278;   43.340;  -12.861;  566.840
453.868;   49.165;   -8.372;  793.550
454.458;   45.911;   -8.131;  651.141
455.048;   46.880;   -8.520;  711.783
455.639;   47.908;  -13.632;  567.096
456.229;   52.272;  -10.143;  710.694
456.819;   54.634;   -9.163;  751.158
457.409;   53.940;   -8.652;  773.993
457.999;   57.302;   -9.933;  737.505
458.589;   57.742;  -10.363;  686.606
459.179;   56.873;  -10.633;  717.658
459.769;   54.306;  -12.442;  627.099
460.358;   60.649;   -9.844;  797.262
460.948;   59.954;   -9.924;  689.503
461.538;   61.486;  -10.484;  660.677
462.128;   59.059;  -10.703;  664.934
462.717;   66.392;  -11.486;  710.326
463.307;   69.972;  -10.767;  705.846
463.897;   65.505;   -8.814;  656.942
464.486;   64.276;   -8.182;  837.128
465.076;   68.855;   -9.985;  733.776
465.666;   72.852;  -10.447;  652.900
466.255;   71.410;   -7.754;  785.651
466.845;   69.730;  -10.884;  666.749
467.434;   73.736;  -12.525;  725.873
468.023;   74.564;  -11.456;  658.357
468.613;   70.748;   -9.173;  713.946
469.202;   75.282;   -9.306;  646.507
469.791;   79.669;   -8.917;  737.811
470.381;   83.092;   -9.657;  742.813
470.970;   81.830;   -9.947;  711.099
471.559;   81.777;   -9.256;  733.291
472.148;   84.810;  -13.397;  675.737
472.738;   87.969;   -9.928;  765.466
473.327;   87.027;  -10.897;  637.529
473.916;   85.489;   -8.526;  737.446
474.505;   90.960;  -11.078;  751.703
475.094;   94.473;   -9.559;  806.570
475.683;   93.828;   -8.838;  797.699
476.272;   94.384;  -10.198;  730.632
476.861;   97.179;  -11.489;  706.754
477.449;  104.349;  -10.721;  728.487
478.038;   98.278;   -9.818;  692.513
478.627;   99.537;   -9.887;  714.852
479.216;  106.643;  -10.030;  769.441
479.805;  110.099;   -9.401;  783.375
480.393;  109.873;   -5.739; 1008.945
480.982;  108.174;   -7.838;  874.501
481.571;  115.090;   -9.111;  858.333
482.159;  115.380;  -10.601;  705.386
482.748;  115.468;   -8.500;  821.385
483.336;  119.668;   -9.241;  858.209
483.925;  121.240;  -10.440;  774.373
484.513;  128.086;  -11.063;  758.962
485.102;  124.313;   -9.540;  810.965
485.690;  133.790;   -6.742; 1011.050
486.278;  136.007;   -8.442;  979.329
486.867;  135.766;  -10.472;  809.662
487.455;  138.603;   -8.811;  898.229
488.043;  139.620;  -10.721;  748.361
488.631;  149.732;  -10.393; 1005.079
489.220;  153.931;  -10.843;  908.626
489.808;  152.967;  -10.572;  741.415
490.396;  160.571;  -10.482;  914.645
490.984;  168.459;  -11.542;  830.161
491.572;  179.146;   -8.463;  940.315
492.160;  183.562;   -8.491;  919.081
492.748;  193.035;   -9.681;  884.341
493.336;  212.791;  -10.493; 1019.693
493.924;  239.136;   -9.354;  958.077
494.512;  271.104;   -9.132; 1066.638
495.100;  308.416;   -9.001; 1103.280
495.687;  360.506;  -11.924; 1206.373
496.275;  430.375;  -11.193; 1150.796
496.863;  529.302;   -9.241; 1281.171
497.451;  641.901;  -11.341; 1386.805
498.038;  743.465;  -11.364; 1556.729
498.626;  856.065;   -8.104; 1741.407
499.214; 1037.769;   -8.842; 2016.609
499.801; 1227.451;  -10.112; 2220.633
500.389; 1433.263;  -11.953; 2312.494
500.976; 1692.653;  -10.023; 2744.849
501.564; 2005.528;   -8.662; 3148.565
502.151; 2381.531;  -10.531; 3515.999
502.738; 2764.601;  -13.853; 3971.274
503.326; 3322.411;  -10.794; 4403.796
503.913; 3908.997;   -8.663; 5161.749
504.500; 4272.257;  -10.172; 5986.420
505.088; 4621.787;  -13.472; 6381.201
505.675; 5344.087;  -10.924; 6925.547
506.262; 6155.782;   -8.551; 7619.060
506.849; 7004.415;  -10.523; 8733.969
507.436; 7711.626;  -10.834; 9790.121
508.023; 7949.778;   -9.093; 9985.472
508.610; 8378.612;  -10.073;10434.618
509.197; 8951.869;   -9.500;11198.435
509.784;10295.991;  -13.242;12391.194
510.371;11137.979;  -10.964;13603.713
510.958;10988.668;   -9.772;14426.586
511.545;12113.469;   -7.842;15243.775
512.132;12434.066;  -12.184;15945.876
512.719;12563.839;   -9.733;16340.369
513.305;14469.811;   -9.172;18011.766
513.892;16147.328;   -9.581;19754.971
514.479;18090.258;  -10.253;20967.805
515.066;20454.143;   -8.183;22299.793
515.652;21880.020;   -9.253;22908.660
516.239;22950.521;   -9.412;23798.875
516.825;25605.945;  -11.153;25567.275
517.412;25630.137;  -10.263;28154.959
517.998;25796.131;   -8.802;28344.111
518.585;25430.293;  -10.401;27134.219
519.171;25282.889;  -12.744;27268.576
519.758;27205.369;  -11.793;28964.129
520.344;29504.639;   -8.912;30664.494
520.930;29242.674;  -10.901;32550.605
521.516;29941.813;  -12.034;35422.895
522.103;31179.078;  -10.473;38280.004
522.689;32774.656;   -8.311;37835.117
523.275;36770.918;  -10.691;37288.613
523.861;38430.359;  -11.193;37281.395
524.447;39161.848;  -11.484;37846.949
525.033;39201.832;   -7.702;38321.949
525.619;39064.578;  -11.241;38579.285
526.205;40352.145;  -12.152;40622.875
526.791;39943.781;  -11.423;42258.836
527.377;36923.078;   -7.981;42966.902
527.963;37465.938;   -9.450;42018.949
528.549;41537.270;  -11.351;42476.828
529.135;43644.672;  -10.202;41854.852
529.721;42683.789;   -8.672;41237.711
530.306;40753.102;   -9.111;41259.445
530.892;42299.922;  -11.252;41506.047
531.478;44822.414;  -10.432;43559.613
532.063;47774.164;  -10.721;47695.563
532.649;49818.934;   -7.450;50808.324
533.235;50343.547;  -11.811;51787.500
533.820;50524.480;   -9.383;52145.035
534.406;49963.844;   -9.400;51133.488
534.991;48950.902;   -8.861;49996.805
535.576;47171.395;  -10.612;48882.852
536.162;45401.797;   -7.322;46942.285
536.747;46701.465;   -9.360;45711.746
537.333;49240.441;  -10.450;48510.180
537.918;50970.941;  -12.610;50439.891
538.503;52225.910;  -12.132;50863.711
539.088;49503.152;  -10.831;50906.922
539.673;46547.215;  -11.220;52621.965
540.259;48221.051;  -11.481;52368.094
540.844;51573.844;  -11.462;50879.109
541.429;53295.234;   -7.869;52077.777
542.014;54198.188;  -11.859;52716.695
542.599;53732.609;  -11.061;52363.281
543.184;52935.125;  -12.300;53187.137
543.769;52337.332;   -9.369;54697.605
544.354;52433.535;  -12.020;53913.914
544.938;49360.246;  -10.350;49680.164
545.523;46695.035;  -10.841;47386.277
546.108;48257.078;   -8.579;49151.949
546.693;50887.711;   -8.818;51384.637
547.278;52040.000;  -11.331;51853.254
547.862;48379.090;  -10.292;51173.750
548.447;43946.715;   -8.349;51691.395
549.031;45062.840;  -10.838;52456.703
549.616;50810.543;  -11.681;52714.516
550.201;54286.254;  -11.140;52414.598
550.785;52208.945;   -8.649;52355.059
551.370;51944.586;  -11.889;54589.453
551.954;52134.043;  -11.239;58267.348
552.538;51757.602;   -8.850;59062.176
553.123;53014.969;  -10.829;58115.285
553.707;53276.879;   -8.887;56556.285
554.291;52063.500;  -10.430;56201.668
554.876;49983.797;   -9.799;55335.762
555.460;51079.293;  -10.018;54155.703
556.044;52302.684;   -7.307;53721.484
556.628;49148.445;  -12.229;53731.016
557.212;45849.555;   -9.820;54312.531
557.796;45256.352;   -9.109;53797.773
558.380;47501.902;   -9.707;56145.984
558.964;46403.168;  -10.980;57277.930
559.548;46528.133;  -12.010;56459.641
560.132;50145.398;   -7.928;54434.543
560.716;51973.234;  -10.247;54800.617
561.300;51745.695;  -11.250;57606.945
561.884;53502.965;  -10.568;58972.445
562.467;51768.059;   -9.727;57327.570
563.051;50311.305;  -11.847;54962.434
563.635;49179.621;  -10.747;52594.473
564.219;45714.520;  -13.108;50610.410
564.802;42416.980;  -11.417;49551.180
565.386;43528.066;  -10.457;48370.953
565.969;45361.594;   -8.959;48178.871
566.553;44655.980;  -10.328;49957.305
567.136;43151.367;  -10.257;50369.594
567.720;43053.152;  -10.186;49492.004
568.303;43426.145;  -10.027;50616.352
568.887;44396.098;  -10.397;50727.148
569.470;42511.102;   -8.185;51698.379
570.053;41260.879;  -11.596;52122.078
570.637;41052.887;  -11.378;52536.438
571.220;40932.289;   -9.138;51186.098
571.803;40152.285;   -7.675;51032.762
572.386;38585.809;   -8.976;49609.887
572.969;36126.172;  -12.477;48285.926
573.552;37126.262;   -9.767;47624.285
574.135;37674.855;   -8.175;45498.641
574.718;34178.559;  -11.096;41970.434
575.301;32270.611;  -11.966;41447.137
575.884;30362.662;  -12.836;40923.836
576.467;34513.605;   -9.116;45267.723
577.050;35411.613;  -10.536;48175.543
577.633;36454.996;  -11.027;47729.328
578.216;37500.684;   -9.946;47579.793
578.799;37506.520;   -9.645;47820.996
579.381;38532.090;   -9.446;48115.551
579.964;40249.840;  -12.217;47333.766
580.547;41084.898;  -10.586;46668.969
581.129;41103.625;   -8.374;44466.141
581.712;38764.570;  -10.434;44164.922
582.294;36684.035;  -10.896;46477.855
582.877;36779.063;   -8.906;48244.254
583.459;37634.984;   -9.994;47437.895
584.042;38363.418;  -10.084;46943.219
584.624;38693.762;  -13.534;46792.227
585.206;36672.668;  -12.716;46557.250
585.789;36898.594;  -11.614;45793.773
586.371;34947.531;  -10.203;43836.391
586.953;32112.715;  -10.314;42972.492
587.536;32656.941;   -9.776;42487.211
588.118;34315.500;   -9.821;42086.414
588.700;35531.398;  -10.073;43389.930
589.282;34002.523;  -12.395;43646.039
589.864;33234.730;  -11.514;43438.109
590.446;33377.363;  -10.803;43151.926
591.028;32683.035;  -11.043;42781.867
591.610;32796.699;  -13.244;42839.098
592.192;32571.541;  -11.095;42820.402
592.774;31128.281;  -10.823;40724.277
593.356;30154.758;  -11.052;39874.789
593.937;31566.867;  -11.664;39980.648
594.519;35447.434;  -10.454;42069.633
595.101;38301.391;  -10.322;42976.031
595.683;37508.695;  -10.042;44084.441
596.264;33672.344;  -14.334;43478.797
596.846;34839.559;  -10.863;43803.672
597.427;33915.094;   -9.901;42986.934
598.009;32466.523;  -10.911;42832.219
598.591;32942.301;  -10.483;42580.086
599.172;34576.246;   -9.663;43061.805
599.753;35542.094;  -10.631;41691.469
600.335;35942.094;   -9.371;40692.520
600.916;33847.254;  -13.992;39982.422
601.498;33207.270;   -8.352;40318.617
602.079;33922.492;   -8.411;40670.609
602.660;33694.598;  -10.841;41450.898
603.241;33217.387;  -12.963;41137.738
603.823;33668.730;  -11.523;38868.797
604.404;33390.832;  -11.881;38182.785
604.985;34253.984;  -11.721;38078.047
605.566;34152.207;   -9.293;38056.633
606.147;32651.117;  -10.940;37020.418
606.728;34354.152;  -11.840;37883.359
607.309;35468.230;  -11.781;38748.273
607.890;35711.320;  -11.262;38850.230
608.471;33714.965;  -10.111;37457.918
609.051;33255.930;   -7.709;36066.457
609.632;30693.945;  -12.409;35991.074
610.213;31045.896;  -10.811;37402.641
610.794;32652.049;  -11.630;38383.363
611.374;36225.527;   -8.030;40562.387
611.955;36325.496;  -10.809;38533.727
612.536;34696.215;  -10.531;36951.789
613.116;34582.996;  -12.820;37197.891
613.697;35586.094;  -11.419;38411.125
614.277;36789.262;   -9.768;38673.938
614.858;33685.660;  -10.251;37075.863
615.438;30164.861;  -11.981;35092.906
616.019;27896.404;   -8.978;33666.301
616.599;30271.291;  -12.219;34189.023
617.179;32454.033;  -14.170;36952.047
617.760;33203.367;   -9.211;39582.574
618.340;33352.707;   -9.018;38943.977
618.920;33764.652;   -9.249;37594.156
619.500;33863.172;  -12.728;37866.938
620.080;34245.961;  -12.939;37869.043
620.660;35240.332;  -11.586;36868.617
621.241;34813.691;  -11.538;36352.309
621.821;33460.277;  -11.398;35459.520
622.401;32142.492;  -10.179;35207.414
622.980;32264.750;  -11.587;35980.422
623.560;33735.902;  -12.888;37351.328
624.140;31903.510;  -13.149;34388.582
624.720;27574.816;   -9.928;32368.764
625.300;27064.773;  -10.869;32638.629
625.880;29873.271;   -8.617;34599.035
626.459;30892.969;  -12.138;36831.738
627.039;33373.922;  -12.267;38299.098
627.619;36748.746;   -7.476;38289.574
628.198;38406.383;  -11.347;37220.695
628.778;35818.625;  -11.678;37632.563
629.357;33009.961;  -12.438;38003.012
629.937;32143.596;   -9.576;38402.039
630.516;32043.018;  -11.096;37868.801
631.096;33104.141;  -11.828;35760.410
631.675;34411.160;  -11.565;35225.219
632.254;34911.629;  -11.845;35130.289
632.834;36421.859;  -11.545;35794.570
633.413;35966.535;  -10.887;35788.922
633.992;35453.777;  -10.175;34532.863
634.571;36057.113;   -9.704;33590.113
635.151;34557.566;  -10.815;34943.863
635.730;33213.531;  -11.617;35352.523
636.309;32953.434;  -10.836;35366.605
636.888;33592.207;   -9.755;36165.637
637.467;33752.309;  -11.684;37515.902
638.046;33965.641;  -11.987;39288.695
638.625;33382.816;  -10.455;38279.699
639.204;32989.750;  -11.234;37741.598
639.782;33828.875;  -12.023;38364.551
640.361;32243.436;  -11.506;36740.621
640.940;29253.092;  -12.316;34950.082
641.519;27144.453;  -11.616;34137.398
642.097;29150.084;   -9.266;35654.258
642.676;33010.918;  -12.936;35637.957
643.255;33798.949;   -9.966;36567.074
643.833;34453.320;   -8.916;37809.434
644.412;32367.176;  -10.936;37337.293
644.990;31681.740;  -12.176;37018.531
645.569;32712.775;  -12.246;36518.469
646.147;35389.070;  -12.107;36186.430
646.726;37960.793;  -12.937;36267.688
647.304;35010.262;  -12.547;36647.625
647.882;33892.316;  -12.597;39286.742
648.461;33145.355;   -9.427;39157.703
649.039;33195.320;   -8.937;35412.883
649.617;34049.125;  -11.067;34744.918
650.195;32490.629;  -10.657;35403.098
650.773;29889.514;  -10.097;35053.797
651.352;29313.568;  -11.887;33756.816
651.930;28300.027;  -13.557;31868.773
652.508;28247.914;  -11.767;33121.551
653.086;31047.336;  -10.777;33564.793
653.663;33918.484;  -12.067;34054.668
654.241;36540.461;  -14.918;35693.309
654.819;36085.406;  -11.788;36422.906
655.397;33977.449;  -11.268;38213.484
655.975;32137.121;  -11.738;39507.625
656.553;30230.115;  -11.018;39498.223
657.130;29012.313;  -12.848;40395.480
657.708;27934.580;  -10.098;39242.020
658.286;29020.898;  -11.678;38920.020
658.863;31606.996;  -11.498;40202.898
659.441;34269.340;  -11.008;39677.938
660.018;36013.875;  -11.048;40413.355
660.596;36920.711;  -12.058;39931.414
661.173;37675.746;  -14.158;39604.531
661.750;37051.352;  -12.298;39700.070
662.328;36545.539;  -10.699;39292.809
662.905;35915.129;  -12.119;38235.648
663.482;31967.432;  -11.829;36212.305
664.060;28231.094;  -11.009;35944.945
664.637;31369.057;  -10.369;35170.785
665.214;33867.066;  -10.459;34197.523
665.791;33028.938;  -12.599;34549.520
666.368;30548.338;  -12.919;35118.578
666.945;28915.838;  -10.699;36019.418
667.522;30004.563;  -11.359;36048.438
668.099;30503.734;  -13.529;36243.914
668.676;29063.457;  -10.229;35958.875
669.253;28590.012;   -9.279;37384.730
669.830;28293.180;  -11.370;36779.629
670.407;28291.754;  -10.950;35231.289
670.984;29400.971;  -12.850;35544.270
671.560;28137.188;   -8.440;35466.867
672.137;28927.713;  -13.520;34280.863
672.714;30398.762;  -13.620;34632.863
673.290;30801.969;  -10.450;35135.422
673.867;29832.711;  -10.960;36114.480
674.443;30830.252;  -13.300;36152.859
675.020;29047.549;  -12.370;35327.238
675.596;28316.813;  -11.250;35795.176
676.173;28987.332;  -11.080;35430.355
676.749;28839.326;  -13.220;33549.516
677.326;29889.352;  -13.000;32210.012
677.902;29671.510;  -12.701;32068.871
678.478;28188.311;  -12.801;32583.891
679.054;29151.174;   -8.601;32088.928
679.631;30321.795;  -12.631;30978.848
680.207;30961.992;   -9.451;33160.887
680.783;30335.012;  -11.701;35570.363
681.359;30866.148;  -12.701;36125.184
681.935;32850.223;  -13.271;35240.922
682.511;34863.660;  -10.791;34429.961
683.087;32836.672;  -10.791;34463.680
683.663;29384.367;   -8.121;34648.898
684.239;27149.516;  -13.261;34546.457
684.815;27705.701;  -10.581;35586.375
685.390;29643.484;   -9.961;35821.895
685.966;29268.619;  -11.182;35085.871
686.542;28427.834;  -13.512;34198.230
687.118;26353.766;  -11.472;32847.707
687.693;25226.902;  -10.152;32794.027
688.269;25702.645;  -14.442;33072.367
688.844;24796.289;  -11.852;33141.664
689.420;23759.014;  -13.942;33965.742
689.995;25057.555;   -9.702;34655.523
690.571;26896.494;  -11.312;33576.742
691.146;27113.010;  -14.332;32657.219
691.722;26768.586;  -11.192;32526.979
692.297;27512.455;  -10.962;33014.617
692.872;28880.785;  -11.082;34012.254
693.448;29617.605;  -14.732;34237.434
694.023;29077.213;  -12.363;34142.672
694.598;27159.885;  -12.393;34132.031
695.173;27636.529;  -11.023;34205.250
695.748;29226.385;  -12.743;32882.488
696.323;28595.326;  -11.103;32864.906
696.898;27722.418;   -8.123;33170.004
697.473;27445.473;  -12.603;32432.984
698.048;27942.570;  -12.553;31649.303
698.623;29326.279;  -12.573;30778.141
699.198;29108.527;  -12.743;31140.119
699.773;28362.041;  -12.843;31764.299
700.348;28750.865;  -16.683;31780.816
700.922;29817.273;  -11.403;32046.375
701.497;31322.604;  -11.253;32603.574
702.072;30670.104;  -10.044;34799.871
702.646;29960.184;  -13.054;35793.172
703.221;30558.148;  -11.414;35201.590
703.795;30117.914;  -10.644;34764.527
704.370;28298.479;  -13.484;34307.367
704.944;27390.943;  -12.144;33509.887
705.519;26757.908;  -12.024;31388.584
706.093;28365.971;  -11.234;31340.104
706.668;29599.775;   -9.874;32630.281
707.242;28769.262;  -12.404;32728.779
707.816;27172.928;  -10.644;32947.238
708.390;26710.791;  -11.174;33277.855
708.965;26526.566;  -10.324;33834.336
709.539;27003.496;  -12.014;33709.273
710.113;27413.512;  -12.295;33044.313
710.687;28948.508;  -10.965;31953.992
711.261;31041.396;  -13.685;30505.949
711.835;29575.732;  -15.335;30262.369
712.409;28189.457;  -13.785;31254.447
712.983;28393.359;  -10.525;32754.986
713.557;26828.143;  -13.175;34018.824
714.131;26683.783;  -13.245;34579.625
714.704;29844.818;  -13.175;33890.262
715.278;32234.014;  -11.545;33531.102
715.852;30644.090;  -10.975;33601.660
716.425;28841.676;  -10.075;33515.117
716.999;29051.006;  -12.185;33185.555
717.573;31311.965;   -9.685;33905.996
718.146;32323.662;  -10.516;35199.293
718.720;31044.896;  -12.106;35060.551
719.293;29410.553;  -12.386;34973.230
719.867;29251.236;  -12.456;36394.449
720.440;29037.902;  -10.686;36663.008
721.013;29174.836;  -12.596;35102.426
721.587;30768.643;  -13.956;33985.266
722.160;32922.547;   -9.806;33524.965
722.733;33637.648;  -11.676;32987.043
723.306;32986.664;  -14.276;33066.301
723.880;30652.826;  -12.126;33399.500
724.453;28313.326;  -10.156;33468.297
725.026;28011.994;  -12.956;33816.637
725.599;28259.525;  -11.676;32797.996
726.172;28615.584;  -12.337;33187.434
726.745;28703.291;  -11.277;35136.613
727.318;28604.557;  -11.927;35751.730
727.891;27848.412;  -13.607;35890.430
728.463;25590.303;  -11.327;34822.090
729.036;25453.799;  -11.917;32895.086
729.609;27209.090;  -12.697;31823.225
730.182;28056.619;  -11.787;31445.283
730.754;27637.895;  -12.957;32373.223
731.327;27274.807;  -11.017;33676.820
731.900;26914.561;  -12.797;33417.000
732.472;26292.313;  -10.677;31978.498
733.045;25663.861;  -12.797;30368.777
733.617;25761.824;  -13.908;30574.215
734.190;24741.408;  -12.258;31280.975
734.762;24713.549;  -13.438;31674.412
735.334;25872.959;  -11.758;31247.291
735.907;28626.395;  -11.158;29876.211
736.479;32076.125;  -11.258;29808.488
737.051;32574.139;  -10.918;30233.547
737.623;31388.299;  -11.038;31469.086
738.195;32482.166;  -12.188;31784.225
738.768;30427.109;  -11.378;32120.523
739.340;24759.029;  -12.598;32094.342
739.912;22860.514;  -11.568;31312.680
740.484;24521.439;   -9.348;31946.238
741.056;27112.209;  -12.628;32984.059
741.628;29077.078;  -13.349;33897.715
742.199;28081.553;  -11.309;33213.016
742.771;28311.949;  -12.699;31369.113
743.343;29313.500;  -11.919;31865.473
743.915;29229.082;  -11.679;32388.631
744.487;27910.908;  -12.249;31079.568
745.058;25692.402;  -11.119;30570.107
745.630;24345.395;   -9.439;29970.127
746.201;23473.631;  -11.949;29186.766
746.773;23571.342;  -12.639;28805.723
747.344;24759.070;  -11.039;29591.223
747.916;26882.686;  -12.549;31412.201
748.487;25961.996;  -12.659;32194.898
749.059;24275.027;  -13.059;32533.719
749.630;23455.766;  -12.080;32158.518
750.201;21771.570;  -13.100;30855.395
750.773;20949.959;  -15.310;28622.555
751.344;20624.139;  -12.240;28405.732
751.915;20660.080;  -11.960;28461.551
752.486;19778.771;  -13.200;27842.850
753.057;18536.561;  -15.230;27845.008
753.628;19612.512;  -13.130;27728.107
754.199;22119.971;  -12.720;27381.086
754.770;22373.412;  -10.680;25882.203
755.341;21055.594;  -11.010;25886.184
755.912;20533.826;  -12.990;26050.861
756.483;19914.039;  -11.110;26798.779
757.054;19388.498;  -12.190;27048.238
757.625;19315.268;  -13.981;26294.838
758.195;19373.238;  -11.041;26142.076
758.766;20437.793;  -11.861;26392.234
759.337;20912.357;  -11.461;26334.594
759.907;20371.189;  -15.001;27579.652
760.478;19173.256;   -9.681;28352.770
761.048;17962.193;  -12.421;27325.088
761.619;18872.318;  -11.761;26460.428
762.189;19545.721;  -12.391;26029.826
762.760;18858.637;  -10.201;26430.145
763.330;19278.162;  -10.811;26670.902
763.900;19817.264;  -10.261;26603.021
764.471;18846.006;  -13.061;25542.740
765.041;17516.695;  -11.051;24358.459
765.611;17377.309;  -11.032;23991.297
766.181;17576.350;  -10.532;24470.236
766.751;17905.988;  -13.502;24845.975
767.321;19035.178;  -11.392;24533.633
767.891;20727.938;  -11.522;24916.492
768.461;21989.654;  -13.672;24776.771
769.031;19649.545;  -14.652;24757.988
769.601;16863.283;  -10.182;24181.088
770.171;15780.215;  -11.752;23670.387
770.741;14945.218;  -12.272;22960.045
771.311;14660.893;  -13.112;22917.523
771.880;15548.021;  -14.122;23562.941
772.450;16223.374;  -11.782;24216.500
773.020;16392.672;  -12.642;24140.398
773.589;15524.704;  -13.043;24414.857
774.159;14932.818;  -11.783;23858.717
774.729;15768.483;  -13.473;22942.135
775.298;16603.791;  -14.523;22324.033
775.867;16288.957;  -12.013;21140.313
776.437;15594.406;  -12.113;20838.092
777.006;15148.374;  -13.543;20599.510
777.576;15713.210;  -12.523;20508.809
778.145;15946.265;  -12.173;20732.947
778.714;15314.594;  -12.153;21062.465
779.283;14591.900;  -11.833;20949.664
779.853;14740.386;  -13.483;20508.623
780.422;14965.468;  -12.933;20649.082
780.991;14539.239;  -13.173;21527.520
781.560;14228.393;  -10.224;22632.658
782.129;14649.947;  -12.684;23048.277
782.698;14758.945;  -11.284;23438.555
783.267;14640.343;  -11.684;23267.734
783.836;14377.071;  -10.974;22415.133
784.404;13972.435;  -13.534;20443.152
784.973;13211.588;  -16.734;19699.150
785.542;12102.564;  -12.594;19763.828
786.111;11693.310;  -11.644;20341.408
786.679;12712.255;  -11.384;20207.967
787.248;12970.551;  -12.014;19516.465
787.817;11823.116;  -12.804;18900.363
788.385;10602.904;  -11.994;17879.121
788.954;10894.378;  -12.564;17658.301
789.522;11861.448;  -12.225;17788.879
790.090;11898.295;  -13.775;18118.277
790.659;11726.113;  -12.485;18338.736
791.227;12391.151;  -12.295;18508.615
791.795;13038.647;  -13.415;17898.254
792.364;13547.992;  -12.995;17295.133
792.932;13367.347;   -8.365;16822.051
793.500;12295.143;  -11.925;17040.148
794.068;12387.968;  -13.245;17179.787
794.636;13219.042;  -13.815;16664.246
795.204;13296.053;  -13.375;16524.545
795.772;13072.378;  -12.125;17274.564
796.340;12254.549;  -13.855;17891.002
796.908;10632.122;  -13.456;17648.561
797.476; 9748.257;  -13.116;17064.080
798.044; 9956.094;  -13.226;16672.777
798.612;10267.355;  -11.236;17023.996
799.180;10182.001;  -10.476;16561.615
799.747; 9840.574;  -11.746;15962.773
800.315; 9443.361;  -12.366;15296.992
800.883; 8867.022;  -14.616;14801.771
801.450; 8951.752;  -11.996;14534.430
802.018; 9793.462;  -11.206;14173.248
802.585;10228.708;  -12.466;14029.547
803.153; 9731.852;  -12.846;13836.846
803.720; 9118.158;  -12.136;13567.324
804.287; 9273.894;  -10.966;13360.622
804.855; 9439.598;   -9.797;13681.981
805.422; 8679.979;  -13.037;13536.560
805.989; 7940.536;  -12.697;13355.958
806.556; 8070.155;  -11.737;13747.896
807.124; 8755.862;  -11.997;13987.376
807.691; 8567.878;  -13.997;14038.674
808.258; 7984.418;  -10.927;14120.152
808.825; 8248.149;  -13.727;13860.111
809.392; 8345.102;  -11.847;13268.790
809.959; 8333.606;  -14.217;12680.389
810.526; 8296.097;   -8.277;12427.308
811.093; 8403.290;   -9.647;12030.105
811.659; 8437.653;  -10.987;11653.664
812.226; 7861.793;  -13.447;11637.183
812.793; 7375.625;  -14.418;11611.521
813.360; 7524.655;  -13.908;11885.181
813.926; 8023.557;  -12.918;12770.539
814.493; 8268.893;  -14.888;12677.638
815.060; 7833.611;  -12.758;11974.336
815.626; 7517.181;  -13.478;11594.715
816.193; 7457.307;  -13.898;11579.474
816.759; 7579.032;  -13.588;11666.972
817.325; 7598.668;  -12.018;11325.530
817.892; 7243.585;  -14.068;11105.369
818.458; 7250.287;  -13.458;10843.928
819.024; 7129.444;  -11.968;10714.406
819.591; 6905.022;  -11.028;10469.165
820.157; 6979.271;  -12.088;10235.523
820.723; 7066.209;  -12.599;10847.563
821.289; 6769.691;  -10.419;11040.980
821.855; 6560.307;  -10.939;10357.100
822.421; 6526.402;  -12.539; 9978.918
822.987; 6440.173;  -13.259; 9754.177
823.553; 6222.371;  -15.369;10065.755
824.119; 6079.947;  -10.779;10036.294
824.685; 6059.993;   -9.999;10029.192
825.251; 5926.827;  -11.819;10199.230
825.816; 5872.434;  -13.369; 9820.189
826.382; 5747.495;  -12.679; 9297.248
826.948; 5293.403;  -11.199; 9381.347
827.513; 5102.550;  -11.179; 9450.726
828.079; 5215.609;  -13.489; 9472.444
828.645; 5334.660;  -12.500; 9292.643
829.210; 5322.846;  -15.120; 9065.341
829.776; 5263.248;  -12.590; 9132.620
830.341; 5360.873;  -11.540; 9092.878
830.906; 5729.202;  -12.400; 9078.557
831.472; 5724.681;  -12.720; 8534.535
832.037; 5030.518;  -11.490; 8677.874
832.602; 4397.561;  -14.380; 8628.692
833.167; 4140.091;  -12.780; 8879.031
833.733; 4336.286;  -11.100; 9189.790
834.298; 4661.457;  -12.080; 9052.608
834.863; 4498.239;  -13.910; 8895.087
835.428; 4223.436;  -13.470; 8824.266
835.993; 4064.915;  -11.760; 8845.385
836.558; 4235.192;  -12.731; 8888.563
837.123; 4390.348;  -12.431; 8966.582
837.688; 4241.575;  -11.241; 8617.860
838.253; 4063.696;  -13.681; 8590.699
838.817; 4174.234;  -12.531; 8443.797
839.382; 4308.228;  -12.671; 8799.356
839.947; 4368.330;  -11.541; 8810.595
840.511; 4480.795;  -12.021; 8796.394
841.076; 4536.212;  -13.071; 8347.231
841.641; 4717.402;  -11.411; 8224.330
842.205; 4925.912;  -13.671; 8223.349
842.770; 4815.624;  -11.291; 8622.107
843.334; 4541.941;  -12.951; 8410.386
843.898; 4301.911;  -11.221; 8337.465
844.463; 4351.155;  -11.322; 8506.283
845.027; 4334.632;  -11.412; 8280.962
845.591; 4096.227;  -11.512; 8231.141
846.156; 3960.338;  -14.042; 7969.179
846.720; 4009.904;  -12.152; 7768.278
847.284; 3838.628;  -10.922; 7630.957
847.848; 3664.517;  -10.962; 7472.395
848.412; 3461.218;  -14.612; 7437.394
848.976; 3459.035;  -11.492; 7674.592
849.540; 3728.957;   -9.172; 7836.011
850.104; 3917.673;  -11.232; 7913.669
850.668; 3836.775;  -15.182; 7694.508
851.232; 3702.694;  -15.332; 7756.887
851.796; 3638.104;  -13.703; 7926.545
852.359; 3695.345;  -11.113; 7827.844
852.923; 3782.522;  -11.843; 7641.163
853.487; 3753.695;  -11.173; 7342.501
854.050; 3636.362;  -13.443; 7042.820
854.614; 3598.939;  -13.823; 7151.338
855.177; 3525.304;  -16.393; 7105.077
855.741; 3473.593;  -11.693; 6989.675
856.304; 3448.989;  -10.843; 6596.634
856.868; 3339.575;  -13.783; 6356.272
857.431; 3130.132;  -11.953; 6468.571
857.995; 2892.331;  -13.683; 6373.210
858.558; 2856.677;  -11.433; 6324.448
859.121; 2964.901;  -12.493; 6408.327
859.684; 2904.932;  -12.384; 6347.886
860.247; 2601.048;  -14.774; 6321.264
860.810; 2353.044;  -13.154; 6301.903
861.374; 2354.257;  -11.264; 6607.881
861.937; 2427.704;  -15.424; 6408.200
862.500; 2415.302;  -12.854; 6572.639
863.062; 2393.230;  -12.344; 6387.297
863.625; 2384.367;  -13.314; 6190.836
864.188; 2457.898;  -14.724; 5807.254
864.751; 2630.815;  -13.464; 5682.413
865.314; 2958.153;  -11.684; 5547.492
865.876; 3180.758;  -11.104; 5500.150
866.439; 3141.838;  -12.344; 5415.909
867.002; 2966.036;  -13.494; 5501.567
867.564; 2714.852;  -10.935; 5413.946
868.127; 2528.551;  -12.665; 5160.325
868.689; 2489.154;  -14.515; 5133.183
869.252; 2533.001;  -13.425; 5252.382
869.814; 2683.819;  -11.595; 5297.141
870.377; 2785.638;  -12.175; 5390.919
870.939; 2685.363;  -10.265; 5599.898
871.501; 2557.630;  -12.375; 5248.336
872.063; 2483.784;  -14.355; 4854.235
872.626; 2413.188;  -14.435; 4817.074
873.188; 2327.644;  -12.415; 4987.732
873.750; 2346.996;  -14.555; 4868.651
874.312; 2280.141;  -11.185; 4779.330
874.874; 2102.717;  -12.715; 4866.348
875.436; 2017.201;  -13.196; 4718.887
875.998; 2012.659;  -11.426; 4660.005
876.560; 1938.786;   -9.786; 4462.964
877.122; 1876.495;  -12.796; 4145.042
877.683; 1852.886;  -13.226; 4056.481
878.245; 1839.987;  -12.036; 3950.740
878.807; 1840.718;  -11.536; 4058.958
879.369; 1832.686;  -10.806; 3954.677
879.930; 1741.382;  -13.946; 3941.495
880.492; 1602.520;  -11.876; 4067.014
881.053; 1562.489;  -13.216; 3859.633
881.615; 1619.782;  -12.226; 3776.071
882.176; 1658.978;  -12.946; 3734.750
882.738; 1610.446;  -10.736; 3678.489
883.299; 1546.218;  -12.057; 3405.407
883.860; 1514.923;  -12.677; 3351.106
884.422; 1479.272;  -14.097; 3394.044
884.983; 1380.464;  -13.667; 3166.443
885.544; 1235.931;  -10.717; 3189.802
886.105; 1124.227;  -14.357; 3160.360
886.666; 1095.491;  -14.287; 3093.059
887.227; 1097.758;  -14.297; 2941.957
887.788; 1089.230;  -13.137; 2974.836
888.349; 1007.087;  -14.637; 2721.214
888.910;  923.238;  -12.247; 2696.493
889.471;  915.014;  -10.577; 2560.172
890.032;  907.981;  -12.937; 2558.190
890.593;  858.891;  -12.487; 2567.669
891.153;  790.069;  -11.898; 2460.307
891.714;  777.252;  -14.278; 2372.046
892.275;  781.579;  -13.308; 2309.505
892.835;  729.553;  -12.058; 2382.543
893.396;  651.660;  -15.268; 2295.502
893.956;  598.729;  -13.278; 2162.420
894.517;  564.829;  -11.968; 2125.439
895.077;  551.028;  -12.798; 2086.978
895.638;  532.129;  -11.908; 2126.316
896.198;  507.157;  -13.288; 1838.275
896.758;  482.262;  -12.198; 1892.813
897.319;  455.978;  -13.048; 1792.232
897.879;  419.272;  -13.718; 1762.751
898.439;  383.159;  -14.138; 1661.149
898.999;  369.895;  -13.659; 1781.468
899.559;  359.580;  -14.699; 1703.347
900.119;  337.832;  -14.339; 1537.525
900.679;  315.315;  -11.789; 1638.384
901.239;  292.250;  -13.629; 1527.902
901.799;  277.783;  -13.679; 1456.441
902.359;  264.529;  -13.679; 1357.140
902.919;  254.108;  -14.159; 1331.118
903.479;  244.413;  -13.419; 1317.257
904.038;  233.395;  -14.899; 1262.595
904.598;  220.958;  -14.339; 1152.034
905.158;  214.912;  -13.959; 1240.893
905.717;  211.782;  -12.749; 1233.691
906.277;  204.138;  -11.889; 1217.330
906.836;  197.745;  -12.870; 1222.408
907.396;  195.193;  -11.790; 1193.047
907.955;  193.027;  -13.750; 1182.526
908.515;  185.403;  -14.760; 1099.364
909.074;  179.685;  -12.540; 1092.863
909.633;  173.790;  -12.120; 1069.121
910.192;  170.685;  -12.550; 1196.460
910.752;  169.093;  -12.760; 1029.960
911.311;  165.115;  -14.750; 1009.780
911.870;  162.677;  -13.860;  971.460
912.429;  161.050;  -13.480; 1094.080
912.988;  157.657;  -12.370; 1081.060
913.547;  152.259;  -14.670;  940.380
914.106;  149.851;  -12.800;  999.420
914.665;  147.522;  -11.370;  984.020
915.224;  145.062;  -11.430; 1035.760
915.782;  145.445;  -12.260;  922.560
916.341;  146.761;  -12.540; 1049.840
916.900;  144.073;  -12.540;  925.260
917.458;  141.589;  -13.480;  884.220
918.017;  141.001;  -12.470;  942.600
918.576;  140.938;  -13.450;  904.440
919.134;  138.394;  -12.890;  837.980
919.693;  137.374;  -15.480;  893.060
920.251;  134.404;  -14.420;  876.500
920.809;  135.376;  -12.170;  839.580
921.368;  134.552;  -13.650;  885.360
921.926;  134.403;  -12.750;  842.940
922.484;  134.889;  -14.150;  903.360
923.042;  137.001;  -15.100;  880.340
923.601;  138.956;  -10.990;  998.680
924.159;  138.591;  -12.470;  935.560
924.717;  137.712;  -15.640;  841.080
925.275;  139.019;  -12.380;  903.240
925.833;  138.293;  -12.710;  779.320
926.391;  139.950;  -11.200;  938.380
926.949;  139.890;  -16.000;  857.680
927.506;  142.308;  -12.260;  903.500
928.064;  141.869;  -11.300;  877.580
928.622;  142.270;  -13.750;  880.100
929.180;  142.226;  -15.290;  814.180
929.737;  141.513;  -14.500;  808.540
930.295;  143.315;  -10.630;  928.480
930.853;  144.684;  -14.590;  849.100
931.410;  147.226;  -14.450;  821.120
931.968;  150.390;  -14.390;  940.660
932.525;  150.459;  -13.050;  909.380
933.082;  150.239;  -15.620;  811.440
933.640;  151.949;  -15.650;  925.900
934.197;  155.292;  -13.610;  886.360
934.754;  159.588;  -13.320;  897.780
935.312;  162.014;  -13.370;  863.340
935.869;  165.614;  -12.780; 1012.980
936.426;  164.629;  -14.480;  872.800
936.983;  164.022;  -13.180;  889.020
937.540;  165.016;  -15.710;  838.280
938.097;  166.381;  -14.980;  940.120
938.654;  169.755;  -13.060;  898.860
939.211;  168.990;  -12.760;  952.480
939.768;  168.716;  -16.230;  915.420
940.324;  169.810;  -10.940;  904.200
940.881;  168.743;  -12.570;  878.500
941.438;  168.059;  -13.650; 1021.200
941.995;  167.669;  -13.300;  992.560
942.551;  170.104;  -15.800;  875.620
943.108;  169.827;  -14.180;  937.920
943.664;  168.350;  -13.890;  869.340
944.221;  171.418;  -12.640; 1088.140
944.777;  168.974;  -14.700;  869.680
945.334;  167.868;  -13.010;  884.840
945.890;  169.616;  -13.480;  946.480
946.446;  168.674;  -14.920;  947.020
947.003;  167.276;  -13.860;  964.940
947.559;  167.794;  -12.000; 1063.040
948.115;  166.987;  -10.510; 1026.540
948.671;  166.740;  -12.760;  967.300
949.227;  163.483;  -15.390;  859.560
949.783;  159.941;  -15.570;  858.900
950.339;  160.153;  -12.800;  991.000
950.895;  157.142;  -13.780; 1023.840
951.451;  156.195;  -13.810;  925.280
952.007;  159.372;  -12.390;  998.540
952.563;  159.410;  -11.980;  937.780
953.118;  156.498;  -14.070;  904.940
953.674;  158.924;  -14.140;  935.780
954.230;  163.530;  -12.680;  949.640
954.785;  164.182;  -12.770;  936.640
955.341;  160.911;  -11.450;  998.160
955.897;  153.122;  -15.350;  834.660
956.452;  150.097;  -14.200;  953.840
957.008;  145.484;  -10.820; 1083.640
957.563;  142.889;  -13.200; 1009.540
958.118;  141.785;  -14.460;  877.700
958.674;  143.965;  -13.840;  946.780
959.229;  143.619;  -10.670; 1013.980
959.784;  142.655;  -17.040;  832.400
960.339;  145.910;  -12.970; 1001.280
960.894;  148.131;  -12.700;  963.760
961.449;  152.172;  -13.790;  859.960
962.004;  158.279;  -11.760; 1212.840
962.559;  156.412;  -14.840;  860.140
963.114;  151.890;  -14.530;  742.480
963.669;  149.437;  -12.780;  915.500
964.224;  144.998;  -14.330;  874.340
964.779;  139.399;  -14.380;  828.420
965.334;  136.764;  -12.460; 1017.860
965.888;  131.307;  -13.490;  875.360
966.443;  130.653;  -14.140;  972.380
966.998;  127.705;  -16.240;  819.460
967.552;  126.862;  -12.730;  908.380
968.107;  123.905;  -14.510;  868.300
968.661;  125.174;  -11.850;  922.440
969.216;  121.452;  -14.370;  856.280
969.770;  120.530;  -13.010;  917.200
970.324;  120.131;  -12.460;  923.140
970.879;  120.220;  -11.580;  947.180
971.433;  121.269;  -13.130;  952.720
971.987;  120.633;  -12.360;  895.340
972.541;  117.792;  -14.330;  917.100
973.095;  114.807;  -13.310; 1009.460
973.649;  111.330;  -15.830;  809.480
974.203;  111.176;  -15.830;  829.040
974.757;  113.804;  -13.480;  855.220
975.311;  115.469;  -13.720;  872.600
975.865;  115.769;  -15.780;  881.820
976.419;  115.393;  -14.290;  857.400
976.973;  113.264;  -13.210;  849.620
977.526;  110.720;  -12.300;  949.920
978.080;  105.258;  -14.840;  796.780
978.634;  104.517;  -13.100;  921.320
979.187;  100.748;  -12.300;  905.400
979.741;   99.884;  -12.020; 1018.380
980.294;   97.023;  -14.590;  789.160
980.848;   95.824;  -14.390;  717.220
981.401;   96.709;  -14.280;  816.540
981.955;   95.948;  -11.920;  844.300
982.508;   92.172;  -15.790;  746.340
983.061;   93.021;  -12.070;  915.260
983.615;   89.876;  -13.260;  798.800
984.168;   87.629;  -15.540;  770.080
984.721;   86.631;  -13.230;  880.760
985.274;   84.951;  -11.820;  867.500
985.827;   81.772;  -13.510;  834.220
986.380;   80.301;  -14.840;  721.340
986.933;   81.738;  -13.970;  864.800
987.486;   80.386;  -12.450;  861.920
988.039;   79.070;  -11.170;  863.100
988.591;   75.978;  -13.070;  893.260
989.144;   72.720;  -15.530;  737.260
989.697;   71.942;  -14.300;  758.740
990.250;   70.698;  -13.310;  858.100
990.802;   67.982;  -14.490;  755.860
991.355;   69.511;  -12.980;  974.880
991.907;   67.384;  -13.715;  864.320
992.460;   65.257;  -14.450;  753.760
993.012;   63.413;  -12.590;  749.540
993.565;   61.692;  -15.180;  711.360
994.117;   63.698;  -11.630;  950.780
994.669;   60.607;  -13.760;  701.320
995.221;   60.177;  -12.710;  791.920
995.774;   59.327;  -14.620;  787.580
996.326;   58.054;  -13.150;  740.220
996.878;   58.753;  -12.880;  838.420
997.430;   55.632;  -14.580;  699.860
997.982;   55.510;  -14.030;  750.140
998.534;   56.291;  -12.190;  739.060
999.086;   54.740;  -12.990;  738.220
999.638;   51.841;  -13.180;  661.380
1000.190;   51.206;  -14.970;  699.320
1000.741;   52.251;  -12.200;  742.700
1001.293;   51.047;  -13.400;  686.020
1001.845;   50.021;  -14.490;  676.640
1002.396;   50.481;  -15.280;  743.400
1002.948;   50.121;  -12.380;  737.400
1003.500;   48.822;  -13.260;  723.780
1004.051;   50.062;  -13.730;  907.580
1004.603;   49.118;  -12.300;  791.820
1005.154;   45.629;  -15.330;  608.980
1005.705;   45.366;  -12.800;  723.960
1006.257;   43.504;  -13.900;  707.220
1006.808;   43.287;  -14.430;  685.460
1007.359;   43.510;  -12.010;  763.240
1007.910;   41.262;  -12.690;  646.640
1008.461;   41.316;  -13.610;  732.940
1009.013;   39.375;  -14.990;  588.340
1009.564;   40.988;  -11.860;  793.520
1010.115;   38.071;  -12.640;  597.040
1010.665;   37.801;  -14.570;  602.160
1011.216;   38.251;  -15.190;  667.920
1011.767;   38.496;  -13.470;  697.920
1012.318;   38.496;  -13.760;  736.980
1012.869;   36.920;  -15.950;  679.000
1013.419;   36.907;  -15.880;  603.120
1013.970;   37.688;  -14.540;  666.640
1014.521;   36.281;  -13.220;  620.620
1015.071;   36.315;  -15.020;  670.380
1015.622;   35.112;  -17.510;  635.460
1016.172;   35.344;  -14.130;  596.820
1016.723;   35.048;  -14.220;  614.380
1017.273;   35.184;  -15.370;  604.160
1017.823;   35.041;  -15.290;  650.340
1018.374;   35.021;  -13.420;  611.760
1018.924;   34.957;  -11.740;  716.880
1019.474;   35.031;  -12.250;  718.880
1020.024;   33.377;  -15.850;  657.580
1020.574;   34.384;  -13.280;  726.160
1021.124;   33.958;  -13.560;  673.580
1021.674;   32.259;  -13.790;  559.120
1022.224;   33.766;  -14.610;  708.940
1022.774;   33.659;  -13.100;  668.820
1023.324;   34.090;  -11.470;  753.520
1023.874;   34.286;  -11.990;  875.760
1024.423;   32.266;  -14.550;  613.700
1024.973;   32.030;  -14.440;  610.760
1025.523;   31.600;  -13.250;  620.960
1026.072;   30.507;  -15.200;  606.420
1026.622;   30.492;  -14.590;  675.740
1027.172;   32.435;  -11.080;  715.660
1027.721;   30.755;  -14.010;  601.220
1028.270;   31.542;  -13.690;  663.400
1028.820;   30.424;  -15.380;  638.080
1029.369;   30.525;  -14.980;  612.700
1029.918;   30.480;  -13.100;  649.840
1030.468;   29.514;  -13.680;  564.780
1031.017;   29.634;  -13.770;  634.800
1031.566;   28.993;  -14.100;  608.900
1032.115;   30.375;  -11.770;  694.500
1032.664;   27.952;  -14.940;  596.480
1033.213;   29.110;  -13.370;  735.420
1033.762;   28.357;  -13.660;  635.620
1034.311;   28.277;  -13.650;  677.220
1034.860;   27.980;  -13.820;  691.000
1035.408;   28.288;  -12.860;  722.720
1035.957;   29.305;  -13.060;  719.540
1036.506;   26.610;  -14.510;  530.800
1037.055;   29.467;  -13.470;  844.320
1037.603;   27.401;  -14.800;  664.000
1038.152;   26.410;  -14.190;  534.760
1038.700;   26.001;  -11.810;  585.740
1039.249;   25.550;  -12.850;  681.220
1039.797;   25.847;  -14.610;  633.360
1040.345;   26.739;  -15.220;  705.420
1040.894;   26.020;  -13.480;  625.300
1041.442;   25.349;  -13.310;  632.200
1041.990;   24.359;  -14.510;  559.160
1042.538;   24.205;  -15.700;  536.180
1043.087;   24.232;  -13.910;  570.860
1043.635;   25.952;  -13.620;  670.500
1044.183;   25.042;  -14.230;  586.400
1044.731;   24.741;  -13.730;  576.000
1045.279;   23.694;  -13.970;  674.920
1045.827;   26.541;  -10.750;  892.400
1046.374;   22.572;  -15.230;  515.420
1046.922;   23.217;  -15.390;  590.580
1047.470;   24.276;  -12.320;  691.300
1048.018;   23.877;  -13.230;  647.960
1048.565;   24.229;  -13.390;  708.600
1049.113;   22.666;  -15.030;  557.000
1049.660;   23.145;  -12.540;  629.660
1050.208;   22.801;  -15.040;  675.640
1050.755;   22.353;  -14.680;  606.580
1051.303;   24.022;  -13.610;  686.820
1051.850;   22.948;  -14.340;  635.120
1052.397;   20.215;  -16.330;  473.960
1052.945;   21.487;  -15.710;  617.760
1053.492;   23.333;  -12.320;  741.840
1054.039;   23.167;  -13.730;  720.180
1054.586;   20.586;  -16.140;  557.240
1055.133;   21.752;  -14.020;  693.140
1055.680;   22.452;  -13.430;  646.620
1056.227;   20.738;  -14.570;  542.780
1056.774;   22.920;  -14.400;  794.980
1057.321;   19.785;  -14.230;  523.260
1057.868;   21.266;  -14.220;  651.320
1058.415;   21.090;  -14.060;  651.980
1058.961;   20.226;  -14.640;  678.940
1059.508;   20.482;  -13.970;  643.820
1060.055;   20.350;  -15.100;  581.780
1060.601;   21.199;  -12.180;  624.300
1061.148;   19.909;  -15.010;  616.820
1061.694;   19.499;  -14.750;  592.580
1062.241;   19.579;  -14.130;  596.320
1062.787;   20.354;  -14.770;  663.140
1063.334;   21.116;  -13.130;  808.560
1063.880;   19.330;  -14.420;  668.360
1064.426;   20.449;  -13.130;  706.820
1064.972;   18.502;  -13.960;  601.340
1065.518;   17.456;  -13.680;  566.640
1066.065;   17.967;  -15.720;  624.460
1066.611;   17.968;  -13.970;  598.800
1067.157;   18.662;  -13.920;  641.860
1067.703;   18.428;  -14.760;  668.480
1068.249;   17.241;  -14.490;  605.220
1068.794;   18.667;  -14.740;  626.880
1069.340;   18.128;  -13.220;  578.960
1069.886;   17.301;  -14.930;  590.700
1070.432;   16.143;  -14.700;  541.720
1070.977;   16.796;  -14.470;  601.080
1071.523;   17.559;  -14.330;  573.060
1072.068;   16.867;  -14.960;  582.000
1072.614;   16.100;  -16.220;  527.760
1073.160;   18.210;  -11.280;  687.040
1073.705;   16.442;  -15.990;  572.520
1074.250;   16.281;  -16.550;  559.900
1074.796;   17.118;  -14.600;  655.160
1075.341;   17.720;  -13.440;  664.100
1075.886;   16.276;  -14.450;  594.240
1076.431;   16.616;  -13.160;  649.880
1076.976;   15.985;  -14.710;  639.220
1077.521;   15.975;  -14.000;  583.080
1078.067;   15.143;  -14.470;  579.400
1078.612;   15.991;  -14.530;  661.620
1079.156;   14.975;  -15.660;  601.540
1079.701;   15.598;  -16.120;  693.260
1080.246;   16.140;  -12.960;  696.300
1080.791;   15.046;  -13.700;  625.020
1081.336;   15.753;  -15.540;  659.320
1081.880;   15.847;  -14.640;  649.680
1082.425;   14.423;  -14.220;  573.480
1082.970;   15.829;  -11.890;  717.040
1083.514;   14.231;  -13.820;  597.000
1084.059;   14.127;  -14.280;  586.720
1084.603;   13.953;  -12.890;  565.840
1085.147;   14.324;  -13.590;  645.220
1085.692;   14.674;  -14.050;  716.800
1086.236;   12.578;  -14.990;  503.140
1086.780;   15.619;  -12.640;  751.440
1087.325;   14.051;  -15.550;  654.620
1087.869;   13.122;  -14.980;  610.700
1088.413;   14.915;  -13.440;  705.040
1088.957;   12.978;  -12.170;  543.400
1089.501;   14.392;  -12.730;  766.640
1090.045;   13.738;  -14.650;  726.480
1090.589;   11.517;  -14.500;  569.920
1091.133;   13.101;  -12.320;  673.340
1091.676;   13.076;  -16.130;  591.940
1092.220;   12.288;  -13.930;  600.920
1092.764;   14.236;  -12.820;  706.960
1093.307;   13.452;  -11.700;  673.780
1093.851;   11.134;  -15.600;  556.540
1094.395;   12.736;  -13.920;  683.140
1094.938;   12.241;  -16.090;  632.520
1095.482;   12.783;  -13.820;  559.800
1096.025;   12.489;  -12.720;  710.880
1096.568;   13.489;  -12.100;  779.280
1097.112;   10.018;  -15.450;  508.180
1097.655;   12.654;  -14.310;  603.000
1098.198;   10.126;  -14.740;  600.180
1098.741;   10.264;  -15.550;  612.860
1099.285;   11.812;  -12.600;  657.300
1099.828;    9.827;  -15.050;  439.400
1100.371;   10.853;  -14.800;  608.160
1100.914;   11.020;  -16.480;  682.660
1101.457;   11.329;  -12.990;  679.900
1101.999;   10.492;  -14.110;  584.680
1102.542;   10.902;  -11.450;  641.440
1103.085;   10.222;  -13.350;  658.500
1103.628;   11.481;  -13.200;  762.060
1104.170;    9.824;  -12.310;  588.280
1104.713;   10.454;  -14.320;  646.700
1105.256;    9.115;  -16.110;  557.440
1105.798;    8.219;  -15.910;  499.980
1106.341;   11.201;  -12.200;  728.900
1106.883;    9.152;  -14.910;  521.340
1107.425;    9.210;  -14.960;  668.180
1107.968;    9.480;  -13.440;  612.380
1108.510;   10.815;  -14.010;  684.960
1109.052;    8.310;  -15.430;  612.620
1109.594;    8.502;  -15.290;  554.440
1110.136;    9.320;  -13.360;  643.220
1110.679;    8.165;  -13.820;  633.080
1111.221;    8.713;  -13.690;  604.460
1111.763;    7.664;  -14.890;  559.220
1112.304;    7.718;  -14.550;  547.140
1112.846;    8.843;  -12.760;  666.240
1113.388;   12.179;  -10.780;  942.180
1113.930;    8.438;  -12.690;  694.200
1114.472;    8.017;  -15.730;  606.540
1115.013;    7.634;  -14.620;  551.280
1115.555;    6.880;  -14.950;  587.100
1116.097;    6.433;  -16.460;  579.480
1116.638;    8.143;  -13.730;  684.600
1117.180;    7.919;  -13.810;  667.740
1117.721;    7.198;  -13.280;  568.580
1118.262;    7.658;  -15.080;  677.960
1118.804;    8.150;  -14.040;  637.340
1119.345;    6.964;  -15.430;  578.400
1119.886;    8.236;  -15.240;  704.040
1120.427;    6.518;  -15.820;  589.020
1120.969;    6.619;  -14.550;  597.920
1121.510;    6.453;  -14.030;  563.060
1122.051;    6.980;  -11.990;  723.580
1122.592;    5.924;  -16.490;  655.420
1123.133;    6.188;  -15.580;  547.940
1123.673;    7.359;  -12.850;  706.480
1124.214;    6.276;  -13.630;  612.460
1124.755;    6.225;  -14.830;  639.460
1125.296;    6.716;  -13.110;  627.320
1125.836;    7.333;  -11.320;  691.500
1126.377;    5.971;  -14.330;  599.660
1126.918;    6.146;  -12.800;  614.980
1127.458;    5.669;  -13.580;  622.220
1127.999;    7.087;  -10.330;  656.980
1128.539;    6.086;  -13.390;  694.240
1129.079;    5.304;  -16.420;  632.720
1129.620;    5.328;  -15.700;  558.100
1130.160;    5.058;  -14.790;  539.480
1130.700;    5.376;  -12.910;  640.840
1131.240;    5.539;  -15.610;  643.700
1131.781;    5.619;  -12.920;  619.680
1132.321;    5.695;  -15.300;  599.120
1132.861;    3.922;  -14.760;  564.200
1133.401;    3.960;  -15.470;  593.940
1133.941;    4.993;  -13.710;  626.280
1134.481;    4.834;  -11.820;  597.580
1135.020;    3.560;  -14.810;  609.160
1135.560;    4.112;  -13.660;  674.940
1136.100;    4.071;  -13.940;  501.160
1136.640;    3.896;  -15.410;  510.480
1137.179;    3.006;  -16.920;  537.960
1137.719;    3.750;  -16.430;  605.400
1138.258;    3.729;  -16.300;  587.360
1138.798;    4.329;  -13.710;  663.780
1139.337;    2.715;  -13.840;  482.840
1139.877;    3.727;  -16.140;  642.360
1140.416;    6.239;  -11.410;  878.060
1140.955;    2.728;  -12.820;  535.380
1141.494;    3.536;  -12.310;  669.280
1142.034;    1.551;  -16.280;  583.520
1142.573;    4.599;  -13.090;  646.280
1143.112;    2.682;  -13.770;  553.480
1143.651;    2.334;  -15.830;  536.480
1144.190;    3.990;  -15.010;  691.640
1144.729;    3.430;  -13.650;  607.420
1145.267;    3.446;  -13.670;  584.900
1145.806;    4.259;  -13.630;  637.040
1146.345;    2.217;  -14.160;  635.020
1146.884;    2.667;  -11.180;  622.500
1147.422;    2.388;  -15.890;  533.060
1147.961;    3.862;  -12.760;  708.460
1148.500;    3.131;  -15.220;  669.720
1149.038;    3.079;  -13.720;  632.500
1149.577;    3.546;  -13.250;  698.640
1150.115;    0.834;  -16.790;  452.280
1150.653;    1.934;  -15.810;  607.340
1151.192;    2.570;  -14.730;  552.920
1151.730;    3.009;  -13.660;  652.560
1152.268;    2.061;  -15.120;  589.520
1152.806;    1.528;  -15.580;  571.180
1153.344;    0.888;  -16.210;  577.640
1153.882;    2.567;  -12.810;  600.060
1154.421;   -0.116;  -14.150;  470.620
1154.958;    1.055;  -15.360;  595.240
1155.496;    2.658;  -14.710;  645.280
1156.034;    2.026;  -13.640;  721.880
1156.572;    2.763;  -13.740;  667.060
1157.110;    0.359;  -16.960;  473.940
1157.647;    2.652;  -11.940;  676.960
1158.185;    1.322;  -14.090;  564.320
1158.723;   -0.390;  -13.610;  509.200
1159.260;    1.332;  -14.760;  701.700
1159.798;    1.866;  -13.700;  658.160
1160.335;    0.945;  -13.820;  631.820

