
Integration time [ms]:   3.276
Averaging Nr. [scans]: 1000
Smoothing Nr. [pixels]: 0
Data measured with spectrometer [name]: 7414430SP
Wave   ;Sample   ;Dark     ;Reference
[nm]   ;[counts] ;[counts] ;[counts] 

288.544;  150.461;    7.793;  793.890
289.143;  154.513;    7.462;  681.602
289.742;  153.288;    8.602;  828.814
290.341;  138.582;    1.321;  789.841
290.940;  128.687;   -0.709;  730.702
291.538;  128.706;    0.881;  881.108
292.137;  128.293;    0.122;  792.581
292.736;  133.568;   -1.929;  975.101
293.335;  130.110;   -8.229;  735.086
293.934;  130.405;   -5.279;  781.677
294.532;  128.482;   -1.369; 1031.958
295.131;  114.078;   -7.641;  834.394
295.730;  115.273;   -8.420;  809.588
296.328;  113.338;   -5.611;  783.442
296.927;  114.613;   -5.781;  779.652
297.525;  114.963;   -6.361;  781.236
298.124;  105.938;  -11.382;  654.009
298.722;  109.954;   -7.641;  761.933
299.321;  106.942;   -6.811;  708.597
299.919;  106.398;   -6.991;  751.918
300.518;  102.989;  -10.362;  689.338
301.116;  104.019;   -9.581;  691.381
301.715;  104.692;   -4.891;  730.222
302.313;  103.003;   -8.801;  704.943
302.911;   98.488;   -8.522;  733.830
303.509;  103.974;   -6.171;  925.627
304.108;  101.846;   -7.311;  760.383
304.706;  101.366;   -8.321;  801.664
305.304;   94.852;  -10.222;  796.707
305.902;  101.288;   -6.021;  784.484
306.500;   95.935;   -4.971;  728.200
307.098;   94.883;   -7.061;  746.560
307.696;   93.048;   -8.801;  780.432
308.294;   94.213;   -6.411;  731.359
308.892;   95.098;   -2.901;  759.769
309.490;   92.023;   -5.041;  712.161
310.088;   90.387;   -5.002;  788.444
310.686;   94.074;   -2.041;  821.749
311.284;   89.473;   -2.351;  766.040
311.882;   87.183;   -4.422;  731.225
312.480;   85.037;   -4.192;  697.167
313.078;   85.657;   -1.172;  808.331
313.675;   87.499;   -2.601;  691.600
314.273;   81.868;   -1.312;  797.837
314.871;   81.713;   -3.942;  589.829
315.468;   79.139;   -2.802;  652.090
316.066;   82.531;   -0.701;  694.427
316.664;   74.894;   -4.362;  656.351
317.261;   78.314;   -2.872;  910.128
317.859;   74.116;   -2.022;  768.735
318.456;   74.441;   -0.531;  830.096
319.054;   70.718;   -3.912;  787.828
319.651;   69.679;   -4.752;  759.928
320.249;   68.676;   -2.602;  810.188
320.846;   66.770;   -0.821;  714.286
321.443;   63.725;   -4.642;  832.135
322.041;   61.760;   -5.002;  812.315
322.638;   57.898;   -3.982;  701.456
323.235;   59.865;   -3.411;  665.683
323.833;   57.743;   -7.361;  740.354
324.430;   52.957;   -8.611;  615.900
325.027;   53.195;   -4.061;  876.855
325.624;   52.951;   -4.031;  644.532
326.221;   50.703;   -7.481;  689.717
326.818;   50.804;   -5.281;  818.332
327.415;   52.959;   -7.460;  748.828
328.012;   52.291;   -5.510;  690.585
328.609;   51.439;   -7.880;  731.389
329.206;   50.101;   -8.331;  778.621
329.803;   49.478;   -5.121;  737.841
330.400;   52.374;   -4.510;  704.260
330.997;   53.545;   -6.441;  817.147
331.594;   53.246;   -8.831;  788.185
332.191;   57.947;   -7.621;  728.722
332.787;   60.275;   -4.591;  844.463
333.384;   59.122;   -7.412;  763.093
333.981;   58.300;   -8.293;  815.687
334.578;   60.679;   -7.052;  708.378
335.174;   62.258;   -3.102;  731.469
335.771;   62.142;   -5.943;  836.456
336.367;   59.541;   -7.393;  710.631
336.964;   63.373;   -4.063;  793.266
337.561;   60.523;   -3.813;  731.112
338.157;   56.869;   -4.654;  911.916
338.754;   54.628;   -7.934;  796.589
339.350;   52.705;   -4.414;  722.493
339.946;   54.583;   -4.664;  773.135
340.543;   46.681;   -6.375;  846.136
341.139;   41.077;   -9.815;  720.836
341.735;   38.979;   -4.526;  772.593
342.332;   37.517;   -4.895;  691.472
342.928;   38.112;   -4.295;  795.394
343.524;   32.342;   -5.476;  761.684
344.120;   29.321;   -5.856;  738.562
344.716;   31.985;   -2.155;  723.717
345.313;   29.588;   -6.275;  795.342
345.909;   24.390;   -8.815;  627.336
346.505;   26.152;   -5.305;  740.247
347.101;   26.635;   -2.674;  827.864
347.697;   26.383;   -4.344;  785.398
348.293;   21.889;   -9.975;  627.244
348.889;   22.670;   -5.774;  745.914
349.485;   22.158;   -5.004;  688.205
350.081;   21.933;   -4.704;  772.592
350.676;   17.468;   -6.635;  691.606
351.272;   22.263;   -4.504;  809.530
351.868;   21.035;   -3.914;  780.497
352.464;   19.007;   -9.044;  723.932
353.059;   15.556;   -8.314;  646.017
353.655;   18.985;   -7.024;  777.063
354.251;   19.677;   -5.343;  759.845
354.846;   13.924;   -8.604;  740.646
355.442;   11.967;   -6.945;  753.071
356.038;   13.739;   -7.564;  751.708
356.633;   14.086;   -5.814;  728.594
357.229;   11.692;   -7.364;  724.757
357.824;   10.286;   -8.024;  703.600
358.420;    9.812;   -9.384;  679.726
359.015;    9.830;   -5.104;  695.357
359.610;   10.724;   -6.854;  763.920
360.206;    4.696;  -10.185;  603.240
360.801;    7.932;   -7.054;  646.503
361.396;   10.217;   -5.034;  725.975
361.992;    5.324;   -8.284;  668.220
362.587;    2.782;   -8.625;  670.160
363.182;    5.190;   -7.674;  689.631
363.777;    5.640;   -5.164;  738.242
364.372;    5.379;   -8.604;  737.314
364.967;    1.591;   -9.055;  680.744
365.563;    5.843;   -6.114;  815.567
366.158;    2.957;   -5.814;  685.161
366.753;    2.527;   -7.854;  649.263
367.348;    1.972;   -7.804;  746.056
367.942;    0.994;   -7.954;  697.298
368.537;    0.523;   -4.984;  754.245
369.132;    0.447;   -8.564;  703.428
369.727;   -3.043;   -8.855;  638.079
370.322;   -1.500;   -6.245;  580.186
370.917;   -2.464;   -6.425;  710.646
371.511;    0.201;   -6.294;  861.834
372.106;   -3.148;   -7.685;  776.964
372.701;   -5.915;   -7.335;  585.988
373.296;   -0.248;   -4.564;  863.135
373.890;   -5.083;  -10.235;  647.840
374.485;   -7.637;   -7.885;  691.199
375.079;   -3.807;   -7.324;  738.685
375.674;   -1.959;   -3.494;  812.970
376.268;   -6.026;   -8.525;  691.759
376.863;  -11.528;  -10.086;  580.327
377.457;   -6.131;   -7.025;  662.490
378.052;   -7.711;   -3.585;  764.884
378.646;   -9.057;   -7.595;  741.167
379.240;   -8.338;   -8.335;  721.176
379.835;   -8.079;   -5.785;  636.978
380.429;   -9.974;   -4.335;  562.557
381.023;   -9.286;   -6.805;  779.205
381.617;  -12.196;   -9.195;  680.106
382.212;   -9.263;   -6.905;  685.303
382.806;   -8.980;   -3.745;  760.690
383.400;  -12.318;   -7.745;  672.281
383.994;  -13.610;   -9.765;  664.870
384.588;   -9.475;   -6.564;  697.701
385.182;   -7.752;   -5.344;  726.624
385.776;   -9.893;   -8.514;  706.875
386.370;  -12.654;   -9.555;  681.968
386.964;  -11.459;   -8.715;  684.155
387.558;  -10.120;   -6.174;  598.360
388.152;  -13.250;   -8.725;  681.959
388.745;  -11.847;   -7.965;  814.707
389.339;   -9.487;   -5.924;  747.642
389.933;   -9.649;   -5.524;  695.370
390.527;  -10.168;   -7.114;  859.029
391.120;  -16.099;  -10.725;  595.318
391.714;  -13.281;   -8.035;  711.633
392.308;   -9.771;   -3.574;  780.253
392.901;  -14.497;   -7.245;  642.460
393.495;  -15.619;   -9.285;  595.414
394.089;  -14.070;   -5.895;  760.452
394.682;  -14.177;   -4.295;  697.188
395.275;  -14.880;   -9.875;  719.927
395.869;  -15.969;   -8.485;  667.314
396.462;  -15.013;   -7.455;  616.609
397.056;  -10.714;   -5.424;  776.621
397.649;  -15.441;   -6.605;  731.575
398.242;  -12.323;   -8.224;  712.645
398.836;  -11.923;   -7.474;  766.408
399.429;  -13.324;   -7.094;  631.041
400.022;  -16.891;   -9.475;  665.902
400.615;  -14.321;   -7.145;  805.609
401.208;  -12.347;   -7.174;  691.451
401.802;  -14.623;   -5.515;  699.329
402.395;  -16.135;   -9.875;  683.502
402.988;  -16.303;   -8.845;  696.627
403.581;  -12.825;   -8.874;  646.878
404.174;  -10.902;   -5.324;  686.568
404.767;  -14.096;   -9.575;  638.583
405.360;  -16.752;  -10.965;  621.445
405.953;  -10.868;   -8.764;  759.034
406.545;  -10.464;   -7.514;  725.342
407.138;  -14.979;  -10.025;  618.350
407.731;  -12.979;  -10.034;  613.303
408.324;   -9.191;   -9.374;  660.554
408.917;  -10.454;   -6.534;  681.864
409.509;  -12.989;   -8.004;  740.396
410.102;  -14.115;   -9.875;  643.948
410.695;   -7.801;   -8.604;  665.758
411.287;   -9.895;   -6.794;  599.821
411.880;  -10.864;   -9.334;  585.421
412.472;  -13.007;  -10.254;  613.092
413.065;  -10.300;   -6.714;  629.408
413.657;   -9.065;   -7.234;  576.678
414.250;   -8.542;  -10.544;  646.681
414.842;  -10.166;   -9.744;  676.353
415.434;   -8.275;   -6.994;  570.463
416.027;   -4.258;   -5.893;  652.196
416.619;   -6.283;   -7.264;  713.400
417.211;   -5.844;  -10.374;  599.352
417.804;   -2.790;   -7.993;  628.499
418.396;   -7.638;   -7.234;  607.643
418.988;   -4.929;   -9.443;  659.238
419.580;   -8.287;  -10.724;  568.276
420.172;   -5.548;  -10.323;  536.196
420.764;   -1.551;   -8.793;  672.482
421.356;   -3.161;  -11.143;  636.898
421.948;   -3.449;   -8.293;  677.661
422.540;    1.542;   -7.893;  680.027
423.132;    0.263;   -7.082;  600.641
423.724;   -2.622;   -8.653;  561.267
424.316;   -1.590;  -10.213;  621.345
424.908;    2.575;   -9.762;  591.517
425.500;    3.096;   -5.572;  647.978
426.092;    3.192;   -8.422;  648.268
426.683;    2.461;   -9.283;  684.836
427.275;    5.263;   -7.852;  641.471
427.867;    7.340;   -5.272;  668.948
428.458;    7.206;   -7.682;  732.344
429.050;    6.589;  -10.612;  680.749
429.642;    8.183;   -9.882;  743.124
430.233;    8.303;   -6.962;  569.356
430.825;    9.936;   -6.842;  724.809
431.416;    7.252;   -9.672;  698.241
432.008;   10.463;   -6.552;  651.723
432.599;   11.644;   -6.891;  656.073
433.190;    8.636;  -10.912;  637.670
433.782;    7.601;  -11.172;  590.395
434.373;   15.646;   -6.061;  884.765
434.964;   13.767;   -8.251;  602.920
435.556;   11.513;   -9.722;  634.537
436.147;   14.949;   -9.082;  758.490
436.738;   15.143;   -8.041;  701.099
437.329;   20.012;   -7.341;  721.723
437.920;   12.560;   -8.162;  666.688
438.511;   13.116;  -11.802;  564.526
439.103;   19.603;  -10.191;  623.998
439.694;   20.873;   -7.601;  681.583
440.285;   21.882;   -8.541;  764.432
440.876;   19.805;   -9.751;  845.738
441.466;   19.448;   -9.401;  575.162
442.057;   24.240;   -7.760;  665.814
442.648;   22.493;   -9.971;  746.255
443.239;   21.854;  -11.001;  620.477
443.830;   26.696;   -7.990;  704.958
444.421;   28.391;   -7.910;  655.474
445.011;   24.838;   -8.131;  693.619
445.602;   24.947;   -7.111;  743.126
446.193;   25.841;  -10.920;  488.117
446.783;   31.345;   -6.500;  640.397
447.374;   26.297;   -8.671;  692.759
447.964;   26.975;  -10.781;  713.770
448.555;   34.762;   -9.650;  822.742
449.145;   32.029;   -8.660;  662.853
449.736;   32.535;   -8.990;  803.179
450.326;   32.634;   -9.500;  713.626
450.917;   37.496;   -8.680;  675.324
451.507;   36.644;   -7.520;  600.661
452.097;   37.546;   -8.590;  746.267
452.688;   38.268;  -11.340;  742.160
453.278;   37.703;  -10.100;  566.840
453.868;   42.728;   -6.019;  793.550
454.458;   40.401;   -9.440;  651.141
455.048;   40.715;  -10.560;  711.783
455.639;   42.165;  -11.799;  567.096
456.229;   45.835;   -6.899;  710.694
456.819;   47.564;   -7.389;  751.158
457.409;   47.514;  -11.119;  773.993
457.999;   50.264;   -9.289;  737.505
458.589;   50.967;   -6.139;  686.606
459.179;   50.396;   -8.729;  717.658
459.769;   48.103;   -9.789;  627.099
460.358;   53.978;  -10.259;  797.262
460.948;   53.710;   -7.299;  689.503
461.538;   54.708;  -10.289;  660.677
462.128;   52.427;  -11.269;  664.934
462.717;   59.313;   -9.368;  710.326
463.307;   61.726;   -7.908;  705.846
463.897;   57.718;   -9.599;  656.942
464.486;   56.779;   -9.769;  837.128
465.076;   61.912;   -8.048;  733.776
465.666;   65.648;   -9.358;  652.900
466.255;   62.981;   -7.919;  785.651
466.845;   62.760;  -11.689;  666.749
467.434;   65.288;   -7.818;  725.873
468.023;   65.953;   -7.678;  658.357
468.613;   63.974;  -10.939;  713.946
469.202;   68.124;  -10.118;  646.507
469.791;   72.147;   -9.108;  737.811
470.381;   74.342;   -6.058;  742.813
470.970;   73.945;  -10.428;  711.099
471.559;   73.253;  -10.268;  733.291
472.148;   77.010;   -8.448;  675.737
472.738;   79.057;   -6.917;  765.466
473.327;   79.109;  -11.978;  637.529
473.916;   78.936;  -11.888;  737.446
474.505;   82.839;   -9.437;  751.703
475.094;   85.609;   -6.747;  806.570
475.683;   85.337;   -9.367;  797.699
476.272;   86.280;  -12.637;  730.632
476.861;   89.024;  -10.027;  706.754
477.449;   95.786;   -8.716;  728.487
478.038;   88.954;   -9.577;  692.513
478.627;   91.117;   -9.718;  714.852
479.216;   97.642;   -8.947;  769.441
479.805;  100.700;   -6.256;  783.375
480.393;   99.936;   -7.937; 1008.945
480.982;   99.148;   -7.717;  874.501
481.571;  105.611;   -9.266;  858.333
482.159;  106.028;   -7.636;  705.386
482.748;  105.841;   -9.667;  821.385
483.336;  110.299;  -10.376;  858.209
483.925;  111.494;   -7.147;  774.373
484.513;  118.394;   -7.996;  758.962
485.102;  114.806;  -10.027;  810.965
485.690;  123.934;  -10.446; 1011.050
486.278;  125.641;   -8.446;  979.329
486.867;  126.761;   -6.356;  809.662
487.455;  127.897;   -9.136;  898.229
488.043;  129.242;  -10.646;  748.361
488.631;  138.101;   -7.456; 1005.079
489.220;  142.645;   -6.636;  908.626
489.808;  142.988;  -11.036;  741.415
490.396;  151.432;  -10.246;  914.645
490.984;  157.170;   -8.556;  830.161
491.572;  167.809;   -5.886;  940.315
492.160;  174.866;   -9.486;  919.081
492.748;  188.194;  -10.976;  884.341
493.336;  213.270;   -8.776; 1019.693
493.924;  242.186;   -5.465;  958.077
494.512;  272.006;   -9.986; 1066.638
495.100;  312.198;  -10.636; 1103.280
495.687;  371.795;  -10.885; 1206.373
496.275;  440.638;   -8.126; 1150.796
496.863;  515.255;  -10.586; 1281.171
497.451;  623.169;  -11.926; 1386.805
498.038;  762.607;  -10.885; 1556.729
498.626;  880.157;   -6.315; 1741.407
499.214; 1043.635;   -7.326; 2016.609
499.801; 1250.442;  -11.906; 2220.633
500.389; 1519.222;  -10.466; 2312.494
500.976; 1837.573;   -5.236; 2744.849
501.564; 2312.340;   -8.936; 3148.565
502.151; 2700.346;  -13.176; 3515.999
502.738; 3152.581;  -10.646; 3971.274
503.326; 3573.037;   -9.525; 4403.796
503.913; 3981.460;  -10.856; 5161.749
504.500; 4361.633;  -11.586; 5986.420
505.088; 4804.615;  -10.336; 6381.201
505.675; 5359.667;   -6.355; 6925.547
506.262; 6103.556;   -9.046; 7619.060
506.849; 6834.272;  -10.416; 8733.969
507.436; 7322.082;  -10.305; 9790.121
508.023; 7904.152;   -5.496; 9985.472
508.610; 8183.031;   -7.856;10434.618
509.197; 8843.973;  -10.097;11198.435
509.784;10235.822;  -10.886;12391.194
510.371;11373.989;   -9.315;13603.713
510.958;12109.483;   -9.936;14426.586
511.545;12847.152;   -9.326;15243.775
512.132;13632.545;  -10.075;15945.876
512.719;14073.348;   -7.796;16340.369
513.305;15031.602;  -10.606;18011.766
513.892;15721.179;  -11.486;19754.971
514.479;17017.092;   -9.126;20967.805
515.066;18675.816;   -6.026;22299.793
515.652;20133.840;   -8.466;22908.660
516.239;21285.002;  -10.886;23798.875
516.825;22088.559;  -11.496;25567.275
517.412;22940.527;   -5.796;28154.959
517.998;23546.445;  -10.506;28344.111
518.585;23748.311;  -10.076;27134.219
519.171;24267.246;   -8.315;27268.576
519.758;25610.096;   -8.596;28964.129
520.344;27515.572;   -8.466;30664.494
520.930;27589.154;  -11.006;32550.605
521.516;28516.469;  -10.495;35422.895
522.103;30498.631;   -5.526;38280.004
522.689;30820.449;   -8.746;37835.117
523.275;30516.232;  -11.376;37288.613
523.861;32170.896;  -11.156;37281.395
524.447;33709.727;   -8.135;37846.949
525.033;33469.852;   -7.896;38321.949
525.619;33451.727;  -12.476;38579.285
526.205;34926.211;   -9.516;40622.875
526.791;37357.973;   -6.926;42258.836
527.377;37580.875;   -8.346;42966.902
527.963;38797.977;   -8.717;42018.949
528.549;37496.254;  -11.016;42476.828
529.135;36238.672;   -8.536;41854.852
529.721;35291.535;   -9.666;41237.711
530.306;34444.684;  -10.066;41259.445
530.892;34099.262;  -11.356;41506.047
531.478;35578.855;   -6.596;43559.613
532.063;38503.676;   -8.836;47695.563
532.649;39379.828;  -10.047;50808.324
533.235;40088.688;   -9.746;51787.500
533.820;40159.625;   -6.566;52145.035
534.406;41615.418;  -10.817;51133.488
534.991;41413.012;   -9.416;49996.805
535.576;39800.895;   -9.036;48882.852
536.162;40436.449;   -6.156;46942.285
536.747;41242.438;  -11.607;45711.746
537.333;44289.047;  -11.787;48510.180
537.918;47408.188;  -12.437;50439.891
538.503;46528.301;   -7.196;50863.711
539.088;43008.566;  -10.556;50906.922
539.673;42626.066;   -8.767;52621.965
540.259;42830.461;  -10.026;52368.094
540.844;40732.539;   -7.416;50879.109
541.429;42259.941;   -9.467;52077.777
542.014;44632.527;   -9.527;52716.695
542.599;43762.578;   -9.946;52363.281
543.184;41591.094;   -7.927;53187.137
543.769;42989.242;   -9.297;54697.605
544.354;42662.789;  -10.127;53913.914
544.938;41405.008;   -9.267;49680.164
545.523;43314.250;   -6.506;47386.277
546.108;46296.457;   -9.787;49151.949
546.693;48176.922;  -11.587;51384.637
547.278;47955.285;  -10.986;51853.254
547.862;45501.230;   -8.206;51173.750
548.447;41431.633;  -10.067;51691.395
549.031;40667.098;   -9.637;52456.703
549.616;45225.105;   -9.926;52714.516
550.201;44851.082;   -6.347;52414.598
550.785;46003.109;   -7.917;52355.059
551.370;44981.473;  -10.867;54589.453
551.954;44248.637;   -9.047;58267.348
552.538;45169.234;   -7.827;59062.176
553.123;43718.313;  -10.287;58115.285
553.707;41221.738;  -12.178;56556.285
554.291;42560.836;   -8.717;56201.668
554.876;45297.566;   -7.457;55335.762
555.460;45569.520;  -10.387;54155.703
556.044;46300.734;   -9.618;53721.484
556.628;45035.816;  -11.567;53731.016
557.212;44203.488;   -8.097;54312.531
557.796;42807.758;  -11.077;53797.773
558.380;43009.191;  -11.108;56145.984
558.964;43360.371;   -9.057;57277.930
559.548;44769.551;   -6.977;56459.641
560.132;43065.773;  -11.457;54434.543
560.716;41380.031;  -11.378;54800.617
561.300;42219.246;   -9.577;57606.945
561.884;43453.512;   -7.127;58972.445
562.467;41859.359;   -7.118;57327.570
563.051;41480.836;  -13.358;54962.434
563.635;42816.867;  -10.178;52594.473
564.219;42816.527;   -7.837;50610.410
564.802;43668.578;  -11.398;49551.180
565.386;43517.680;  -12.788;48370.953
565.969;42807.578;   -9.077;48178.871
566.553;41697.074;   -6.207;49957.305
567.136;42497.813;   -8.568;50369.594
567.720;39366.266;  -11.868;49492.004
568.303;37213.297;   -8.268;50616.352
568.887;37133.391;   -8.698;50727.148
569.470;37545.465;   -6.808;51698.379
570.053;36336.598;  -13.188;52122.078
570.637;34659.324;  -12.037;52536.438
571.220;34720.383;   -8.577;51186.098
571.803;35621.430;   -8.498;51032.762
572.386;37552.004;  -10.498;49609.887
572.969;39931.980;   -9.388;48285.926
573.552;38263.148;   -8.338;47624.285
574.135;36673.207;   -8.518;45498.641
574.718;34357.715;  -13.628;41970.434
575.301;33416.262;  -10.893;41447.137
575.884;32474.811;   -8.158;40923.836
576.467;33126.023;  -10.328;45267.723
577.050;33745.324;  -13.058;48175.543
577.633;34460.367;   -9.458;47729.328
578.216;34341.988;   -8.928;47579.793
578.799;34661.098;   -9.358;47820.996
579.381;34461.500;  -11.388;48115.551
579.964;32796.516;  -11.718;47333.766
580.547;34519.246;   -8.588;46668.969
581.129;35590.000;   -8.859;44466.141
581.712;36452.234;  -10.729;44164.922
582.294;37029.277;  -11.118;46477.855
582.877;36848.379;   -5.218;48244.254
583.459;34671.680;   -8.679;47437.895
584.042;32721.035;  -10.709;46943.219
584.624;32857.078;  -11.669;46792.227
585.206;32351.832;   -8.218;46557.250
585.789;32149.006;  -10.569;45793.773
586.371;34922.871;  -11.859;43836.391
586.953;35505.410;  -10.719;42972.492
587.536;36424.563;   -7.198;42487.211
588.118;36546.773;   -8.720;42086.414
588.700;32297.574;  -10.439;43389.930
589.282;30121.223;   -9.198;43646.039
589.864;28901.658;   -9.199;43438.109
590.446;28650.596;  -11.319;43151.926
591.028;29968.602;  -11.159;42781.867
591.610;31587.553;  -11.779;42839.098
592.192;30710.645;   -7.668;42820.402
592.774;29923.422;  -11.949;40724.277
593.356;28816.273;  -12.129;39874.789
593.937;27721.016;  -10.669;39980.648
594.519;29771.621;   -6.509;42069.633
595.101;31939.043;  -10.849;42976.031
595.683;32182.328;  -11.679;44084.441
596.264;33245.824;   -9.049;43478.797
596.846;32965.602;   -8.849;43803.672
597.427;32980.078;   -9.570;42986.934
598.009;34590.352;  -12.620;42832.219
598.591;34980.984;  -10.039;42580.086
599.172;34299.176;  -10.369;43061.805
599.753;34522.129;   -9.140;41691.469
600.335;35969.438;  -11.430;40692.520
600.916;33933.355;   -9.939;39982.422
601.498;31342.361;   -8.479;40318.617
602.079;29852.992;  -10.920;40670.609
602.660;29521.129;  -11.480;41450.898
603.241;31294.002;  -11.699;41137.738
603.823;30093.242;   -9.579;38868.797
604.404;29029.990;  -10.620;38182.785
604.985;30709.730;  -10.450;38078.047
605.566;31002.158;   -9.129;38056.633
606.147;31184.223;   -7.510;37020.418
606.728;32606.881;  -10.660;37883.359
607.309;31249.195;  -11.740;38748.273
607.890;30841.381;   -9.759;38850.230
608.471;30249.281;   -8.250;37457.918
609.051;29415.490;   -9.240;36066.457
609.632;28262.961;  -12.120;35991.074
610.213;28828.166;   -9.110;37402.641
610.794;29638.041;   -8.030;38383.363
611.374;29219.486;   -8.110;40562.387
611.955;29889.289;  -13.560;38533.727
612.536;31273.967;  -11.400;36951.789
613.116;31070.021;   -8.070;37197.891
613.697;31486.109;  -10.830;38411.125
614.277;29755.672;  -11.641;38673.938
614.858;30584.021;  -13.310;37075.863
615.438;29830.678;   -7.460;35092.906
616.019;27439.760;   -7.601;33666.301
616.599;28112.732;  -12.020;34189.023
617.179;29963.340;  -11.780;36952.047
617.760;30963.904;   -8.570;39582.574
618.340;31953.654;  -11.471;38943.977
618.920;33189.340;  -11.170;37594.156
619.500;32773.672;  -11.071;37866.938
620.080;31627.984;   -7.750;37869.043
620.660;32748.330;  -12.711;36868.617
621.241;34121.203;  -10.211;36352.309
621.821;34545.301;  -10.961;35459.520
622.401;33625.301;   -7.720;35207.414
622.980;32939.773;   -8.981;35980.422
623.560;31494.674;   -9.331;37351.328
624.140;30030.014;   -9.850;34388.582
624.720;25073.857;   -7.451;32368.764
625.300;21664.580;   -9.070;32638.629
625.880;24972.463;  -12.601;34599.035
626.459;28783.648;  -11.751;36831.738
627.039;31742.760;   -9.281;38299.098
627.619;31719.586;   -8.801;38289.574
628.198;30322.104;  -12.071;37220.695
628.778;29477.277;   -9.461;37632.563
629.357;30023.383;   -8.491;38003.012
629.937;29889.850;   -9.721;38402.039
630.516;29424.186;   -9.951;37868.801
631.096;29305.912;  -11.731;35760.410
631.675;31417.740;   -8.572;35225.219
632.254;36440.484;  -11.282;35130.289
632.834;36024.332;  -13.322;35794.570
633.413;34334.816;  -10.301;35788.922
633.992;31912.379;   -8.582;34532.863
634.571;32540.750;   -8.352;33590.113
635.151;35599.957;  -11.912;34943.863
635.730;33944.781;  -10.511;35352.523
636.309;30243.984;   -7.731;35366.605
636.888;27584.400;   -9.952;36165.637
637.467;28041.789;  -11.672;37515.902
638.046;29630.465;   -8.901;39288.695
638.625;32731.635;   -7.912;38279.699
639.204;32568.777;  -10.022;37741.598
639.782;31224.537;  -12.252;38364.551
640.361;27818.150;  -10.041;36740.621
640.940;25170.605;  -11.161;34950.082
641.519;25893.617;   -9.701;34137.398
642.097;28459.867;  -11.271;35654.258
642.676;31232.125;   -8.651;35637.957
643.255;32196.396;   -8.711;36567.074
643.833;31454.574;   -9.581;37809.434
644.412;31258.797;  -13.711;37337.293
644.990;30108.908;  -11.811;37018.531
645.569;29718.705;   -9.411;36518.469
646.147;28881.863;  -10.291;36186.430
646.726;29115.656;  -12.401;36267.688
647.304;30485.521;  -10.411;36647.625
647.882;32064.660;   -9.651;39286.742
648.461;33610.773;   -9.631;39157.703
649.039;32065.955;  -11.881;35412.883
649.617;31486.020;   -9.661;34744.918
650.195;30937.002;   -9.301;35403.098
650.773;29611.711;  -10.511;35053.797
651.352;27000.385;  -11.521;33756.816
651.930;24543.877;  -12.211;31868.773
652.508;23210.715;   -9.171;33121.551
653.086;27111.900;   -9.371;33564.793
653.663;30070.311;  -13.161;34054.668
654.241;28657.785;  -13.031;35693.309
654.819;30211.775;   -9.371;36422.906
655.397;30392.168;  -10.511;38213.484
655.975;29836.979;  -10.371;39507.625
656.553;29769.377;  -10.051;39498.223
657.130;28314.859;  -10.061;40395.480
657.708;27334.309;   -9.561;39242.020
658.286;27401.475;  -11.511;38920.020
658.863;28850.699;  -10.261;40202.898
659.441;31994.203;   -7.531;39677.938
660.018;31696.244;   -9.501;40413.355
660.596;30518.584;  -13.301;39931.414
661.173;32314.488;  -11.211;39604.531
661.750;32326.105;   -9.951;39700.070
662.328;30643.625;   -9.390;39292.809
662.905;29895.457;  -11.330;38235.648
663.482;26231.012;   -9.050;36212.305
664.060;24439.090;   -8.240;35944.945
664.637;27087.844;  -10.050;35170.785
665.214;28736.641;  -11.760;34197.523
665.791;30496.072;  -10.530;34549.520
666.368;29600.342;   -9.690;35118.578
666.945;29996.063;   -9.320;36019.418
667.522;31513.520;  -11.860;36048.438
668.099;31124.232;  -10.770;36243.914
668.676;29860.834;   -6.260;35958.875
669.253;28755.947;   -7.000;37384.730
669.830;29425.475;  -10.190;36779.629
670.407;29178.264;   -9.550;35231.289
670.984;28818.900;   -9.260;35544.270
671.560;29551.943;   -9.280;35466.867
672.137;29072.654;  -11.810;34280.863
672.714;29896.133;  -11.490;34632.863
673.290;30648.533;   -7.740;35135.422
673.867;30729.146;  -10.660;36114.480
674.443;30781.244;  -12.230;36152.859
675.020;29095.023;  -10.450;35327.238
675.596;29955.146;   -9.260;35795.176
676.173;30339.314;  -10.780;35430.355
676.749;30063.385;  -13.690;33549.516
677.326;29983.004;  -11.980;32210.012
677.902;29929.912;   -8.630;32068.871
678.478;29314.482;  -10.730;32583.891
679.054;28487.561;  -10.520;32088.928
679.631;28803.545;  -11.920;30978.848
680.207;30444.387;   -7.490;33160.887
680.783;32057.557;   -9.860;35570.363
681.359;31181.828;  -13.380;36125.184
681.935;30656.658;  -12.480;35240.922
682.511;30067.652;   -7.900;34429.961
683.087;30205.621;   -7.710;34463.680
683.663;29535.730;  -11.480;34648.898
684.239;28297.383;  -14.090;34546.457
684.815;28036.766;   -7.560;35586.375
685.390;28332.430;   -9.910;35821.895
685.966;28905.156;  -11.159;35085.871
686.542;31249.109;  -11.169;34198.230
687.118;33591.926;   -5.959;32847.707
687.693;34020.000;  -10.329;32794.027
688.269;33636.211;  -12.059;33072.367
688.844;31803.730;  -10.909;33141.664
689.420;29755.744;   -8.019;33965.742
689.995;27638.186;   -8.399;34655.523
690.571;26213.734;  -10.949;33576.742
691.146;26577.098;   -9.619;32657.219
691.722;26217.447;   -8.999;32526.979
692.297;25624.777;  -11.589;33014.617
692.872;27243.752;  -11.739;34012.254
693.448;27045.209;  -11.059;34237.434
694.023;26140.379;  -10.139;34142.672
694.598;27991.443;   -9.029;34132.031
695.173;28576.115;  -13.319;34205.250
695.748;27793.320;  -10.169;32882.488
696.323;28150.580;   -8.339;32864.906
696.898;28421.520;   -8.169;33170.004
697.473;28266.426;  -12.309;32432.984
698.048;27604.043;  -10.989;31649.303
698.623;27263.746;   -9.329;30778.141
699.198;28963.293;   -9.849;31140.119
699.773;30118.566;  -12.329;31764.299
700.348;28527.459;  -10.389;31780.816
700.922;28627.205;   -9.269;32046.375
701.497;29733.271;   -9.329;32603.574
702.072;30049.150;  -10.789;34799.871
702.646;28562.586;  -10.839;35793.172
703.221;26305.127;   -9.099;35201.590
703.795;28408.705;  -10.939;34764.527
704.370;28887.760;  -12.859;34307.367
704.944;29200.885;  -11.559;33509.887
705.519;29904.258;   -7.939;31388.584
706.093;31302.246;  -10.499;31340.104
706.668;31988.361;  -11.289;32630.281
707.242;30817.035;  -11.509;32728.779
707.816;29191.717;   -9.639;32947.238
708.390;27785.492;  -11.429;33277.855
708.965;28112.811;  -11.869;33834.336
709.539;27726.711;  -11.689;33709.273
710.113;28133.631;  -10.478;33044.313
710.687;27882.748;  -10.228;31953.992
711.261;26511.730;  -13.698;30505.949
711.835;26301.947;  -13.378;30262.369
712.409;26794.184;   -9.698;31254.447
712.983;28722.744;  -11.898;32754.986
713.557;29822.814;  -15.138;34018.824
714.131;29442.027;  -14.098;34579.625
714.704;28291.025;   -9.958;33890.262
715.278;25991.529;  -10.028;33531.102
715.852;24832.834;  -11.148;33601.660
716.425;25660.160;   -9.068;33515.117
716.999;26602.789;  -10.038;33185.555
717.573;27612.305;   -9.798;33905.996
718.146;28691.617;  -12.378;35199.293
718.720;28924.865;  -11.918;35060.551
719.293;28435.432;   -8.088;34973.230
719.867;31314.377;  -10.888;36394.449
720.440;31265.068;  -11.938;36663.008
721.013;29710.553;  -12.818;35102.426
721.587;28024.314;  -10.298;33985.266
722.160;26858.930;  -10.048;33524.965
722.733;25788.354;  -12.108;32987.043
723.306;25922.658;  -10.818;33066.301
723.880;28472.971;   -8.908;33399.500
724.453;30971.912;   -9.878;33468.297
725.026;30161.348;  -11.188;33816.637
725.599;27138.832;  -11.678;32797.996
726.172;27077.479;   -9.618;33187.434
726.745;28013.789;   -8.258;35136.613
727.318;29278.945;  -12.978;35751.730
727.891;30104.824;  -12.148;35890.430
728.463;30019.543;   -8.968;34822.090
729.036;28903.461;  -10.188;32895.086
729.609;29313.227;  -11.788;31823.225
730.182;26315.182;  -11.788;31445.283
730.754;23796.084;  -10.268;32373.223
731.327;23832.502;   -9.998;33676.820
731.900;23973.334;  -12.228;33417.000
732.472;25132.980;  -13.848;31978.498
733.045;27195.271;   -8.698;30368.777
733.617;27284.754;  -10.607;30574.215
734.190;27084.896;  -11.507;31280.975
734.762;24554.256;  -13.647;31674.412
735.334;22616.563;   -9.767;31247.291
735.907;22995.760;   -9.897;29876.211
736.479;23310.418;  -11.637;29808.488
737.051;23163.711;   -9.567;30233.547
737.623;24061.602;   -8.187;31469.086
738.195;24552.459;  -11.187;31784.225
738.768;26333.602;  -12.337;32120.523
739.340;26963.244;  -12.227;32094.342
739.912;26018.961;  -11.057;31312.680
740.484;24478.396;  -10.207;31946.238
741.056;23116.834;  -10.047;32984.059
741.628;24800.898;  -13.627;33897.715
742.199;26965.002;   -7.177;33213.016
742.771;25279.398;  -10.797;31369.113
743.343;23045.971;  -11.997;31865.473
743.915;22038.000;  -12.867;32388.631
744.487;22083.877;   -7.617;31079.568
745.058;22372.502;   -9.557;30570.107
745.630;22863.334;   -9.877;29970.127
746.201;23898.307;  -14.177;29186.766
746.773;24672.104;   -9.237;28805.723
747.344;24482.732;   -9.847;29591.223
747.916;22723.750;  -11.657;31412.201
748.487;22777.893;  -10.587;32194.898
749.059;23917.688;   -8.707;32533.719
749.630;24494.117;  -10.537;32158.518
750.201;23352.482;  -11.687;30855.395
750.773;21607.643;  -11.647;28622.555
751.344;21562.504;   -7.147;28405.732
751.915;22876.893;   -9.757;28461.551
752.486;23133.535;  -12.427;27842.850
753.057;20794.885;  -12.227;27845.008
753.628;19404.156;  -10.417;27728.107
754.199;20400.762;  -11.767;27381.086
754.770;21484.828;  -11.187;25882.203
755.341;21648.111;  -10.507;25886.184
755.912;21831.510;   -9.387;26050.861
756.483;21421.650;  -10.647;26798.779
757.054;19696.502;  -11.837;27048.238
757.625;18350.781;  -12.716;26294.838
758.195;17902.920;   -9.666;26142.076
758.766;17506.787;   -8.656;26392.234
759.337;18260.174;  -12.856;26334.594
759.907;19844.141;  -13.366;27579.652
760.478;20812.246;   -8.576;28352.770
761.048;20368.920;  -10.526;27325.088
761.619;19507.281;  -11.116;26460.428
762.189;19454.576;  -12.136;26029.826
762.760;20334.348;   -9.456;26430.145
763.330;21539.732;   -7.136;26670.902
763.900;21127.848;  -11.786;26603.021
764.471;18665.777;  -11.546;25542.740
765.041;17426.455;   -8.096;24358.459
765.611;17437.488;   -8.876;23991.297
766.181;17731.234;  -12.196;24470.236
766.751;18629.795;  -11.636;24845.975
767.321;18448.705;  -10.156;24533.633
767.891;16658.676;  -11.766;24916.492
768.461;16125.604;  -14.936;24776.771
769.031;16638.877;  -12.356;24757.988
769.601;18268.936;   -7.526;24181.088
770.171;18094.574;  -10.766;23670.387
770.741;17106.471;  -13.176;22960.045
771.311;17074.012;  -10.616;22917.523
771.880;17513.652;   -9.576;23562.941
772.450;17233.768;  -10.336;24216.500
773.020;17109.934;  -13.516;24140.398
773.589;16374.016;  -13.466;24414.857
774.159;15719.802;   -8.686;23858.717
774.729;15381.564;   -9.476;22942.135
775.298;14988.843;  -13.666;22324.033
775.867;14611.807;  -11.716;21140.313
776.437;14780.041;   -9.906;20838.092
777.006;14674.931;  -12.166;20599.510
777.576;14476.537;  -12.356;20508.809
778.145;14464.313;  -11.646;20732.947
778.714;14342.024;   -8.226;21062.465
779.283;13644.982;   -9.556;20949.664
779.853;13070.847;  -14.116;20508.623
780.422;13488.883;  -11.506;20649.082
780.991;13065.262;   -9.556;21527.520
781.560;11885.371;   -9.095;22632.658
782.129;11731.447;  -12.135;23048.277
782.698;11827.351;  -10.865;23438.555
783.267;11447.527;   -9.335;23267.734
783.836;11361.225;  -11.045;22415.133
784.404;12338.961;  -13.865;20443.152
784.973;12965.393;  -13.095;19699.150
785.542;12844.825;  -11.575;19763.828
786.111;12581.123;   -9.705;20341.408
786.679;12119.358;  -12.105;20207.967
787.248;11918.466;  -12.455;19516.465
787.817;11782.570;  -11.535;18900.363
788.385;11401.852;   -9.765;17879.121
788.954;10843.744;  -14.005;17658.301
789.522;10305.532;  -11.955;17788.879
790.090;10843.710;  -10.135;18118.277
790.659;11285.585;  -10.975;18338.736
791.227;10793.621;  -13.375;18508.615
791.795;11139.814;  -12.375;17898.254
792.364;11532.841;  -10.725;17295.133
792.932;11938.192;   -9.715;16822.051
793.500;12086.867;  -12.675;17040.148
794.068;12205.671;  -13.495;17179.787
794.636;12324.936;  -10.885;16664.246
795.204;11686.422;  -11.045;16524.545
795.772;11730.645;  -13.175;17274.564
796.340;11308.323;  -12.445;17891.002
796.908;11078.949;   -9.735;17648.561
797.476;10920.183;   -9.815;17064.080
798.044;10486.217;  -13.985;16672.777
798.612; 9706.312;  -13.115;17023.996
799.180; 9345.155;  -10.185;16561.615
799.747; 9295.892;   -9.055;15962.773
800.315; 9048.643;  -12.385;15296.992
800.883; 8734.502;  -15.035;14801.771
801.450; 8760.503;  -10.365;14534.430
802.018; 8818.614;   -9.855;14173.248
802.585; 8944.867;  -11.905;14029.547
803.153; 8952.092;  -11.585;13836.846
803.720; 8737.287;   -9.095;13567.324
804.287; 8302.713;   -9.135;13360.622
804.855; 7896.648;  -11.604;13681.981
805.422; 7745.059;  -11.794;13536.560
805.989; 7747.606;  -10.734;13355.958
806.556; 7846.493;  -10.444;13747.896
807.124; 8029.887;  -12.764;13987.376
807.691; 8006.465;  -12.964;14038.674
808.258; 7846.939;  -11.134;14120.152
808.825; 7600.364;   -9.854;13860.111
809.392; 7667.364;  -10.504;13268.790
809.959; 7151.407;  -13.054;12680.389
810.526; 6688.357;   -8.294;12427.308
811.093; 6751.601;   -8.394;12030.105
811.659; 7440.049;  -12.304;11653.664
812.226; 7981.371;  -13.944;11637.183
812.793; 7723.146;  -10.484;11611.521
813.360; 7111.292;  -10.144;11885.181
813.926; 6785.446;  -11.684;12770.539
814.493; 6521.710;  -13.644;12677.638
815.060; 6098.602;   -9.724;11974.336
815.626; 6065.882;   -9.854;11594.715
816.193; 6455.575;  -13.254;11579.474
816.759; 6516.663;  -13.204;11666.972
817.325; 6597.404;   -9.434;11325.530
817.892; 6956.734;  -10.134;11105.369
818.458; 7365.962;  -13.474;10843.928
819.024; 7030.051;  -11.854;10714.406
819.591; 6734.283;  -10.244;10469.165
820.157; 6516.052;  -10.704;10235.523
820.723; 6016.790;  -12.324;10847.563
821.289; 5710.985;   -9.444;11040.980
821.855; 5660.307;   -8.374;10357.100
822.421; 5713.185;  -10.234; 9978.918
822.987; 5772.099;  -13.294; 9754.177
823.553; 5457.038;  -10.884;10065.755
824.119; 5254.761;   -8.884;10036.294
824.685; 5362.648;   -6.784;10029.192
825.251; 5484.876;  -12.004;10199.230
825.816; 5441.958;  -11.474; 9820.189
826.382; 5185.333;   -9.174; 9297.248
826.948; 5349.603;   -9.214; 9381.347
827.513; 5776.929;  -10.774; 9450.726
828.079; 5672.106;  -11.924; 9472.444
828.645; 5094.920;  -10.543; 9292.643
829.210; 4959.907;  -10.533; 9065.341
829.776; 4959.083;  -10.753; 9132.620
830.341; 4880.045;  -10.173; 9092.878
830.906; 5098.512;  -10.743; 9078.557
831.472; 5487.336;  -11.113; 8534.535
832.037; 5281.359;  -10.603; 8677.874
832.602; 4751.375;  -13.323; 8628.692
833.167; 4482.549;  -10.823; 8879.031
833.733; 4419.476;  -10.113; 9189.790
834.298; 4598.854;  -13.583; 9052.608
834.863; 4737.008;  -12.703; 8895.087
835.428; 4736.457;  -10.523; 8824.266
835.993; 4577.437;   -6.963; 8845.385
836.558; 4385.947;  -10.763; 8888.563
837.123; 4503.570;   -9.903; 8966.582
837.688; 4768.674;   -9.913; 8617.860
838.253; 5057.710;  -10.283; 8590.699
838.817; 5285.171;  -12.963; 8443.797
839.382; 5207.682;  -14.243; 8799.356
839.947; 4890.296;  -10.733; 8810.595
840.511; 4588.414;   -9.383; 8796.394
841.076; 4196.803;  -12.563; 8347.231
841.641; 4249.595;  -12.953; 8224.330
842.205; 4350.954;   -7.043; 8223.349
842.770; 4435.165;   -8.163; 8622.107
843.334; 4569.261;  -12.503; 8410.386
843.898; 4472.191;  -11.693; 8337.465
844.463; 4475.235;  -10.203; 8506.283
845.027; 4259.615;   -9.533; 8280.962
845.591; 4095.746;  -13.443; 8231.141
846.156; 4122.977;  -13.143; 7969.179
846.720; 4025.130;   -9.433; 7768.278
847.284; 3918.057;  -11.033; 7630.957
847.848; 3791.574;  -10.403; 7472.395
848.412; 3688.707;  -11.553; 7437.394
848.976; 3728.605;   -8.393; 7674.592
849.540; 3632.270;   -8.713; 7836.011
850.104; 3741.289;  -12.463; 7913.669
850.668; 4126.958;  -12.973; 7694.508
851.232; 4239.302;  -10.793; 7756.887
851.796; 4062.559;  -10.662; 7926.545
852.359; 3742.505;  -13.082; 7827.844
852.923; 3539.429;  -12.192; 7641.163
853.487; 3325.172;  -11.912; 7342.501
854.050; 3276.535;  -10.892; 7042.820
854.614; 3436.879;  -13.992; 7151.338
855.177; 3575.960;  -11.732; 7105.077
855.741; 3595.855;   -8.962; 6989.675
856.304; 3445.185;   -9.442; 6596.634
856.868; 3382.597;  -14.192; 6356.272
857.431; 3458.707;  -12.702; 6468.571
857.995; 3561.661;   -9.942; 6373.210
858.558; 3560.173;   -9.112; 6324.448
859.121; 3265.499;  -12.932; 6408.327
859.684; 3118.455;  -13.442; 6347.886
860.247; 3221.859;  -10.632; 6321.264
860.810; 3228.310;  -11.272; 6301.903
861.374; 2959.709;   -9.832; 6607.881
861.937; 2685.888;  -11.762; 6408.200
862.500; 2667.917;   -9.722; 6572.639
863.062; 2840.902;  -10.512; 6387.297
863.625; 3006.967;  -11.232; 6190.836
864.188; 3150.621;  -14.112; 5807.254
864.751; 3203.429;  -11.302; 5682.413
865.314; 3091.033;  -10.112; 5547.492
865.876; 2862.585;  -12.182; 5500.150
866.439; 2831.879;  -10.722; 5415.909
867.002; 2780.012;   -9.252; 5501.567
867.564; 2590.293;   -9.572; 5413.946
868.127; 2375.071;  -13.142; 5160.325
868.689; 2275.546;  -12.902; 5133.183
869.252; 2183.273;   -9.732; 5252.382
869.814; 2089.062;   -9.432; 5297.141
870.377; 2091.649;  -11.552; 5390.919
870.939; 2144.060;   -9.052; 5599.898
871.501; 2200.735;  -10.982; 5248.336
872.063; 2202.138;  -12.292; 4854.235
872.626; 2158.302;  -14.912; 4817.074
873.188; 2180.332;  -13.112; 4987.732
873.750; 2153.111;  -13.442; 4868.651
874.312; 2049.316;   -9.402; 4779.330
874.874; 1964.777;  -11.062; 4866.348
875.436; 1881.380;  -13.931; 4718.887
875.998; 1876.169;   -9.561; 4660.005
876.560; 1907.517;  -11.321; 4462.964
877.122; 1850.038;  -12.221; 4145.042
877.683; 1757.299;  -12.191; 4056.481
878.245; 1692.070;  -12.101; 3950.740
878.807; 1737.098;   -8.971; 4058.958
879.369; 1759.906;  -12.071; 3954.677
879.930; 1659.140;  -14.621; 3941.495
880.492; 1594.527;  -10.311; 4067.014
881.053; 1567.600;  -10.901; 3859.633
881.615; 1477.680;  -14.411; 3776.071
882.176; 1377.129;  -13.761; 3734.750
882.738; 1324.862;   -9.181; 3678.489
883.299; 1300.142;  -11.791; 3405.407
883.860; 1299.697;  -13.121; 3351.106
884.422; 1299.308;  -11.211; 3394.044
884.983; 1258.036;  -10.091; 3166.443
885.544; 1186.522;   -8.461; 3189.802
886.105; 1107.320;  -12.361; 3160.360
886.666; 1039.137;  -14.141; 3093.059
887.227;  982.487;  -11.361; 2941.957
887.788;  921.143;  -11.401; 2974.836
888.349;  860.514;  -13.791; 2721.214
888.910;  858.488;  -13.191; 2696.493
889.471;  866.259;   -9.881; 2560.172
890.032;  848.279;   -9.881; 2558.190
890.593;  827.430;  -10.371; 2567.669
891.153;  800.962;  -13.301; 2460.307
891.714;  751.363;  -11.431; 2372.046
892.275;  717.149;  -11.291; 2309.505
892.835;  681.691;  -11.471; 2382.543
893.396;  631.917;  -11.541; 2295.502
893.956;  577.118;  -11.181; 2162.420
894.517;  537.746;  -11.741; 2125.439
895.077;  530.674;  -11.671; 2086.978
895.638;  531.745;  -11.311; 2126.316
896.198;  502.639;   -9.831; 1838.275
896.758;  457.314;   -8.421; 1892.813
897.319;  425.889;  -12.351; 1792.232
897.879;  410.683;  -13.511; 1762.751
898.439;  383.953;  -12.001; 1661.149
898.999;  359.286;  -10.180; 1781.468
899.559;  350.812;  -12.030; 1703.347
900.119;  346.491;  -15.710; 1537.525
900.679;  341.983;   -8.900; 1638.384
901.239;  326.826;   -8.340; 1527.902
901.799;  315.862;  -13.910; 1456.441
902.359;  308.902;  -13.460; 1357.140
902.919;  303.033;  -11.490; 1331.118
903.479;  289.245;  -12.110; 1317.257
904.038;  266.810;  -11.720; 1262.595
904.598;  251.315;  -13.610; 1152.034
905.158;  246.876;  -11.040; 1240.893
905.717;  240.692;  -10.900; 1233.691
906.277;  229.014;  -15.080; 1217.330
906.836;  219.297;  -13.380; 1222.408
907.396;  210.745;  -10.780; 1193.047
907.955;  202.398;   -8.500; 1182.526
908.515;  196.814;  -12.760; 1099.364
909.074;  189.561;  -11.900; 1092.863
909.633;  183.728;   -8.950; 1069.121
910.192;  179.925;   -8.770; 1196.460
910.752;  174.304;  -12.390; 1029.960
911.311;  170.192;  -13.680; 1009.780
911.870;  167.089;  -12.370;  971.460
912.429;  167.362;  -10.900; 1094.080
912.988;  166.917;  -11.690; 1081.060
913.547;  162.913;  -13.240;  940.380
914.106;  156.986;  -11.990;  999.420
914.665;  153.202;   -9.990;  984.020
915.224;  153.316;  -12.880; 1035.760
915.782;  153.146;  -12.350;  922.560
916.341;  152.286;   -9.110; 1049.840
916.900;  148.222;   -9.270;  925.260
917.458;  146.949;  -13.240;  884.220
918.017;  146.571;  -13.550;  942.600
918.576;  145.466;  -12.320;  904.440
919.134;  144.304;  -11.490;  837.980
919.693;  142.198;  -13.670;  893.060
920.251;  140.267;  -15.470;  876.500
920.809;  138.245;  -11.290;  839.580
921.368;  139.092;  -10.210;  885.360
921.926;  137.496;  -12.140;  842.940
922.484;  136.152;  -13.080;  903.360
923.042;  135.957;  -11.720;  880.340
923.601;  138.811;   -7.480;  998.680
924.159;  137.720;  -11.570;  935.560
924.717;  133.352;  -13.840;  841.080
925.275;  134.323;  -10.640;  903.240
925.833;  133.634;  -11.540;  779.320
926.391;  134.994;  -12.960;  938.380
926.949;  132.471;  -14.130;  857.680
927.506;  133.509;  -11.750;  903.500
928.064;  133.778;  -10.250;  877.580
928.622;  132.374;  -13.030;  880.100
929.180;  133.094;  -13.400;  814.180
929.737;  133.675;  -10.700;  808.540
930.295;  137.019;  -10.070;  928.480
930.853;  138.758;  -11.960;  849.100
931.410;  139.921;  -13.120;  821.120
931.968;  138.527;  -10.770;  940.660
932.525;  138.025;  -10.680;  909.380
933.082;  139.701;  -13.130;  811.440
933.640;  139.948;  -13.210;  925.900
934.197;  138.245;  -11.060;  886.360
934.754;  139.037;   -9.580;  897.780
935.312;  141.965;  -14.000;  863.340
935.869;  146.335;  -10.710; 1012.980
936.426;  146.710;   -9.860;  872.800
936.983;  147.549;   -9.710;  889.020
937.540;  147.230;  -13.990;  838.280
938.097;  146.528;  -14.040;  940.120
938.654;  146.992;  -10.310;  898.860
939.211;  149.000;  -10.560;  952.480
939.768;  152.763;  -13.900;  915.420
940.324;  156.760;  -14.760;  904.200
940.881;  158.189;  -10.370;  878.500
941.438;  157.751;   -8.260; 1021.200
941.995;  154.217;  -12.540;  992.560
942.551;  152.145;  -14.670;  875.620
943.108;  152.476;  -10.450;  937.920
943.664;  154.802;  -10.750;  869.340
944.221;  157.986;  -11.550; 1088.140
944.777;  154.811;  -14.770;  869.680
945.334;  155.104;  -12.820;  884.840
945.890;  157.113;  -10.130;  946.480
946.446;  158.690;  -13.470;  947.020
947.003;  160.514;  -12.120;  964.940
947.559;  163.845;   -9.980; 1063.040
948.115;  162.000;   -9.080; 1026.540
948.671;  159.971;  -10.830;  967.300
949.227;  157.444;  -12.440;  859.560
949.783;  154.701;  -12.910;  858.900
950.339;  156.440;  -10.270;  991.000
950.895;  157.243;  -13.630; 1023.840
951.451;  155.998;  -15.100;  925.280
952.007;  155.863;  -11.330;  998.540
952.563;  157.306;  -10.580;  937.780
953.118;  155.219;  -13.440;  904.940
953.674;  156.198;  -12.710;  935.780
954.230;  155.349;  -10.350;  949.640
954.785;  153.070;   -9.190;  936.640
955.341;  150.211;  -11.200;  998.160
955.897;  149.597;  -16.560;  834.660
956.452;  151.053;  -12.570;  953.840
957.008;  149.609;   -7.970; 1083.640
957.563;  147.390;  -11.940; 1009.540
958.118;  141.361;  -13.450;  877.700
958.674;  142.205;  -12.030;  946.780
959.229;  143.668;   -9.410; 1013.980
959.784;  141.762;  -12.000;  832.400
960.339;  141.440;  -14.780; 1001.280
960.894;  138.757;   -9.860;  963.760
961.449;  133.881;   -9.970;  859.960
962.004;  134.585;  -10.900; 1212.840
962.559;  129.307;  -13.150;  860.140
963.114;  126.619;  -13.740;  742.480
963.669;  126.255;   -9.820;  915.500
964.224;  124.885;  -13.890;  874.340
964.779;  125.079;  -12.600;  828.420
965.334;  125.067;  -10.950; 1017.860
965.888;  125.107;  -11.170;  875.360
966.443;  128.939;  -12.540;  972.380
966.998;  127.531;  -15.780;  819.460
967.552;  126.421;   -9.760;  908.380
968.107;  122.330;   -9.060;  868.300
968.661;  124.627;  -11.950;  922.440
969.216;  126.688;  -12.800;  856.280
969.770;  128.775;  -11.210;  917.200
970.324;  128.104;  -11.610;  923.140
970.879;  122.962;  -11.370;  947.180
971.433;  112.270;  -12.540;  952.720
971.987;  100.819;  -11.320;  895.340
972.541;   91.053;  -10.720;  917.100
973.095;   85.241;   -9.680; 1009.460
973.649;   82.211;  -11.440;  809.480
974.203;   83.359;  -11.210;  829.040
974.757;   84.950;  -10.240;  855.220
975.311;   87.960;  -13.720;  872.600
975.865;   89.270;  -13.770;  881.820
976.419;   88.338;  -11.690;  857.400
976.973;   89.980;   -9.510;  849.620
977.526;   91.784;  -12.620;  949.920
978.080;   92.580;  -12.010;  796.780
978.634;   94.278;  -10.170;  921.320
979.187;   92.508;   -9.020;  905.400
979.741;   90.062;   -9.820; 1018.380
980.294;   86.293;  -14.870;  789.160
980.848;   84.600;  -12.380;  717.220
981.401;   86.037;  -10.350;  816.540
981.955;   89.205;  -13.720;  844.300
982.508;   88.027;  -11.490;  746.340
983.061;   88.520;  -10.000;  915.260
983.615;   85.109;  -11.480;  798.800
984.168;   82.271;  -13.220;  770.080
984.721;   81.623;  -13.960;  880.760
985.274;   80.929;  -10.870;  867.500
985.827;   81.074;   -9.790;  834.220
986.380;   78.218;  -13.120;  721.340
986.933;   77.147;  -12.450;  864.800
987.486;   76.809;  -10.210;  861.920
988.039;   75.433;   -8.430;  863.100
988.591;   73.554;  -10.520;  893.260
989.144;   71.118;  -14.860;  737.260
989.697;   70.824;  -13.080;  758.740
990.250;   70.980;  -10.150;  858.100
990.802;   70.450;  -13.430;  755.860
991.355;   71.508;  -12.750;  974.880
991.907;   69.109;  -12.040;  864.320
992.460;   66.711;  -11.330;  753.760
993.012;   66.710;  -13.610;  749.540
993.565;   65.219;  -13.460;  711.360
994.117;   67.110;   -9.360;  950.780
994.669;   63.147;  -11.300;  701.320
995.221;   62.345;  -13.540;  791.920
995.774;   60.798;  -13.430;  787.580
996.326;   58.700;  -12.520;  740.220
996.878;   58.221;  -10.950;  838.420
997.430;   56.428;  -14.300;  699.860
997.982;   55.677;  -13.760;  750.140
998.534;   55.493;  -11.530;  739.060
999.086;   53.604;  -10.310;  738.220
999.638;   50.803;  -12.530;  661.380
1000.190;   49.875;  -11.840;  699.320
1000.741;   48.547;  -10.260;  742.700
1001.293;   47.657;   -8.860;  686.020
1001.845;   46.703;  -13.700;  676.640
1002.396;   48.448;  -12.100;  743.400
1002.948;   48.206;  -12.760;  737.400
1003.500;   45.694;  -10.380;  723.780
1004.051;   47.710;  -11.900;  907.580
1004.603;   45.319;  -12.250;  791.820
1005.154;   42.598;  -13.210;  608.980
1005.705;   41.053;  -10.950;  723.960
1006.257;   41.001;  -13.880;  707.220
1006.808;   40.879;  -12.840;  685.460
1007.359;   40.340;  -10.570;  763.240
1007.910;   39.108;   -9.620;  646.640
1008.461;   39.129;  -13.630;  732.940
1009.013;   38.004;  -17.200;  588.340
1009.564;   39.350;  -10.200;  793.520
1010.115;   36.733;  -12.570;  597.040
1010.665;   36.266;  -15.150;  602.160
1011.216;   36.574;  -14.480;  667.920
1011.767;   36.126;  -11.340;  697.920
1012.318;   36.278;   -9.780;  736.980
1012.869;   34.905;  -12.380;  679.000
1013.419;   35.132;  -15.560;  603.120
1013.970;   35.536;  -11.010;  666.640
1014.521;   34.421;  -11.610;  620.620
1015.071;   34.245;  -13.450;  670.380
1015.622;   34.295;  -13.870;  635.460
1016.172;   32.984;  -11.610;  596.820
1016.723;   34.013;  -12.120;  614.380
1017.273;   33.128;  -13.620;  604.160
1017.823;   33.533;  -14.140;  650.340
1018.374;   32.530;  -12.800;  611.760
1018.924;   32.733;  -12.340;  716.880
1019.474;   33.287;  -11.410;  718.880
1020.024;   31.237;  -14.770;  657.580
1020.574;   32.576;   -9.780;  726.160
1021.124;   32.058;   -8.560;  673.580
1021.674;   30.852;  -15.190;  559.120
1022.224;   32.716;  -13.530;  708.940
1022.774;   31.724;  -13.280;  668.820
1023.324;   31.942;  -10.690;  753.520
1023.874;   33.011;  -10.240;  875.760
1024.423;   30.930;  -12.540;  613.700
1024.973;   29.747;  -10.010;  610.760
1025.523;   29.284;  -10.550;  620.960
1026.072;   28.830;  -13.560;  606.420
1026.622;   29.350;  -15.120;  675.740
1027.172;   30.343;  -11.260;  715.660
1027.721;   28.959;  -11.410;  601.220
1028.270;   29.335;  -13.530;  663.400
1028.820;   29.764;  -13.680;  638.080
1029.369;   28.309;  -13.520;  612.700
1029.918;   28.653;  -10.980;  649.840
1030.468;   27.851;  -13.530;  564.780
1031.017;   28.253;  -13.170;  634.800
1031.566;   27.458;  -12.200;  608.900
1032.115;   27.335;   -9.960;  694.500
1032.664;   26.721;  -13.210;  596.480
1033.213;   27.167;  -12.500;  735.420
1033.762;   27.215;  -11.910;  635.620
1034.311;   26.818;   -9.640;  677.220
1034.860;   26.564;  -13.310;  691.000
1035.408;   27.200;  -11.830;  722.720
1035.957;   27.053;  -12.000;  719.540
1036.506;   25.448;  -11.690;  530.800
1037.055;   27.177;  -10.990;  844.320
1037.603;   26.163;  -15.120;  664.000
1038.152;   24.820;  -12.450;  534.760
1038.700;   24.999;  -10.560;  585.740
1039.249;   24.655;  -11.080;  681.220
1039.797;   25.547;  -12.540;  633.360
1040.345;   25.417;  -11.920;  705.420
1040.894;   24.467;  -11.410;  625.300
1041.442;   24.144;  -14.320;  632.200
1041.990;   23.948;  -16.240;  559.160
1042.538;   23.749;  -11.680;  536.180
1043.087;   23.210;  -10.760;  570.860
1043.635;   24.827;  -11.850;  670.500
1044.183;   23.834;  -15.480;  586.400
1044.731;   22.702;  -11.770;  576.000
1045.279;   23.031;  -13.090;  674.920
1045.827;   24.836;  -12.440;  892.400
1046.374;   21.989;  -13.840;  515.420
1046.922;   21.399;  -13.220;  590.580
1047.470;   23.945;  -10.230;  691.300
1048.018;   22.681;  -14.590;  647.960
1048.565;   23.682;  -12.050;  708.600
1049.113;   21.979;  -11.650;  557.000
1049.660;   21.194;  -10.510;  629.660
1050.208;   22.274;  -13.310;  675.640
1050.755;   21.574;  -15.900;  606.580
1051.303;   22.002;  -11.430;  686.820
1051.850;   21.501;   -8.480;  635.120
1052.397;   19.490;  -15.010;  473.960
1052.945;   19.922;  -13.960;  617.760
1053.492;   21.711;  -13.150;  741.840
1054.039;   21.511;   -9.630;  720.180
1054.586;   19.408;  -13.680;  557.240
1055.133;   21.240;  -14.570;  693.140
1055.680;   20.943;  -13.820;  646.620
1056.227;   19.271;  -11.730;  542.780
1056.774;   21.408;  -12.480;  794.980
1057.321;   19.346;  -13.930;  523.260
1057.868;   19.602;  -11.690;  651.320
1058.415;   19.073;   -9.520;  651.980
1058.961;   19.826;  -13.160;  678.940
1059.508;   19.463;  -12.920;  643.820
1060.055;   19.798;  -11.920;  581.780
1060.601;   18.965;  -11.500;  624.300
1061.148;   19.250;  -14.330;  616.820
1061.694;   18.123;  -16.870;  592.580
1062.241;   18.814;  -10.330;  596.320
1062.787;   18.637;  -10.620;  663.140
1063.334;   20.606;  -10.110;  808.560
1063.880;   18.905;  -13.400;  668.360
1064.426;   18.314;  -10.680;  706.820
1064.972;   17.766;   -9.920;  601.340
1065.518;   16.602;  -10.980;  566.640
1066.065;   18.179;  -14.890;  624.460
1066.611;   16.632;  -12.870;  598.800
1067.157;   17.921;  -12.950;  641.860
1067.703;   17.748;  -13.540;  668.480
1068.249;   17.245;  -13.540;  605.220
1068.794;   17.448;  -12.600;  626.880
1069.340;   16.231;  -10.620;  578.960
1069.886;   16.903;  -12.830;  590.700
1070.432;   15.981;  -14.870;  541.720
1070.977;   16.174;  -11.980;  601.080
1071.523;   15.945;   -8.200;  573.060
1072.068;   15.989;  -12.330;  582.000
1072.614;   15.917;  -16.370;  527.760
1073.160;   16.737;  -11.100;  687.040
1073.705;   15.855;  -10.480;  572.520
1074.250;   16.149;  -14.520;  559.900
1074.796;   16.405;  -11.460;  655.160
1075.341;   16.359;  -11.950;  664.100
1075.886;   15.461;  -11.460;  594.240
1076.431;   15.703;  -13.770;  649.880
1076.976;   14.780;  -12.680;  639.220
1077.521;   13.639;  -13.170;  583.080
1078.067;   14.565;  -10.860;  579.400
1078.612;   15.004;  -13.920;  661.620
1079.156;   14.213;  -13.880;  601.540
1079.701;   15.277;  -13.120;  693.260
1080.246;   15.243;   -9.940;  696.300
1080.791;   14.269;  -14.740;  625.020
1081.336;   14.775;  -13.750;  659.320
1081.880;   14.582;  -13.400;  649.680
1082.425;   13.577;  -12.220;  573.480
1082.970;   14.553;  -11.610;  717.040
1083.514;   13.782;  -13.580;  597.000
1084.059;   13.128;  -12.810;  586.720
1084.603;   12.881;  -12.320;  565.840
1085.147;   13.392;  -13.190;  645.220
1085.692;   14.228;  -12.480;  716.800
1086.236;   12.198;  -13.020;  503.140
1086.780;   14.286;   -9.190;  751.440
1087.325;   13.392;  -12.480;  654.620
1087.869;   13.086;  -12.450;  610.700
1088.413;   13.740;  -12.240;  705.040
1088.957;   11.257;   -9.020;  543.400
1089.501;   13.444;  -10.320;  766.640
1090.045;   12.088;  -12.720;  726.480
1090.589;   10.606;  -13.690;  569.920
1091.133;   11.986;  -10.020;  673.340
1091.676;   11.938;  -12.330;  591.940
1092.220;   12.071;  -14.970;  600.920
1092.764;   12.506;  -12.430;  706.960
1093.307;   11.900;   -9.800;  673.780
1093.851;    9.981;  -14.970;  556.540
1094.395;   12.036;  -15.310;  683.140
1094.938;   11.066;  -10.370;  632.520
1095.482;   10.764;  -11.050;  559.800
1096.025;   11.545;  -11.840;  710.880
1096.568;   11.540;  -12.840;  779.280
1097.112;    8.886;  -14.700;  508.180
1097.655;   10.838;   -8.720;  603.000
1098.198;    9.175;  -13.610;  600.180
1098.741;    9.834;  -13.350;  612.860
1099.285;   10.700;  -11.230;  657.300
1099.828;    8.106;  -11.840;  439.400
1100.371;    9.762;  -10.840;  608.160
1100.914;   10.321;  -14.190;  682.660
1101.457;    9.810;  -11.240;  679.900
1101.999;    8.848;  -11.270;  584.680
1102.542;   10.211;  -11.480;  641.440
1103.085;    9.400;  -11.750;  658.500
1103.628;    9.922;  -11.400;  762.060
1104.170;    9.649;  -10.490;  588.280
1104.713;    8.702;  -10.600;  646.700
1105.256;    8.660;  -14.360;  557.440
1105.798;    7.738;  -13.210;  499.980
1106.341;   10.242;  -10.270;  728.900
1106.883;    8.296;  -12.200;  521.340
1107.425;    8.035;  -13.110;  668.180
1107.968;    7.449;  -12.840;  612.380
1108.510;    9.242;   -6.480;  684.960
1109.052;    7.334;  -13.940;  612.620
1109.594;    7.677;  -13.690;  554.440
1110.136;    8.401;  -11.880;  643.220
1110.679;    8.236;   -9.500;  633.080
1111.221;    8.512;  -14.160;  604.460
1111.763;    7.767;  -13.980;  559.220
1112.304;    6.726;  -13.880;  547.140
1112.846;    7.873;  -12.210;  666.240
1113.388;   10.364;  -11.390;  942.180
1113.930;    7.058;  -14.540;  694.200
1114.472;    7.192;  -12.640;  606.540
1115.013;    5.780;  -11.620;  551.280
1115.555;    6.534;  -13.640;  587.100
1116.097;    6.032;  -15.380;  579.480
1116.638;    7.354;  -12.640;  684.600
1117.180;    6.720;   -9.850;  667.740
1117.721;    6.709;  -13.690;  568.580
1118.262;    7.026;  -12.680;  677.960
1118.804;    7.262;  -12.530;  637.340
1119.345;    6.427;  -11.690;  578.400
1119.886;    7.351;  -13.380;  704.040
1120.427;    5.348;  -14.070;  589.020
1120.969;    5.771;  -13.500;  597.920
1121.510;    5.718;  -11.480;  563.060
1122.051;    6.119;  -12.830;  723.580
1122.592;    5.240;  -14.290;  655.420
1123.133;    4.513;  -12.400;  547.940
1123.673;    6.460;  -10.130;  706.480
1124.214;    5.474;  -12.930;  612.460
1124.755;    5.745;  -14.380;  639.460
1125.296;    5.617;  -14.000;  627.320
1125.836;    5.742;  -10.070;  691.500
1126.377;    4.771;  -12.640;  599.660
1126.918;    6.080;  -12.960;  614.980
1127.458;    4.952;  -13.350;  622.220
1127.999;    5.316;  -10.750;  656.980
1128.539;    5.304;  -12.350;  694.240
1129.079;    4.618;  -14.860;  632.720
1129.620;    3.651;  -13.840;  558.100
1130.160;    4.274;  -12.330;  539.480
1130.700;    4.654;  -14.530;  640.840
1131.240;    5.218;  -12.530;  643.700
1131.781;    3.697;  -14.450;  619.680
1132.321;    4.022;   -9.790;  599.120
1132.861;    2.708;  -14.860;  564.200
1133.401;    3.291;  -14.290;  593.940
1133.941;    4.063;  -11.750;  626.280
1134.481;    3.225;   -9.920;  597.580
1135.020;    3.897;  -12.290;  609.160
1135.560;    3.247;  -11.650;  674.940
1136.100;    3.536;  -16.270;  501.160
1136.640;    3.000;  -10.890;  510.480
1137.179;    2.703;  -14.180;  537.960
1137.719;    3.604;  -16.250;  605.400
1138.258;    3.606;  -14.230;  587.360
1138.798;    3.619;   -9.090;  663.780
1139.337;    1.734;  -15.130;  482.840
1139.877;    3.265;  -13.680;  642.360
1140.416;    4.666;  -11.320;  878.060
1140.955;    2.286;  -10.860;  535.380
1141.494;    2.671;  -12.920;  669.280
1142.034;    2.184;  -13.930;  583.520
1142.573;    2.876;  -11.440;  646.280
1143.112;    2.847;  -12.000;  553.480
1143.651;    2.359;  -13.670;  536.480
1144.190;    2.940;  -12.730;  691.640
1144.729;    2.550;  -14.560;  607.420
1145.267;    1.702;  -11.830;  584.900
1145.806;    2.913;  -12.230;  637.040
1146.345;    1.353;  -14.130;  635.020
1146.884;    2.036;  -11.590;  622.500
1147.422;    1.262;  -12.550;  533.060
1147.961;    3.009;  -11.180;  708.460
1148.500;    2.701;  -11.510;  669.720
1149.038;    3.044;  -11.640;  632.500
1149.577;    2.590;  -10.130;  698.640
1150.115;   -0.450;  -13.970;  452.280
1150.653;    1.368;  -14.520;  607.340
1151.192;    1.510;  -12.810;  552.920
1151.730;    1.475;   -9.100;  652.560
1152.268;    0.447;  -12.220;  589.520
1152.806;    1.288;  -14.140;  571.180
1153.344;    0.150;  -12.350;  577.640
1153.882;    0.654;   -8.980;  600.060
1154.421;    0.090;  -15.190;  470.620
1154.958;    0.332;  -15.210;  595.240
1155.496;    1.331;  -12.850;  645.280
1156.034;    1.096;   -9.940;  721.880
1156.572;    1.547;  -13.570;  667.060
1157.110;    0.323;  -14.590;  473.940
1157.647;    1.509;  -13.030;  676.960
1158.185;   -0.357;  -12.140;  564.320
1158.723;   -0.938;  -14.390;  509.200
1159.260;    0.655;  -14.090;  701.700
1159.798;    0.800;  -11.920;  658.160
1160.335;    0.419;  -11.110;  631.820

