
Integration time [ms]:   3.276
Averaging Nr. [scans]: 1000
Smoothing Nr. [pixels]: 0
Data measured with spectrometer [name]: 7414430SP
Wave   ;Sample   ;Dark     ;Reference
[nm]   ;[counts] ;[counts] ;[counts] 

288.544;  149.716;    7.793;  793.890
289.143;  152.989;    7.462;  681.602
289.742;  154.105;    8.602;  828.814
290.341;  139.371;    1.321;  789.841
290.940;  128.063;   -0.709;  730.702
291.538;  128.985;    0.881;  881.108
292.137;  129.145;    0.122;  792.581
292.736;  134.046;   -1.929;  975.101
293.335;  130.093;   -8.229;  735.086
293.934;  130.690;   -5.279;  781.677
294.532;  128.364;   -1.369; 1031.958
295.131;  115.299;   -7.641;  834.394
295.730;  115.098;   -8.420;  809.588
296.328;  114.149;   -5.611;  783.442
296.927;  115.661;   -5.781;  779.652
297.525;  116.298;   -6.361;  781.236
298.124;  105.807;  -11.382;  654.009
298.722;  109.427;   -7.641;  761.933
299.321;  108.722;   -6.811;  708.597
299.919;  106.197;   -6.991;  751.918
300.518;  103.314;  -10.362;  689.338
301.116;  104.213;   -9.581;  691.381
301.715;  104.972;   -4.891;  730.222
302.313;  103.494;   -8.801;  704.943
302.911;   98.885;   -8.522;  733.830
303.509;  104.058;   -6.171;  925.627
304.108;  101.059;   -7.311;  760.383
304.706;  100.556;   -8.321;  801.664
305.304;   94.878;  -10.222;  796.707
305.902;  101.238;   -6.021;  784.484
306.500;   97.399;   -4.971;  728.200
307.098;   95.357;   -7.061;  746.560
307.696;   93.022;   -8.801;  780.432
308.294;   93.478;   -6.411;  731.359
308.892;   95.940;   -2.901;  759.769
309.490;   91.771;   -5.041;  712.161
310.088;   90.265;   -5.002;  788.444
310.686;   94.050;   -2.041;  821.749
311.284;   90.121;   -2.351;  766.040
311.882;   88.275;   -4.422;  731.225
312.480;   84.006;   -4.192;  697.167
313.078;   85.465;   -1.172;  808.331
313.675;   86.712;   -2.601;  691.600
314.273;   81.826;   -1.312;  797.837
314.871;   81.361;   -3.942;  589.829
315.468;   79.480;   -2.802;  652.090
316.066;   82.166;   -0.701;  694.427
316.664;   74.623;   -4.362;  656.351
317.261;   79.033;   -2.872;  910.128
317.859;   74.587;   -2.022;  768.735
318.456;   74.905;   -0.531;  830.096
319.054;   71.169;   -3.912;  787.828
319.651;   69.724;   -4.752;  759.928
320.249;   68.142;   -2.602;  810.188
320.846;   66.582;   -0.821;  714.286
321.443;   64.865;   -4.642;  832.135
322.041;   60.851;   -5.002;  812.315
322.638;   58.595;   -3.982;  701.456
323.235;   60.255;   -3.411;  665.683
323.833;   57.304;   -7.361;  740.354
324.430;   52.707;   -8.611;  615.900
325.027;   53.438;   -4.061;  876.855
325.624;   53.678;   -4.031;  644.532
326.221;   50.548;   -7.481;  689.717
326.818;   49.741;   -5.281;  818.332
327.415;   52.910;   -7.460;  748.828
328.012;   53.053;   -5.510;  690.585
328.609;   51.589;   -7.880;  731.389
329.206;   49.496;   -8.331;  778.621
329.803;   48.680;   -5.121;  737.841
330.400;   52.048;   -4.510;  704.260
330.997;   53.873;   -6.441;  817.147
331.594;   52.253;   -8.831;  788.185
332.191;   56.812;   -7.621;  728.722
332.787;   61.174;   -4.591;  844.463
333.384;   58.786;   -7.412;  763.093
333.981;   57.009;   -8.293;  815.687
334.578;   60.215;   -7.052;  708.378
335.174;   63.462;   -3.102;  731.469
335.771;   62.484;   -5.943;  836.456
336.367;   59.195;   -7.393;  710.631
336.964;   62.844;   -4.063;  793.266
337.561;   60.460;   -3.813;  731.112
338.157;   57.515;   -4.654;  911.916
338.754;   54.388;   -7.934;  796.589
339.350;   52.542;   -4.414;  722.493
339.946;   54.925;   -4.664;  773.135
340.543;   46.034;   -6.375;  846.136
341.139;   41.265;   -9.815;  720.836
341.735;   39.029;   -4.526;  772.593
342.332;   37.576;   -4.895;  691.472
342.928;   37.639;   -4.295;  795.394
343.524;   31.951;   -5.476;  761.684
344.120;   28.318;   -5.856;  738.562
344.716;   32.425;   -2.155;  723.717
345.313;   29.834;   -6.275;  795.342
345.909;   24.069;   -8.815;  627.336
346.505;   25.637;   -5.305;  740.247
347.101;   27.084;   -2.674;  827.864
347.697;   27.170;   -4.344;  785.398
348.293;   21.403;   -9.975;  627.244
348.889;   21.997;   -5.774;  745.914
349.485;   22.780;   -5.004;  688.205
350.081;   22.486;   -4.704;  772.592
350.676;   17.525;   -6.635;  691.606
351.272;   21.880;   -4.504;  809.530
351.868;   21.896;   -3.914;  780.497
352.464;   18.724;   -9.044;  723.932
353.059;   15.341;   -8.314;  646.017
353.655;   18.239;   -7.024;  777.063
354.251;   19.361;   -5.343;  759.845
354.846;   13.241;   -8.604;  740.646
355.442;   10.829;   -6.945;  753.071
356.038;   13.810;   -7.564;  751.708
356.633;   14.462;   -5.814;  728.594
357.229;   11.451;   -7.364;  724.757
357.824;    9.967;   -8.024;  703.600
358.420;    9.444;   -9.384;  679.726
359.015;   10.100;   -5.104;  695.357
359.610;   11.319;   -6.854;  763.920
360.206;    4.447;  -10.185;  603.240
360.801;    8.274;   -7.054;  646.503
361.396;   10.179;   -5.034;  725.975
361.992;    4.743;   -8.284;  668.220
362.587;    2.658;   -8.625;  670.160
363.182;    4.099;   -7.674;  689.631
363.777;    5.141;   -5.164;  738.242
364.372;    5.313;   -8.604;  737.314
364.967;    1.765;   -9.055;  680.744
365.563;    5.630;   -6.114;  815.567
366.158;    2.473;   -5.814;  685.161
366.753;    2.434;   -7.854;  649.263
367.348;    0.808;   -7.804;  746.056
367.942;    1.072;   -7.954;  697.298
368.537;    1.103;   -4.984;  754.245
369.132;    0.174;   -8.564;  703.428
369.727;   -3.217;   -8.855;  638.079
370.322;   -2.369;   -6.245;  580.186
370.917;   -2.688;   -6.425;  710.646
371.511;    0.116;   -6.294;  861.834
372.106;   -3.050;   -7.685;  776.964
372.701;   -6.189;   -7.335;  585.988
373.296;   -0.687;   -4.564;  863.135
373.890;   -5.539;  -10.235;  647.840
374.485;   -7.676;   -7.885;  691.199
375.079;   -4.281;   -7.324;  738.685
375.674;   -2.233;   -3.494;  812.970
376.268;   -6.884;   -8.525;  691.759
376.863;  -12.029;  -10.086;  580.327
377.457;   -6.703;   -7.025;  662.490
378.052;   -7.860;   -3.585;  764.884
378.646;   -8.774;   -7.595;  741.167
379.240;   -9.244;   -8.335;  721.176
379.835;   -8.571;   -5.785;  636.978
380.429;  -10.841;   -4.335;  562.557
381.023;   -9.925;   -6.805;  779.205
381.617;  -13.098;   -9.195;  680.106
382.212;   -9.832;   -6.905;  685.303
382.806;   -8.721;   -3.745;  760.690
383.400;  -12.238;   -7.745;  672.281
383.994;  -13.546;   -9.765;  664.870
384.588;  -10.312;   -6.564;  697.701
385.182;   -8.818;   -5.344;  726.624
385.776;  -10.328;   -8.514;  706.875
386.370;  -13.483;   -9.555;  681.968
386.964;  -11.585;   -8.715;  684.155
387.558;  -10.360;   -6.174;  598.360
388.152;  -13.618;   -8.725;  681.959
388.745;  -11.853;   -7.965;  814.707
389.339;  -10.410;   -5.924;  747.642
389.933;   -9.751;   -5.524;  695.370
390.527;  -10.685;   -7.114;  859.029
391.120;  -16.704;  -10.725;  595.318
391.714;  -14.062;   -8.035;  711.633
392.308;  -10.406;   -3.574;  780.253
392.901;  -14.504;   -7.245;  642.460
393.495;  -16.781;   -9.285;  595.414
394.089;  -14.453;   -5.895;  760.452
394.682;  -14.891;   -4.295;  697.188
395.275;  -15.406;   -9.875;  719.927
395.869;  -16.696;   -8.485;  667.314
396.462;  -14.651;   -7.455;  616.609
397.056;  -10.557;   -5.424;  776.621
397.649;  -16.160;   -6.605;  731.575
398.242;  -13.634;   -8.224;  712.645
398.836;  -12.568;   -7.474;  766.408
399.429;  -13.715;   -7.094;  631.041
400.022;  -16.481;   -9.475;  665.902
400.615;  -14.564;   -7.145;  805.609
401.208;  -12.576;   -7.174;  691.451
401.802;  -14.493;   -5.515;  699.329
402.395;  -15.787;   -9.875;  683.502
402.988;  -17.046;   -8.845;  696.627
403.581;  -13.486;   -8.874;  646.878
404.174;  -10.815;   -5.324;  686.568
404.767;  -14.241;   -9.575;  638.583
405.360;  -17.564;  -10.965;  621.445
405.953;  -11.610;   -8.764;  759.034
406.545;  -11.231;   -7.514;  725.342
407.138;  -14.874;  -10.025;  618.350
407.731;  -14.308;  -10.034;  613.303
408.324;  -10.550;   -9.374;  660.554
408.917;  -10.424;   -6.534;  681.864
409.509;  -12.266;   -8.004;  740.396
410.102;  -15.071;   -9.875;  643.948
410.695;   -8.734;   -8.604;  665.758
411.287;   -9.971;   -6.794;  599.821
411.880;  -11.296;   -9.334;  585.421
412.472;  -13.556;  -10.254;  613.092
413.065;  -10.679;   -6.714;  629.408
413.657;   -9.220;   -7.234;  576.678
414.250;   -8.964;  -10.544;  646.681
414.842;  -11.064;   -9.744;  676.353
415.434;   -8.407;   -6.994;  570.463
416.027;   -3.614;   -5.893;  652.196
416.619;   -6.988;   -7.264;  713.400
417.211;   -6.814;  -10.374;  599.352
417.804;   -4.191;   -7.993;  628.499
418.396;   -7.123;   -7.234;  607.643
418.988;   -5.542;   -9.443;  659.238
419.580;   -8.991;  -10.724;  568.276
420.172;   -6.448;  -10.323;  536.196
420.764;   -1.892;   -8.793;  672.482
421.356;   -2.651;  -11.143;  636.898
421.948;   -4.414;   -8.293;  677.661
422.540;    0.366;   -7.893;  680.027
423.132;    0.206;   -7.082;  600.641
423.724;   -3.282;   -8.653;  561.267
424.316;   -1.145;  -10.213;  621.345
424.908;    1.372;   -9.762;  591.517
425.500;    2.710;   -5.572;  647.978
426.092;    2.482;   -8.422;  648.268
426.683;    1.169;   -9.283;  684.836
427.275;    5.577;   -7.852;  641.471
427.867;    6.838;   -5.272;  668.948
428.458;    6.638;   -7.682;  732.344
429.050;    6.019;  -10.612;  680.749
429.642;    7.558;   -9.882;  743.124
430.233;    8.216;   -6.962;  569.356
430.825;    9.937;   -6.842;  724.809
431.416;    7.022;   -9.672;  698.241
432.008;   10.293;   -6.552;  651.723
432.599;   11.569;   -6.891;  656.073
433.190;    7.785;  -10.912;  637.670
433.782;    7.129;  -11.172;  590.395
434.373;   14.504;   -6.061;  884.765
434.964;   13.706;   -8.251;  602.920
435.556;   11.713;   -9.722;  634.537
436.147;   14.340;   -9.082;  758.490
436.738;   13.108;   -8.041;  701.099
437.329;   19.290;   -7.341;  721.723
437.920;   11.924;   -8.162;  666.688
438.511;   12.194;  -11.802;  564.526
439.103;   18.941;  -10.191;  623.998
439.694;   20.623;   -7.601;  681.583
440.285;   21.193;   -8.541;  764.432
440.876;   18.849;   -9.751;  845.738
441.466;   18.561;   -9.401;  575.162
442.057;   23.715;   -7.760;  665.814
442.648;   23.105;   -9.971;  746.255
443.239;   20.885;  -11.001;  620.477
443.830;   25.717;   -7.990;  704.958
444.421;   27.981;   -7.910;  655.474
445.011;   23.831;   -8.131;  693.619
445.602;   24.367;   -7.111;  743.126
446.193;   26.077;  -10.920;  488.117
446.783;   30.626;   -6.500;  640.397
447.374;   25.358;   -8.671;  692.759
447.964;   27.065;  -10.781;  713.770
448.555;   34.956;   -9.650;  822.742
449.145;   31.326;   -8.660;  662.853
449.736;   32.335;   -8.990;  803.179
450.326;   31.589;   -9.500;  713.626
450.917;   36.376;   -8.680;  675.324
451.507;   36.280;   -7.520;  600.661
452.097;   36.793;   -8.590;  746.267
452.688;   36.985;  -11.340;  742.160
453.278;   38.294;  -10.100;  566.840
453.868;   42.232;   -6.019;  793.550
454.458;   39.951;   -9.440;  651.141
455.048;   39.842;  -10.560;  711.783
455.639;   41.435;  -11.799;  567.096
456.229;   45.240;   -6.899;  710.694
456.819;   47.172;   -7.389;  751.158
457.409;   46.564;  -11.119;  773.993
457.999;   50.071;   -9.289;  737.505
458.589;   49.370;   -6.139;  686.606
459.179;   49.392;   -8.729;  717.658
459.769;   47.578;   -9.789;  627.099
460.358;   52.975;  -10.259;  797.262
460.948;   52.641;   -7.299;  689.503
461.538;   54.249;  -10.289;  660.677
462.128;   51.868;  -11.269;  664.934
462.717;   58.785;   -9.368;  710.326
463.307;   61.183;   -7.908;  705.846
463.897;   57.537;   -9.599;  656.942
464.486;   56.840;   -9.769;  837.128
465.076;   61.335;   -8.048;  733.776
465.666;   65.358;   -9.358;  652.900
466.255;   62.823;   -7.919;  785.651
466.845;   61.757;  -11.689;  666.749
467.434;   64.498;   -7.818;  725.873
468.023;   65.860;   -7.678;  658.357
468.613;   63.183;  -10.939;  713.946
469.202;   67.856;  -10.118;  646.507
469.791;   71.442;   -9.108;  737.811
470.381;   73.555;   -6.058;  742.813
470.970;   73.470;  -10.428;  711.099
471.559;   73.108;  -10.268;  733.291
472.148;   75.582;   -8.448;  675.737
472.738;   78.393;   -6.917;  765.466
473.327;   78.284;  -11.978;  637.529
473.916;   76.904;  -11.888;  737.446
474.505;   82.625;   -9.437;  751.703
475.094;   85.723;   -6.747;  806.570
475.683;   84.462;   -9.367;  797.699
476.272;   84.692;  -12.637;  730.632
476.861;   87.387;  -10.027;  706.754
477.449;   94.925;   -8.716;  728.487
478.038;   88.710;   -9.577;  692.513
478.627;   89.842;   -9.718;  714.852
479.216;   96.323;   -8.947;  769.441
479.805;   99.294;   -6.256;  783.375
480.393;   98.866;   -7.937; 1008.945
480.982;   97.744;   -7.717;  874.501
481.571;  104.355;   -9.266;  858.333
482.159;  104.673;   -7.636;  705.386
482.748;  104.537;   -9.667;  821.385
483.336;  108.986;  -10.376;  858.209
483.925;  110.269;   -7.147;  774.373
484.513;  116.934;   -7.996;  758.962
485.102;  113.159;  -10.027;  810.965
485.690;  121.059;  -10.446; 1011.050
486.278;  122.995;   -8.446;  979.329
486.867;  123.941;   -6.356;  809.662
487.455;  126.201;   -9.136;  898.229
488.043;  126.662;  -10.646;  748.361
488.631;  136.034;   -7.456; 1005.079
489.220;  139.392;   -6.636;  908.626
489.808;  139.666;  -11.036;  741.415
490.396;  147.387;  -10.246;  914.645
490.984;  153.390;   -8.556;  830.161
491.572;  162.313;   -5.886;  940.315
492.160;  167.962;   -9.486;  919.081
492.748;  178.639;  -10.976;  884.341
493.336;  200.878;   -8.776; 1019.693
493.924;  225.493;   -5.465;  958.077
494.512;  251.667;   -9.986; 1066.638
495.100;  287.340;  -10.636; 1103.280
495.687;  340.695;  -10.885; 1206.373
496.275;  401.124;   -8.126; 1150.796
496.863;  465.626;  -10.586; 1281.171
497.451;  560.107;  -11.926; 1386.805
498.038;  690.049;  -10.885; 1556.729
498.626;  792.642;   -6.315; 1741.407
499.214;  931.717;   -7.326; 2016.609
499.801; 1126.571;  -11.906; 2220.633
500.389; 1357.762;  -10.466; 2312.494
500.976; 1647.590;   -5.236; 2744.849
501.564; 2060.557;   -8.936; 3148.565
502.151; 2417.375;  -13.176; 3515.999
502.738; 2823.849;  -10.646; 3971.274
503.326; 3198.828;   -9.525; 4403.796
503.913; 3583.728;  -10.856; 5161.749
504.500; 3951.174;  -11.586; 5986.420
505.088; 4295.783;  -10.336; 6381.201
505.675; 4801.500;   -6.355; 6925.547
506.262; 5465.948;   -9.046; 7619.060
506.849; 6181.869;  -10.416; 8733.969
507.436; 6720.211;  -10.305; 9790.121
508.023; 7253.510;   -5.496; 9985.472
508.610; 7468.133;   -7.856;10434.618
509.197; 8100.980;  -10.097;11198.435
509.784; 9420.592;  -10.886;12391.194
510.371;10505.613;   -9.315;13603.713
510.958;11137.779;   -9.936;14426.586
511.545;11810.046;   -9.326;15243.775
512.132;12640.532;  -10.075;15945.876
512.719;13259.699;   -7.796;16340.369
513.305;14423.202;  -10.606;18011.766
513.892;15020.730;  -11.486;19754.971
514.479;16108.150;   -9.126;20967.805
515.066;17479.840;   -6.026;22299.793
515.652;18968.926;   -8.466;22908.660
516.239;20268.086;  -10.886;23798.875
516.825;21267.541;  -11.496;25567.275
517.412;22377.270;   -5.796;28154.959
517.998;23047.707;  -10.506;28344.111
518.585;22943.672;  -10.076;27134.219
519.171;23487.346;   -8.315;27268.576
519.758;25391.660;   -8.596;28964.129
520.344;27198.047;   -8.466;30664.494
520.930;26960.170;  -11.006;32550.605
521.516;28439.375;  -10.495;35422.895
522.103;30373.285;   -5.526;38280.004
522.689;31074.955;   -8.746;37835.117
523.275;30310.809;  -11.376;37288.613
523.861;31527.576;  -11.156;37281.395
524.447;33171.855;   -8.135;37846.949
525.033;33027.395;   -7.896;38321.949
525.619;33197.156;  -12.476;38579.285
526.205;34737.336;   -9.516;40622.875
526.791;37487.930;   -6.926;42258.836
527.377;37400.227;   -8.346;42966.902
527.963;38541.156;   -8.717;42018.949
528.549;37659.301;  -11.016;42476.828
529.135;36470.125;   -8.536;41854.852
529.721;35607.750;   -9.666;41237.711
530.306;35275.734;  -10.066;41259.445
530.892;35031.895;  -11.356;41506.047
531.478;35723.223;   -6.596;43559.613
532.063;38738.910;   -8.836;47695.563
532.649;39655.039;  -10.047;50808.324
533.235;40539.379;   -9.746;51787.500
533.820;41358.496;   -6.566;52145.035
534.406;42531.785;  -10.817;51133.488
534.991;42400.680;   -9.416;49996.805
535.576;40889.660;   -9.036;48882.852
536.162;41545.281;   -6.156;46942.285
536.747;42752.609;  -11.607;45711.746
537.333;45807.543;  -11.787;48510.180
537.918;48328.824;  -12.437;50439.891
538.503;47443.047;   -7.196;50863.711
539.088;44466.094;  -10.556;50906.922
539.673;44684.098;   -8.767;52621.965
540.259;45070.637;  -10.026;52368.094
540.844;42599.469;   -7.416;50879.109
541.429;44035.266;   -9.467;52077.777
542.014;46123.785;   -9.527;52716.695
542.599;45431.996;   -9.946;52363.281
543.184;42659.121;   -7.927;53187.137
543.769;43984.246;   -9.297;54697.605
544.354;44174.016;  -10.127;53913.914
544.938;42596.508;   -9.267;49680.164
545.523;44189.566;   -6.506;47386.277
546.108;46869.313;   -9.787;49151.949
546.693;48824.215;  -11.587;51384.637
547.278;48967.402;  -10.986;51853.254
547.862;45925.641;   -8.206;51173.750
548.447;41505.965;  -10.067;51691.395
549.031;40635.105;   -9.637;52456.703
549.616;45409.781;   -9.926;52714.516
550.201;45291.332;   -6.347;52414.598
550.785;46600.934;   -7.917;52355.059
551.370;45850.363;  -10.867;54589.453
551.954;45481.398;   -9.047;58267.348
552.538;46200.762;   -7.827;59062.176
553.123;44565.230;  -10.287;58115.285
553.707;42532.086;  -12.178;56556.285
554.291;43697.738;   -8.717;56201.668
554.876;46420.605;   -7.457;55335.762
555.460;46830.402;  -10.387;54155.703
556.044;47351.434;   -9.618;53721.484
556.628;45282.445;  -11.567;53731.016
557.212;44178.742;   -8.097;54312.531
557.796;43198.578;  -11.077;53797.773
558.380;43171.949;  -11.108;56145.984
558.964;43091.090;   -9.057;57277.930
559.548;43672.680;   -6.977;56459.641
560.132;41991.938;  -11.457;54434.543
560.716;40920.074;  -11.378;54800.617
561.300;42304.141;   -9.577;57606.945
561.884;43312.457;   -7.127;58972.445
562.467;41580.695;   -7.118;57327.570
563.051;40726.922;  -13.358;54962.434
563.635;41704.652;  -10.178;52594.473
564.219;42504.621;   -7.837;50610.410
564.802;43297.699;  -11.398;49551.180
565.386;43025.273;  -12.788;48370.953
565.969;42457.387;   -9.077;48178.871
566.553;41418.492;   -6.207;49957.305
567.136;42074.426;   -8.568;50369.594
567.720;38783.938;  -11.868;49492.004
568.303;36742.121;   -8.268;50616.352
568.887;36611.035;   -8.698;50727.148
569.470;37194.445;   -6.808;51698.379
570.053;36475.090;  -13.188;52122.078
570.637;34217.375;  -12.037;52536.438
571.220;33726.926;   -8.577;51186.098
571.803;34466.191;   -8.498;51032.762
572.386;37065.004;  -10.498;49609.887
572.969;39631.492;   -9.388;48285.926
573.552;37603.969;   -8.338;47624.285
574.135;36122.688;   -8.518;45498.641
574.718;33567.035;  -13.628;41970.434
575.301;32839.730;  -10.893;41447.137
575.884;32112.426;   -8.158;40923.836
576.467;33178.676;  -10.328;45267.723
577.050;34821.324;  -13.058;48175.543
577.633;35785.609;   -9.458;47729.328
578.216;34506.109;   -8.928;47579.793
578.799;33260.070;   -9.358;47820.996
579.381;31984.004;  -11.388;48115.551
579.964;30361.602;  -11.718;47333.766
580.547;32592.658;   -8.588;46668.969
581.129;33671.543;   -8.859;44466.141
581.712;34463.000;  -10.729;44164.922
582.294;35051.266;  -11.118;46477.855
582.877;35284.949;   -5.218;48244.254
583.459;33407.523;   -8.679;47437.895
584.042;31354.104;  -10.709;46943.219
584.624;31365.807;  -11.669;46792.227
585.206;30877.004;   -8.218;46557.250
585.789;31038.133;  -10.569;45793.773
586.371;32782.145;  -11.859;43836.391
586.953;32340.225;  -10.719;42972.492
587.536;31361.490;   -7.198;42487.211
588.118;29436.951;   -8.720;42086.414
588.700;26120.379;  -10.439;43389.930
589.282;27450.771;   -9.198;43646.039
589.864;31031.619;   -9.199;43438.109
590.446;33643.145;  -11.319;43151.926
591.028;33825.930;  -11.159;42781.867
591.610;32778.813;  -11.779;42839.098
592.192;30480.588;   -7.668;42820.402
592.774;29240.975;  -11.949;40724.277
593.356;28209.285;  -12.129;39874.789
593.937;27386.820;  -10.669;39980.648
594.519;29770.760;   -6.509;42069.633
595.101;31737.381;  -10.849;42976.031
595.683;31683.477;  -11.679;44084.441
596.264;32518.186;   -9.049;43478.797
596.846;32018.082;   -8.849;43803.672
597.427;31676.707;   -9.570;42986.934
598.009;32842.539;  -12.620;42832.219
598.591;33158.402;  -10.039;42580.086
599.172;32704.813;  -10.369;43061.805
599.753;32901.102;   -9.140;41691.469
600.335;34128.570;  -11.430;40692.520
600.916;32455.432;   -9.939;39982.422
601.498;30462.090;   -8.479;40318.617
602.079;28967.469;  -10.920;40670.609
602.660;28787.254;  -11.480;41450.898
603.241;30332.805;  -11.699;41137.738
603.823;28998.070;   -9.579;38868.797
604.404;28695.326;  -10.620;38182.785
604.985;30284.623;  -10.450;38078.047
605.566;29986.006;   -9.129;38056.633
606.147;30110.473;   -7.510;37020.418
606.728;31757.709;  -10.660;37883.359
607.309;30591.268;  -11.740;38748.273
607.890;30285.123;   -9.759;38850.230
608.471;29789.752;   -8.250;37457.918
609.051;29170.975;   -9.240;36066.457
609.632;27871.939;  -12.120;35991.074
610.213;28127.664;   -9.110;37402.641
610.794;28836.928;   -8.030;38383.363
611.374;28671.973;   -8.110;40562.387
611.955;29388.924;  -13.560;38533.727
612.536;30789.775;  -11.400;36951.789
613.116;30674.016;   -8.070;37197.891
613.697;30854.133;  -10.830;38411.125
614.277;29253.604;  -11.641;38673.938
614.858;30109.449;  -13.310;37075.863
615.438;29526.777;   -7.460;35092.906
616.019;27186.994;   -7.601;33666.301
616.599;27387.055;  -12.020;34189.023
617.179;28888.158;  -11.780;36952.047
617.760;29923.781;   -8.570;39582.574
618.340;30873.027;  -11.471;38943.977
618.920;31808.969;  -11.170;37594.156
619.500;31750.391;  -11.071;37866.938
620.080;31056.871;   -7.750;37869.043
620.660;32263.645;  -12.711;36868.617
621.241;34214.805;  -10.211;36352.309
621.821;34551.680;  -10.961;35459.520
622.401;33139.543;   -7.720;35207.414
622.980;32084.250;   -8.981;35980.422
623.560;30675.166;   -9.331;37351.328
624.140;29483.260;   -9.850;34388.582
624.720;24692.920;   -7.451;32368.764
625.300;21234.857;   -9.070;32638.629
625.880;24541.947;  -12.601;34599.035
626.459;28697.262;  -11.751;36831.738
627.039;31661.432;   -9.281;38299.098
627.619;31541.709;   -8.801;38289.574
628.198;29808.594;  -12.071;37220.695
628.778;28845.875;   -9.461;37632.563
629.357;29678.070;   -8.491;38003.012
629.937;29892.127;   -9.721;38402.039
630.516;29221.883;   -9.951;37868.801
631.096;28742.205;  -11.731;35760.410
631.675;31355.436;   -8.572;35225.219
632.254;36655.633;  -11.282;35130.289
632.834;36151.059;  -13.322;35794.570
633.413;34378.750;  -10.301;35788.922
633.992;31676.297;   -8.582;34532.863
634.571;32186.354;   -8.352;33590.113
635.151;34564.422;  -11.912;34943.863
635.730;33054.172;  -10.511;35352.523
636.309;30036.795;   -7.731;35366.605
636.888;27822.916;   -9.952;36165.637
637.467;28552.746;  -11.672;37515.902
638.046;29976.600;   -8.901;39288.695
638.625;32750.785;   -7.912;38279.699
639.204;32726.295;  -10.022;37741.598
639.782;31758.133;  -12.252;38364.551
640.361;27731.328;  -10.041;36740.621
640.940;25003.391;  -11.161;34950.082
641.519;25619.285;   -9.701;34137.398
642.097;28624.480;  -11.271;35654.258
642.676;31672.229;   -8.651;35637.957
643.255;32492.352;   -8.711;36567.074
643.833;31582.545;   -9.581;37809.434
644.412;31696.576;  -13.711;37337.293
644.990;30892.457;  -11.811;37018.531
645.569;30962.389;   -9.411;36518.469
646.147;30376.988;  -10.291;36186.430
646.726;30005.049;  -12.401;36267.688
647.304;30794.713;  -10.411;36647.625
647.882;32395.334;   -9.651;39286.742
648.461;34292.414;   -9.631;39157.703
649.039;32712.688;  -11.881;35412.883
649.617;31674.508;   -9.661;34744.918
650.195;30885.771;   -9.301;35403.098
650.773;29408.592;  -10.511;35053.797
651.352;27450.611;  -11.521;33756.816
651.930;25157.104;  -12.211;31868.773
652.508;23205.463;   -9.171;33121.551
653.086;26951.180;   -9.371;33564.793
653.663;29917.248;  -13.161;34054.668
654.241;28862.223;  -13.031;35693.309
654.819;30478.697;   -9.371;36422.906
655.397;30284.613;  -10.511;38213.484
655.975;29698.049;  -10.371;39507.625
656.553;29316.893;  -10.051;39498.223
657.130;28035.848;  -10.061;40395.480
657.708;27548.088;   -9.561;39242.020
658.286;27720.951;  -11.511;38920.020
658.863;28635.957;  -10.261;40202.898
659.441;31735.711;   -7.531;39677.938
660.018;31660.939;   -9.501;40413.355
660.596;30341.639;  -13.301;39931.414
661.173;32150.816;  -11.211;39604.531
661.750;32857.410;   -9.951;39700.070
662.328;31972.295;   -9.390;39292.809
662.905;30853.283;  -11.330;38235.648
663.482;26224.057;   -9.050;36212.305
664.060;24185.898;   -8.240;35944.945
664.637;27077.348;  -10.050;35170.785
665.214;28539.428;  -11.760;34197.523
665.791;29935.854;  -10.530;34549.520
666.368;29195.424;   -9.690;35118.578
666.945;29855.775;   -9.320;36019.418
667.522;31264.473;  -11.860;36048.438
668.099;31090.727;  -10.770;36243.914
668.676;29775.473;   -6.260;35958.875
669.253;28544.680;   -7.000;37384.730
669.830;28827.824;  -10.190;36779.629
670.407;28766.678;   -9.550;35231.289
670.984;28929.027;   -9.260;35544.270
671.560;29666.912;   -9.280;35466.867
672.137;28751.705;  -11.810;34280.863
672.714;29823.424;  -11.490;34632.863
673.290;31030.859;   -7.740;35135.422
673.867;30923.594;  -10.660;36114.480
674.443;30539.045;  -12.230;36152.859
675.020;28576.205;  -10.450;35327.238
675.596;29770.727;   -9.260;35795.176
676.173;30454.311;  -10.780;35430.355
676.749;29991.418;  -13.690;33549.516
677.326;29706.514;  -11.980;32210.012
677.902;29658.555;   -8.630;32068.871
678.478;29041.490;  -10.730;32583.891
679.054;28270.451;  -10.520;32088.928
679.631;28604.600;  -11.920;30978.848
680.207;29982.801;   -7.490;33160.887
680.783;31601.213;   -9.860;35570.363
681.359;30849.529;  -13.380;36125.184
681.935;30653.635;  -12.480;35240.922
682.511;30287.521;   -7.900;34429.961
683.087;30486.504;   -7.710;34463.680
683.663;29798.600;  -11.480;34648.898
684.239;28234.090;  -14.090;34546.457
684.815;27601.277;   -7.560;35586.375
685.390;27788.061;   -9.910;35821.895
685.966;28314.850;  -11.159;35085.871
686.542;31002.885;  -11.169;34198.230
687.118;33222.516;   -5.959;32847.707
687.693;33396.105;  -10.329;32794.027
688.269;33180.902;  -12.059;33072.367
688.844;31533.980;  -10.909;33141.664
689.420;29673.932;   -8.019;33965.742
689.995;27791.139;   -8.399;34655.523
690.571;26465.166;  -10.949;33576.742
691.146;26518.920;   -9.619;32657.219
691.722;26151.260;   -8.999;32526.979
692.297;26062.467;  -11.589;33014.617
692.872;27515.453;  -11.739;34012.254
693.448;27100.217;  -11.059;34237.434
694.023;26009.648;  -10.139;34142.672
694.598;28181.137;   -9.029;34132.031
695.173;29022.551;  -13.319;34205.250
695.748;28038.176;  -10.169;32882.488
696.323;27821.910;   -8.339;32864.906
696.898;27997.959;   -8.169;33170.004
697.473;28008.508;  -12.309;32432.984
698.048;27157.340;  -10.989;31649.303
698.623;26902.717;   -9.329;30778.141
699.198;28462.049;   -9.849;31140.119
699.773;29763.605;  -12.329;31764.299
700.348;28645.969;  -10.389;31780.816
700.922;28598.316;   -9.269;32046.375
701.497;29418.721;   -9.329;32603.574
702.072;29426.533;  -10.789;34799.871
702.646;28224.580;  -10.839;35793.172
703.221;26509.363;   -9.099;35201.590
703.795;28319.854;  -10.939;34764.527
704.370;28549.326;  -12.859;34307.367
704.944;28686.822;  -11.559;33509.887
705.519;29390.211;   -7.939;31388.584
706.093;30737.143;  -10.499;31340.104
706.668;31222.055;  -11.289;32630.281
707.242;30186.535;  -11.509;32728.779
707.816;28990.699;   -9.639;32947.238
708.390;27431.051;  -11.429;33277.855
708.965;27887.270;  -11.869;33834.336
709.539;28137.361;  -11.689;33709.273
710.113;28187.152;  -10.478;33044.313
710.687;27351.684;  -10.228;31953.992
711.261;25753.148;  -13.698;30505.949
711.835;25869.918;  -13.378;30262.369
712.409;26489.293;   -9.698;31254.447
712.983;28392.205;  -11.898;32754.986
713.557;29655.094;  -15.138;34018.824
714.131;29504.709;  -14.098;34579.625
714.704;28339.689;   -9.958;33890.262
715.278;25751.207;  -10.028;33531.102
715.852;24717.402;  -11.148;33601.660
716.425;25994.109;   -9.068;33515.117
716.999;27115.287;  -10.038;33185.555
717.573;27931.320;   -9.798;33905.996
718.146;28899.188;  -12.378;35199.293
718.720;28950.057;  -11.918;35060.551
719.293;28772.059;   -8.088;34973.230
719.867;31652.926;  -10.888;36394.449
720.440;31300.840;  -11.938;36663.008
721.013;29330.789;  -12.818;35102.426
721.587;27757.402;  -10.298;33985.266
722.160;26663.473;  -10.048;33524.965
722.733;25792.668;  -12.108;32987.043
723.306;26299.695;  -10.818;33066.301
723.880;28339.248;   -8.908;33399.500
724.453;30183.957;   -9.878;33468.297
725.026;29235.607;  -11.188;33816.637
725.599;26645.760;  -11.678;32797.996
726.172;26994.459;   -9.618;33187.434
726.745;28149.502;   -8.258;35136.613
727.318;29399.539;  -12.978;35751.730
727.891;29920.059;  -12.148;35890.430
728.463;29445.916;   -8.968;34822.090
729.036;28168.445;  -10.188;32895.086
729.609;28621.031;  -11.788;31823.225
730.182;25764.414;  -11.788;31445.283
730.754;23390.805;  -10.268;32373.223
731.327;23777.396;   -9.998;33676.820
731.900;24268.736;  -12.228;33417.000
732.472;25225.098;  -13.848;31978.498
733.045;26735.154;   -8.698;30368.777
733.617;26672.012;  -10.607;30574.215
734.190;26837.580;  -11.507;31280.975
734.762;24384.248;  -13.647;31674.412
735.334;22488.432;   -9.767;31247.291
735.907;22876.174;   -9.897;29876.211
736.479;23019.682;  -11.637;29808.488
737.051;22731.857;   -9.567;30233.547
737.623;23271.818;   -8.187;31469.086
738.195;23836.000;  -11.187;31784.225
738.768;26268.844;  -12.337;32120.523
739.340;26960.219;  -12.227;32094.342
739.912;25814.084;  -11.057;31312.680
740.484;24347.783;  -10.207;31946.238
741.056;22971.082;  -10.047;32984.059
741.628;24331.180;  -13.627;33897.715
742.199;26480.711;   -7.177;33213.016
742.771;25142.096;  -10.797;31369.113
743.343;23089.066;  -11.997;31865.473
743.915;22095.836;  -12.867;32388.631
744.487;22064.832;   -7.617;31079.568
745.058;22029.768;   -9.557;30570.107
745.630;22705.088;   -9.877;29970.127
746.201;23950.258;  -14.177;29186.766
746.773;24625.658;   -9.237;28805.723
747.344;24363.602;   -9.847;29591.223
747.916;22547.760;  -11.657;31412.201
748.487;22579.869;  -10.587;32194.898
749.059;23947.947;   -8.707;32533.719
749.630;24815.406;  -10.537;32158.518
750.201;24033.955;  -11.687;30855.395
750.773;22229.818;  -11.647;28622.555
751.344;21937.408;   -7.147;28405.732
751.915;22850.869;   -9.757;28461.551
752.486;22796.533;  -12.427;27842.850
753.057;20695.154;  -12.227;27845.008
753.628;19535.100;  -10.417;27728.107
754.199;20571.951;  -11.767;27381.086
754.770;21697.457;  -11.187;25882.203
755.341;21872.746;  -10.507;25886.184
755.912;21847.684;   -9.387;26050.861
756.483;21372.461;  -10.647;26798.779
757.054;19568.508;  -11.837;27048.238
757.625;18098.943;  -12.716;26294.838
758.195;17966.773;   -9.666;26142.076
758.766;17708.615;   -8.656;26392.234
759.337;18352.203;  -12.856;26334.594
759.907;19927.758;  -13.366;27579.652
760.478;20793.553;   -8.576;28352.770
761.048;20183.762;  -10.526;27325.088
761.619;19175.865;  -11.116;26460.428
762.189;19362.854;  -12.136;26029.826
762.760;20526.053;   -9.456;26430.145
763.330;21549.545;   -7.136;26670.902
763.900;21024.170;  -11.786;26603.021
764.471;18543.668;  -11.546;25542.740
765.041;17066.170;   -8.096;24358.459
765.611;16875.791;   -8.876;23991.297
766.181;17251.418;  -12.196;24470.236
766.751;18468.484;  -11.636;24845.975
767.321;18240.984;  -10.156;24533.633
767.891;16052.554;  -11.766;24916.492
768.461;15441.407;  -14.936;24776.771
769.031;16050.469;  -12.356;24757.988
769.601;17750.285;   -7.526;24181.088
770.171;17841.361;  -10.766;23670.387
770.741;17069.982;  -13.176;22960.045
771.311;17227.914;  -10.616;22917.523
771.880;17674.896;   -9.576;23562.941
772.450;17538.516;  -10.336;24216.500
773.020;17590.549;  -13.516;24140.398
773.589;16844.154;  -13.466;24414.857
774.159;16263.735;   -8.686;23858.717
774.729;15918.160;   -9.476;22942.135
775.298;15448.289;  -13.666;22324.033
775.867;14952.229;  -11.716;21140.313
776.437;15088.570;   -9.906;20838.092
777.006;14880.295;  -12.166;20599.510
777.576;14554.032;  -12.356;20508.809
778.145;14533.271;  -11.646;20732.947
778.714;14517.190;   -8.226;21062.465
779.283;13985.268;   -9.556;20949.664
779.853;13461.161;  -14.116;20508.623
780.422;13837.925;  -11.506;20649.082
780.991;13481.109;   -9.556;21527.520
781.560;12207.345;   -9.095;22632.658
782.129;11965.813;  -12.135;23048.277
782.698;11969.393;  -10.865;23438.555
783.267;11558.438;   -9.335;23267.734
783.836;11521.116;  -11.045;22415.133
784.404;12558.499;  -13.865;20443.152
784.973;13191.829;  -13.095;19699.150
785.542;13253.479;  -11.575;19763.828
786.111;13093.372;   -9.705;20341.408
786.679;12577.273;  -12.105;20207.967
787.248;12355.336;  -12.455;19516.465
787.817;12177.073;  -11.535;18900.363
788.385;11767.162;   -9.765;17879.121
788.954;11166.217;  -14.005;17658.301
789.522;10552.390;  -11.955;17788.879
790.090;10999.796;  -10.135;18118.277
790.659;11590.898;  -10.975;18338.736
791.227;11158.260;  -13.375;18508.615
791.795;11509.211;  -12.375;17898.254
792.364;11785.867;  -10.725;17295.133
792.932;12076.854;   -9.715;16822.051
793.500;12399.415;  -12.675;17040.148
794.068;12720.903;  -13.495;17179.787
794.636;12898.304;  -10.885;16664.246
795.204;12257.479;  -11.045;16524.545
795.772;12241.165;  -13.175;17274.564
796.340;11761.288;  -12.445;17891.002
796.908;11536.337;   -9.735;17648.561
797.476;11394.019;   -9.815;17064.080
798.044;10956.942;  -13.985;16672.777
798.612;10227.672;  -13.115;17023.996
799.180; 9821.869;  -10.185;16561.615
799.747; 9650.852;   -9.055;15962.773
800.315; 9386.801;  -12.385;15296.992
800.883; 9149.479;  -15.035;14801.771
801.450; 9282.821;  -10.365;14534.430
802.018; 9378.291;   -9.855;14173.248
802.585; 9385.379;  -11.905;14029.547
803.153; 9407.291;  -11.585;13836.846
803.720; 9222.782;   -9.095;13567.324
804.287; 8678.092;   -9.135;13360.622
804.855; 8180.764;  -11.604;13681.981
805.422; 8081.603;  -11.794;13536.560
805.989; 8167.442;  -10.734;13355.958
806.556; 8436.472;  -10.444;13747.896
807.124; 8734.856;  -12.764;13987.376
807.691; 8690.726;  -12.964;14038.674
808.258; 8460.267;  -11.134;14120.152
808.825; 8047.248;   -9.854;13860.111
809.392; 8143.305;  -10.504;13268.790
809.959; 7737.557;  -13.054;12680.389
810.526; 7276.585;   -8.294;12427.308
811.093; 7265.084;   -8.394;12030.105
811.659; 7833.794;  -12.304;11653.664
812.226; 8345.737;  -13.944;11637.183
812.793; 8056.286;  -10.484;11611.521
813.360; 7395.202;  -10.144;11885.181
813.926; 7093.213;  -11.684;12770.539
814.493; 6945.648;  -13.644;12677.638
815.060; 6599.514;   -9.724;11974.336
815.626; 6551.377;   -9.854;11594.715
816.193; 6909.784;  -13.254;11579.474
816.759; 6962.281;  -13.204;11666.972
817.325; 7028.891;   -9.434;11325.530
817.892; 7387.498;  -10.134;11105.369
818.458; 7818.125;  -13.474;10843.928
819.024; 7410.348;  -11.854;10714.406
819.591; 7058.175;  -10.244;10469.165
820.157; 6848.910;  -10.704;10235.523
820.723; 6376.895;  -12.324;10847.563
821.289; 6092.792;   -9.444;11040.980
821.855; 6020.631;   -8.374;10357.100
822.421; 5958.843;  -10.234; 9978.918
822.987; 5899.681;  -13.294; 9754.177
823.553; 5532.466;  -10.884;10065.755
824.119; 5361.829;   -8.884;10036.294
824.685; 5502.243;   -6.784;10029.192
825.251; 5610.245;  -12.004;10199.230
825.816; 5561.879;  -11.474; 9820.189
826.382; 5296.918;   -9.174; 9297.248
826.948; 5475.379;   -9.214; 9381.347
827.513; 5882.663;  -10.774; 9450.726
828.079; 5726.916;  -11.924; 9472.444
828.645; 5153.599;  -10.543; 9292.643
829.210; 5017.923;  -10.533; 9065.341
829.776; 4995.046;  -10.753; 9132.620
830.341; 4871.805;  -10.173; 9092.878
830.906; 5024.025;  -10.743; 9078.557
831.472; 5342.915;  -11.113; 8534.535
832.037; 5126.128;  -10.603; 8677.874
832.602; 4593.150;  -13.323; 8628.692
833.167; 4325.041;  -10.823; 8879.031
833.733; 4256.199;  -10.113; 9189.790
834.298; 4377.457;  -13.583; 9052.608
834.863; 4500.767;  -12.703; 8895.087
835.428; 4529.360;  -10.523; 8824.266
835.993; 4409.998;   -6.963; 8845.385
836.558; 4252.043;  -10.763; 8888.563
837.123; 4329.055;   -9.903; 8966.582
837.688; 4563.562;   -9.913; 8617.860
838.253; 4766.935;  -10.283; 8590.699
838.817; 4923.963;  -12.963; 8443.797
839.382; 4871.242;  -14.243; 8799.356
839.947; 4590.097;  -10.733; 8810.595
840.511; 4300.300;   -9.383; 8796.394
841.076; 3929.917;  -12.563; 8347.231
841.641; 3979.869;  -12.953; 8224.330
842.205; 4066.532;   -7.043; 8223.349
842.770; 4101.343;   -8.163; 8622.107
843.334; 4274.194;  -12.503; 8410.386
843.898; 4258.469;  -11.693; 8337.465
844.463; 4261.045;  -10.203; 8506.283
845.027; 4048.345;   -9.533; 8280.962
845.591; 3881.202;  -13.443; 8231.141
846.156; 3875.873;  -13.143; 7969.179
846.720; 3776.177;   -9.433; 7768.278
847.284; 3659.234;  -11.033; 7630.957
847.848; 3514.542;  -10.403; 7472.395
848.412; 3396.341;  -11.553; 7437.394
848.976; 3421.824;   -8.393; 7674.592
849.540; 3357.142;   -8.713; 7836.011
850.104; 3424.569;  -12.463; 7913.669
850.668; 3786.145;  -12.973; 7694.508
851.232; 3936.111;  -10.793; 7756.887
851.796; 3788.140;  -10.662; 7926.545
852.359; 3465.946;  -13.082; 7827.844
852.923; 3292.750;  -12.192; 7641.163
853.487; 3154.193;  -11.912; 7342.501
854.050; 3130.907;  -10.892; 7042.820
854.614; 3259.572;  -13.992; 7151.338
855.177; 3356.445;  -11.732; 7105.077
855.741; 3404.537;   -8.962; 6989.675
856.304; 3322.809;   -9.442; 6596.634
856.868; 3298.276;  -14.192; 6356.272
857.431; 3419.421;  -12.702; 6468.571
857.995; 3569.457;   -9.942; 6373.210
858.558; 3602.982;   -9.112; 6324.448
859.121; 3331.898;  -12.932; 6408.327
859.684; 3152.177;  -13.442; 6347.886
860.247; 3233.785;  -10.632; 6321.264
860.810; 3253.885;  -11.272; 6301.903
861.374; 3004.915;   -9.832; 6607.881
861.937; 2742.144;  -11.762; 6408.200
862.500; 2744.335;   -9.722; 6572.639
863.062; 2909.861;  -10.512; 6387.297
863.625; 3040.704;  -11.232; 6190.836
864.188; 3191.425;  -14.112; 5807.254
864.751; 3280.567;  -11.302; 5682.413
865.314; 3196.682;  -10.112; 5547.492
865.876; 2978.133;  -12.182; 5500.150
866.439; 2952.771;  -10.722; 5415.909
867.002; 2917.169;   -9.252; 5501.567
867.564; 2720.326;   -9.572; 5413.946
868.127; 2489.651;  -13.142; 5160.325
868.689; 2359.481;  -12.902; 5133.183
869.252; 2241.974;   -9.732; 5252.382
869.814; 2137.628;   -9.432; 5297.141
870.377; 2155.218;  -11.552; 5390.919
870.939; 2236.475;   -9.052; 5599.898
871.501; 2308.619;  -10.982; 5248.336
872.063; 2315.359;  -12.292; 4854.235
872.626; 2250.405;  -14.912; 4817.074
873.188; 2244.392;  -13.112; 4987.732
873.750; 2226.351;  -13.442; 4868.651
874.312; 2152.441;   -9.402; 4779.330
874.874; 2066.339;  -11.062; 4866.348
875.436; 1978.179;  -13.931; 4718.887
875.998; 1968.082;   -9.561; 4660.005
876.560; 1990.733;  -11.321; 4462.964
877.122; 1932.590;  -12.221; 4145.042
877.683; 1839.031;  -12.191; 4056.481
878.245; 1767.252;  -12.101; 3950.740
878.807; 1806.171;   -8.971; 4058.958
879.369; 1830.349;  -12.071; 3954.677
879.930; 1736.487;  -14.621; 3941.495
880.492; 1669.547;  -10.311; 4067.014
881.053; 1631.090;  -10.901; 3859.633
881.615; 1522.107;  -14.411; 3776.071
882.176; 1426.167;  -13.761; 3734.750
882.738; 1382.087;   -9.181; 3678.489
883.299; 1358.578;  -11.791; 3405.407
883.860; 1345.473;  -13.121; 3351.106
884.422; 1326.941;  -11.211; 3394.044
884.983; 1280.655;  -10.091; 3166.443
885.544; 1205.313;   -8.461; 3189.802
886.105; 1130.291;  -12.361; 3160.360
886.666; 1069.314;  -14.141; 3093.059
887.227; 1011.096;  -11.361; 2941.957
887.788;  944.806;  -11.401; 2974.836
888.349;  875.245;  -13.791; 2721.214
888.910;  869.147;  -13.191; 2696.493
889.471;  874.313;   -9.881; 2560.172
890.032;  852.170;   -9.881; 2558.190
890.593;  823.837;  -10.371; 2567.669
891.153;  798.916;  -13.301; 2460.307
891.714;  753.868;  -11.431; 2372.046
892.275;  718.797;  -11.291; 2309.505
892.835;  681.009;  -11.471; 2382.543
893.396;  628.073;  -11.541; 2295.502
893.956;  567.966;  -11.181; 2162.420
894.517;  528.219;  -11.741; 2125.439
895.077;  522.033;  -11.671; 2086.978
895.638;  524.966;  -11.311; 2126.316
896.198;  496.864;   -9.831; 1838.275
896.758;  452.309;   -8.421; 1892.813
897.319;  421.740;  -12.351; 1792.232
897.879;  405.116;  -13.511; 1762.751
898.439;  379.739;  -12.001; 1661.149
898.999;  354.217;  -10.180; 1781.468
899.559;  343.694;  -12.030; 1703.347
900.119;  337.195;  -15.710; 1537.525
900.679;  333.727;   -8.900; 1638.384
901.239;  319.164;   -8.340; 1527.902
901.799;  309.729;  -13.910; 1456.441
902.359;  303.467;  -13.460; 1357.140
902.919;  296.907;  -11.490; 1331.118
903.479;  283.509;  -12.110; 1317.257
904.038;  262.303;  -11.720; 1262.595
904.598;  246.918;  -13.610; 1152.034
905.158;  244.152;  -11.040; 1240.893
905.717;  237.379;  -10.900; 1233.691
906.277;  227.665;  -15.080; 1217.330
906.836;  216.185;  -13.380; 1222.408
907.396;  207.970;  -10.780; 1193.047
907.955;  200.599;   -8.500; 1182.526
908.515;  194.601;  -12.760; 1099.364
909.074;  188.989;  -11.900; 1092.863
909.633;  184.265;   -8.950; 1069.121
910.192;  179.378;   -8.770; 1196.460
910.752;  173.462;  -12.390; 1029.960
911.311;  168.448;  -13.680; 1009.780
911.870;  166.281;  -12.370;  971.460
912.429;  167.643;  -10.900; 1094.080
912.988;  166.735;  -11.690; 1081.060
913.547;  161.947;  -13.240;  940.380
914.106;  157.075;  -11.990;  999.420
914.665;  153.791;   -9.990;  984.020
915.224;  153.022;  -12.880; 1035.760
915.782;  152.469;  -12.350;  922.560
916.341;  152.691;   -9.110; 1049.840
916.900;  148.648;   -9.270;  925.260
917.458;  146.600;  -13.240;  884.220
918.017;  146.287;  -13.550;  942.600
918.576;  145.915;  -12.320;  904.440
919.134;  144.565;  -11.490;  837.980
919.693;  142.319;  -13.670;  893.060
920.251;  140.253;  -15.470;  876.500
920.809;  139.837;  -11.290;  839.580
921.368;  139.154;  -10.210;  885.360
921.926;  138.345;  -12.140;  842.940
922.484;  136.674;  -13.080;  903.360
923.042;  136.131;  -11.720;  880.340
923.601;  139.650;   -7.480;  998.680
924.159;  137.185;  -11.570;  935.560
924.717;  134.431;  -13.840;  841.080
925.275;  134.771;  -10.640;  903.240
925.833;  133.578;  -11.540;  779.320
926.391;  134.836;  -12.960;  938.380
926.949;  132.288;  -14.130;  857.680
927.506;  133.675;  -11.750;  903.500
928.064;  133.436;  -10.250;  877.580
928.622;  132.702;  -13.030;  880.100
929.180;  132.162;  -13.400;  814.180
929.737;  133.633;  -10.700;  808.540
930.295;  137.784;  -10.070;  928.480
930.853;  138.737;  -11.960;  849.100
931.410;  139.129;  -13.120;  821.120
931.968;  139.586;  -10.770;  940.660
932.525;  139.160;  -10.680;  909.380
933.082;  139.932;  -13.130;  811.440
933.640;  139.917;  -13.210;  925.900
934.197;  138.832;  -11.060;  886.360
934.754;  140.101;   -9.580;  897.780
935.312;  143.477;  -14.000;  863.340
935.869;  146.705;  -10.710; 1012.980
936.426;  147.103;   -9.860;  872.800
936.983;  148.492;   -9.710;  889.020
937.540;  148.287;  -13.990;  838.280
938.097;  146.081;  -14.040;  940.120
938.654;  147.007;  -10.310;  898.860
939.211;  150.125;  -10.560;  952.480
939.768;  153.627;  -13.900;  915.420
940.324;  157.348;  -14.760;  904.200
940.881;  158.868;  -10.370;  878.500
941.438;  160.355;   -8.260; 1021.200
941.995;  156.533;  -12.540;  992.560
942.551;  152.794;  -14.670;  875.620
943.108;  153.409;  -10.450;  937.920
943.664;  154.788;  -10.750;  869.340
944.221;  159.212;  -11.550; 1088.140
944.777;  155.913;  -14.770;  869.680
945.334;  156.673;  -12.820;  884.840
945.890;  158.493;  -10.130;  946.480
946.446;  158.516;  -13.470;  947.020
947.003;  160.445;  -12.120;  964.940
947.559;  163.926;   -9.980; 1063.040
948.115;  162.757;   -9.080; 1026.540
948.671;  161.532;  -10.830;  967.300
949.227;  157.327;  -12.440;  859.560
949.783;  155.958;  -12.910;  858.900
950.339;  158.198;  -10.270;  991.000
950.895;  158.937;  -13.630; 1023.840
951.451;  157.796;  -15.100;  925.280
952.007;  157.386;  -11.330;  998.540
952.563;  157.621;  -10.580;  937.780
953.118;  155.705;  -13.440;  904.940
953.674;  155.360;  -12.710;  935.780
954.230;  154.873;  -10.350;  949.640
954.785;  152.346;   -9.190;  936.640
955.341;  151.076;  -11.200;  998.160
955.897;  149.653;  -16.560;  834.660
956.452;  151.166;  -12.570;  953.840
957.008;  150.542;   -7.970; 1083.640
957.563;  149.313;  -11.940; 1009.540
958.118;  143.739;  -13.450;  877.700
958.674;  144.293;  -12.030;  946.780
959.229;  147.214;   -9.410; 1013.980
959.784;  143.987;  -12.000;  832.400
960.339;  142.857;  -14.780; 1001.280
960.894;  139.439;   -9.860;  963.760
961.449;  134.569;   -9.970;  859.960
962.004;  134.371;  -10.900; 1212.840
962.559;  129.912;  -13.150;  860.140
963.114;  126.590;  -13.740;  742.480
963.669;  126.772;   -9.820;  915.500
964.224;  125.028;  -13.890;  874.340
964.779;  123.916;  -12.600;  828.420
965.334;  124.895;  -10.950; 1017.860
965.888;  124.650;  -11.170;  875.360
966.443;  127.588;  -12.540;  972.380
966.998;  127.517;  -15.780;  819.460
967.552;  127.172;   -9.760;  908.380
968.107;  123.794;   -9.060;  868.300
968.661;  124.330;  -11.950;  922.440
969.216;  124.856;  -12.800;  856.280
969.770;  125.690;  -11.210;  917.200
970.324;  125.243;  -11.610;  923.140
970.879;  120.413;  -11.370;  947.180
971.433;  116.525;  -12.540;  952.720
971.987;  111.226;  -11.320;  895.340
972.541;  108.236;  -10.720;  917.100
973.095;  107.999;   -9.680; 1009.460
973.649;  107.682;  -11.440;  809.480
974.203;  107.536;  -11.210;  829.040
974.757;  105.551;  -10.240;  855.220
975.311;  101.987;  -13.720;  872.600
975.865;   94.409;  -13.770;  881.820
976.419;   85.026;  -11.690;  857.400
976.973;   79.876;   -9.510;  849.620
977.526;   79.091;  -12.620;  949.920
978.080;   78.596;  -12.010;  796.780
978.634;   81.920;  -10.170;  921.320
979.187;   82.430;   -9.020;  905.400
979.741;   83.442;   -9.820; 1018.380
980.294;   80.494;  -14.870;  789.160
980.848;   80.099;  -12.380;  717.220
981.401;   82.694;  -10.350;  816.540
981.955;   85.182;  -13.720;  844.300
982.508;   84.157;  -11.490;  746.340
983.061;   85.643;  -10.000;  915.260
983.615;   82.663;  -11.480;  798.800
984.168;   79.749;  -13.220;  770.080
984.721;   80.749;  -13.960;  880.760
985.274;   79.604;  -10.870;  867.500
985.827;   79.244;   -9.790;  834.220
986.380;   77.080;  -13.120;  721.340
986.933;   77.126;  -12.450;  864.800
987.486;   75.569;  -10.210;  861.920
988.039;   74.503;   -8.430;  863.100
988.591;   72.985;  -10.520;  893.260
989.144;   69.995;  -14.860;  737.260
989.697;   70.002;  -13.080;  758.740
990.250;   70.626;  -10.150;  858.100
990.802;   69.816;  -13.430;  755.860
991.355;   70.511;  -12.750;  974.880
991.907;   68.547;  -12.040;  864.320
992.460;   66.582;  -11.330;  753.760
993.012;   66.049;  -13.610;  749.540
993.565;   65.618;  -13.460;  711.360
994.117;   66.862;   -9.360;  950.780
994.669;   63.324;  -11.300;  701.320
995.221;   61.943;  -13.540;  791.920
995.774;   58.409;  -13.430;  787.580
996.326;   56.746;  -12.520;  740.220
996.878;   55.488;  -10.950;  838.420
997.430;   53.273;  -14.300;  699.860
997.982;   52.887;  -13.760;  750.140
998.534;   54.101;  -11.530;  739.060
999.086;   52.486;  -10.310;  738.220
999.638;   51.273;  -12.530;  661.380
1000.190;   50.255;  -11.840;  699.320
1000.741;   50.543;  -10.260;  742.700
1001.293;   50.720;   -8.860;  686.020
1001.845;   49.059;  -13.700;  676.640
1002.396;   49.147;  -12.100;  743.400
1002.948;   49.069;  -12.760;  737.400
1003.500;   47.451;  -10.380;  723.780
1004.051;   47.864;  -11.900;  907.580
1004.603;   46.308;  -12.250;  791.820
1005.154;   42.802;  -13.210;  608.980
1005.705;   42.300;  -10.950;  723.960
1006.257;   41.000;  -13.880;  707.220
1006.808;   40.167;  -12.840;  685.460
1007.359;   39.933;  -10.570;  763.240
1007.910;   39.827;   -9.620;  646.640
1008.461;   38.886;  -13.630;  732.940
1009.013;   38.273;  -17.200;  588.340
1009.564;   39.504;  -10.200;  793.520
1010.115;   37.195;  -12.570;  597.040
1010.665;   36.289;  -15.150;  602.160
1011.216;   36.951;  -14.480;  667.920
1011.767;   36.982;  -11.340;  697.920
1012.318;   36.534;   -9.780;  736.980
1012.869;   35.677;  -12.380;  679.000
1013.419;   35.079;  -15.560;  603.120
1013.970;   35.650;  -11.010;  666.640
1014.521;   34.036;  -11.610;  620.620
1015.071;   34.805;  -13.450;  670.380
1015.622;   34.432;  -13.870;  635.460
1016.172;   33.893;  -11.610;  596.820
1016.723;   33.697;  -12.120;  614.380
1017.273;   32.403;  -13.620;  604.160
1017.823;   33.964;  -14.140;  650.340
1018.374;   32.912;  -12.800;  611.760
1018.924;   33.303;  -12.340;  716.880
1019.474;   32.311;  -11.410;  718.880
1020.024;   31.171;  -14.770;  657.580
1020.574;   32.841;   -9.780;  726.160
1021.124;   32.148;   -8.560;  673.580
1021.674;   30.785;  -15.190;  559.120
1022.224;   31.623;  -13.530;  708.940
1022.774;   31.884;  -13.280;  668.820
1023.324;   32.495;  -10.690;  753.520
1023.874;   32.927;  -10.240;  875.760
1024.423;   30.775;  -12.540;  613.700
1024.973;   30.194;  -10.010;  610.760
1025.523;   30.553;  -10.550;  620.960
1026.072;   29.100;  -13.560;  606.420
1026.622;   28.531;  -15.120;  675.740
1027.172;   30.566;  -11.260;  715.660
1027.721;   28.886;  -11.410;  601.220
1028.270;   29.577;  -13.530;  663.400
1028.820;   29.244;  -13.680;  638.080
1029.369;   29.071;  -13.520;  612.700
1029.918;   28.605;  -10.980;  649.840
1030.468;   28.751;  -13.530;  564.780
1031.017;   28.868;  -13.170;  634.800
1031.566;   28.059;  -12.200;  608.900
1032.115;   28.095;   -9.960;  694.500
1032.664;   26.996;  -13.210;  596.480
1033.213;   27.573;  -12.500;  735.420
1033.762;   27.054;  -11.910;  635.620
1034.311;   27.396;   -9.640;  677.220
1034.860;   27.744;  -13.310;  691.000
1035.408;   27.548;  -11.830;  722.720
1035.957;   27.210;  -12.000;  719.540
1036.506;   25.283;  -11.690;  530.800
1037.055;   28.411;  -10.990;  844.320
1037.603;   26.410;  -15.120;  664.000
1038.152;   24.747;  -12.450;  534.760
1038.700;   25.141;  -10.560;  585.740
1039.249;   24.575;  -11.080;  681.220
1039.797;   25.024;  -12.540;  633.360
1040.345;   25.210;  -11.920;  705.420
1040.894;   24.878;  -11.410;  625.300
1041.442;   24.421;  -14.320;  632.200
1041.990;   23.656;  -16.240;  559.160
1042.538;   23.411;  -11.680;  536.180
1043.087;   23.101;  -10.760;  570.860
1043.635;   25.114;  -11.850;  670.500
1044.183;   23.534;  -15.480;  586.400
1044.731;   22.856;  -11.770;  576.000
1045.279;   23.492;  -13.090;  674.920
1045.827;   24.637;  -12.440;  892.400
1046.374;   21.720;  -13.840;  515.420
1046.922;   22.185;  -13.220;  590.580
1047.470;   23.844;  -10.230;  691.300
1048.018;   23.080;  -14.590;  647.960
1048.565;   23.431;  -12.050;  708.600
1049.113;   21.705;  -11.650;  557.000
1049.660;   21.930;  -10.510;  629.660
1050.208;   22.914;  -13.310;  675.640
1050.755;   20.766;  -15.900;  606.580
1051.303;   22.175;  -11.430;  686.820
1051.850;   21.377;   -8.480;  635.120
1052.397;   19.439;  -15.010;  473.960
1052.945;   20.631;  -13.960;  617.760
1053.492;   22.145;  -13.150;  741.840
1054.039;   21.300;   -9.630;  720.180
1054.586;   20.375;  -13.680;  557.240
1055.133;   21.188;  -14.570;  693.140
1055.680;   21.222;  -13.820;  646.620
1056.227;   19.985;  -11.730;  542.780
1056.774;   21.687;  -12.480;  794.980
1057.321;   18.736;  -13.930;  523.260
1057.868;   20.081;  -11.690;  651.320
1058.415;   20.060;   -9.520;  651.980
1058.961;   19.711;  -13.160;  678.940
1059.508;   19.245;  -12.920;  643.820
1060.055;   19.596;  -11.920;  581.780
1060.601;   19.202;  -11.500;  624.300
1061.148;   18.865;  -14.330;  616.820
1061.694;   18.054;  -16.870;  592.580
1062.241;   18.933;  -10.330;  596.320
1062.787;   18.873;  -10.620;  663.140
1063.334;   20.561;  -10.110;  808.560
1063.880;   18.553;  -13.400;  668.360
1064.426;   18.613;  -10.680;  706.820
1064.972;   17.956;   -9.920;  601.340
1065.518;   16.824;  -10.980;  566.640
1066.065;   18.211;  -14.890;  624.460
1066.611;   16.966;  -12.870;  598.800
1067.157;   17.459;  -12.950;  641.860
1067.703;   17.918;  -13.540;  668.480
1068.249;   17.658;  -13.540;  605.220
1068.794;   17.465;  -12.600;  626.880
1069.340;   16.454;  -10.620;  578.960
1069.886;   17.084;  -12.830;  590.700
1070.432;   15.593;  -14.870;  541.720
1070.977;   15.597;  -11.980;  601.080
1071.523;   16.020;   -8.200;  573.060
1072.068;   16.278;  -12.330;  582.000
1072.614;   15.195;  -16.370;  527.760
1073.160;   16.994;  -11.100;  687.040
1073.705;   14.958;  -10.480;  572.520
1074.250;   15.555;  -14.520;  559.900
1074.796;   15.674;  -11.460;  655.160
1075.341;   16.281;  -11.950;  664.100
1075.886;   15.500;  -11.460;  594.240
1076.431;   15.126;  -13.770;  649.880
1076.976;   14.597;  -12.680;  639.220
1077.521;   13.649;  -13.170;  583.080
1078.067;   13.946;  -10.860;  579.400
1078.612;   14.956;  -13.920;  661.620
1079.156;   14.789;  -13.880;  601.540
1079.701;   15.067;  -13.120;  693.260
1080.246;   15.586;   -9.940;  696.300
1080.791;   15.038;  -14.740;  625.020
1081.336;   14.470;  -13.750;  659.320
1081.880;   14.520;  -13.400;  649.680
1082.425;   13.670;  -12.220;  573.480
1082.970;   15.391;  -11.610;  717.040
1083.514;   13.754;  -13.580;  597.000
1084.059;   12.409;  -12.810;  586.720
1084.603;   13.422;  -12.320;  565.840
1085.147;   12.944;  -13.190;  645.220
1085.692;   14.276;  -12.480;  716.800
1086.236;   12.474;  -13.020;  503.140
1086.780;   14.910;   -9.190;  751.440
1087.325;   13.517;  -12.480;  654.620
1087.869;   12.947;  -12.450;  610.700
1088.413;   13.382;  -12.240;  705.040
1088.957;   12.022;   -9.020;  543.400
1089.501;   13.881;  -10.320;  766.640
1090.045;   13.334;  -12.720;  726.480
1090.589;   11.113;  -13.690;  569.920
1091.133;   11.950;  -10.020;  673.340
1091.676;   12.639;  -12.330;  591.940
1092.220;   11.476;  -14.970;  600.920
1092.764;   12.509;  -12.430;  706.960
1093.307;   11.853;   -9.800;  673.780
1093.851;    9.926;  -14.970;  556.540
1094.395;   11.912;  -15.310;  683.140
1094.938;   11.171;  -10.370;  632.520
1095.482;   10.910;  -11.050;  559.800
1096.025;   11.585;  -11.840;  710.880
1096.568;   12.597;  -12.840;  779.280
1097.112;    8.878;  -14.700;  508.180
1097.655;   10.679;   -8.720;  603.000
1098.198;    9.890;  -13.610;  600.180
1098.741;    9.770;  -13.350;  612.860
1099.285;   11.491;  -11.230;  657.300
1099.828;    9.163;  -11.840;  439.400
1100.371;    9.768;  -10.840;  608.160
1100.914;   10.185;  -14.190;  682.660
1101.457;    9.814;  -11.240;  679.900
1101.999;    9.312;  -11.270;  584.680
1102.542;    9.829;  -11.480;  641.440
1103.085;    9.519;  -11.750;  658.500
1103.628;    9.905;  -11.400;  762.060
1104.170;    9.867;  -10.490;  588.280
1104.713;    9.771;  -10.600;  646.700
1105.256;    9.098;  -14.360;  557.440
1105.798;    8.048;  -13.210;  499.980
1106.341;   10.337;  -10.270;  728.900
1106.883;    9.188;  -12.200;  521.340
1107.425;    8.606;  -13.110;  668.180
1107.968;    9.107;  -12.840;  612.380
1108.510;    9.894;   -6.480;  684.960
1109.052;    7.482;  -13.940;  612.620
1109.594;    7.968;  -13.690;  554.440
1110.136;    8.443;  -11.880;  643.220
1110.679;    7.798;   -9.500;  633.080
1111.221;    8.498;  -14.160;  604.460
1111.763;    7.777;  -13.980;  559.220
1112.304;    7.276;  -13.880;  547.140
1112.846;    8.192;  -12.210;  666.240
1113.388;    9.983;  -11.390;  942.180
1113.930;    7.326;  -14.540;  694.200
1114.472;    6.672;  -12.640;  606.540
1115.013;    6.335;  -11.620;  551.280
1115.555;    6.207;  -13.640;  587.100
1116.097;    5.886;  -15.380;  579.480
1116.638;    6.616;  -12.640;  684.600
1117.180;    7.447;   -9.850;  667.740
1117.721;    6.529;  -13.690;  568.580
1118.262;    7.564;  -12.680;  677.960
1118.804;    7.220;  -12.530;  637.340
1119.345;    6.164;  -11.690;  578.400
1119.886;    6.764;  -13.380;  704.040
1120.427;    6.286;  -14.070;  589.020
1120.969;    5.602;  -13.500;  597.920
1121.510;    5.449;  -11.480;  563.060
1122.051;    6.035;  -12.830;  723.580
1122.592;    5.054;  -14.290;  655.420
1123.133;    4.108;  -12.400;  547.940
1123.673;    6.172;  -10.130;  706.480
1124.214;    5.194;  -12.930;  612.460
1124.755;    6.700;  -14.380;  639.460
1125.296;    5.620;  -14.000;  627.320
1125.836;    6.026;  -10.070;  691.500
1126.377;    5.228;  -12.640;  599.660
1126.918;    5.472;  -12.960;  614.980
1127.458;    4.295;  -13.350;  622.220
1127.999;    5.610;  -10.750;  656.980
1128.539;    5.203;  -12.350;  694.240
1129.079;    5.024;  -14.860;  632.720
1129.620;    3.941;  -13.840;  558.100
1130.160;    4.446;  -12.330;  539.480
1130.700;    4.165;  -14.530;  640.840
1131.240;    5.037;  -12.530;  643.700
1131.781;    4.048;  -14.450;  619.680
1132.321;    3.898;   -9.790;  599.120
1132.861;    3.184;  -14.860;  564.200
1133.401;    3.543;  -14.290;  593.940
1133.941;    4.311;  -11.750;  626.280
1134.481;    3.750;   -9.920;  597.580
1135.020;    2.897;  -12.290;  609.160
1135.560;    3.521;  -11.650;  674.940
1136.100;    2.466;  -16.270;  501.160
1136.640;    2.986;  -10.890;  510.480
1137.179;    3.576;  -14.180;  537.960
1137.719;    3.668;  -16.250;  605.400
1138.258;    3.130;  -14.230;  587.360
1138.798;    3.590;   -9.090;  663.780
1139.337;    1.525;  -15.130;  482.840
1139.877;    2.778;  -13.680;  642.360
1140.416;    5.215;  -11.320;  878.060
1140.955;    2.343;  -10.860;  535.380
1141.494;    2.799;  -12.920;  669.280
1142.034;    2.591;  -13.930;  583.520
1142.573;    3.397;  -11.440;  646.280
1143.112;    1.992;  -12.000;  553.480
1143.651;    2.832;  -13.670;  536.480
1144.190;    2.913;  -12.730;  691.640
1144.729;    2.437;  -14.560;  607.420
1145.267;    2.429;  -11.830;  584.900
1145.806;    2.757;  -12.230;  637.040
1146.345;    1.638;  -14.130;  635.020
1146.884;    2.000;  -11.590;  622.500
1147.422;    1.008;  -12.550;  533.060
1147.961;    2.598;  -11.180;  708.460
1148.500;    2.413;  -11.510;  669.720
1149.038;    2.803;  -11.640;  632.500
1149.577;    2.302;  -10.130;  698.640
1150.115;    0.202;  -13.970;  452.280
1150.653;    1.486;  -14.520;  607.340
1151.192;    0.617;  -12.810;  552.920
1151.730;    1.660;   -9.100;  652.560
1152.268;    0.655;  -12.220;  589.520
1152.806;    0.630;  -14.140;  571.180
1153.344;   -0.497;  -12.350;  577.640
1153.882;    0.844;   -8.980;  600.060
1154.421;   -1.056;  -15.190;  470.620
1154.958;    0.291;  -15.210;  595.240
1155.496;    2.121;  -12.850;  645.280
1156.034;    1.094;   -9.940;  721.880
1156.572;    1.815;  -13.570;  667.060
1157.110;   -0.347;  -14.590;  473.940
1157.647;    0.930;  -13.030;  676.960
1158.185;   -0.461;  -12.140;  564.320
1158.723;   -0.229;  -14.390;  509.200
1159.260;    0.431;  -14.090;  701.700
1159.798;    0.636;  -11.920;  658.160
1160.335;   -0.327;  -11.110;  631.820

