
Integration time [ms]:   3.276
Averaging Nr. [scans]: 1000
Smoothing Nr. [pixels]: 0
Data measured with spectrometer [name]: 7414430SP
Wave   ;Sample   ;Dark     ;Reference
[nm]   ;[counts] ;[counts] ;[counts] 

288.544;  157.458;    7.793;  793.890
289.143;  161.145;    7.462;  681.602
289.742;  162.030;    8.602;  828.814
290.341;  149.002;    1.321;  789.841
290.940;  138.944;   -0.709;  730.702
291.538;  139.236;    0.881;  881.108
292.137;  138.184;    0.122;  792.581
292.736;  140.965;   -1.929;  975.101
293.335;  138.169;   -8.229;  735.086
293.934;  138.969;   -5.279;  781.677
294.532;  138.372;   -1.369; 1031.958
295.131;  124.544;   -7.641;  834.394
295.730;  124.112;   -8.420;  809.588
296.328;  122.676;   -5.611;  783.442
296.927;  122.146;   -5.781;  779.652
297.525;  123.023;   -6.361;  781.236
298.124;  113.661;  -11.382;  654.009
298.722;  118.601;   -7.641;  761.933
299.321;  115.741;   -6.811;  708.597
299.919;  113.296;   -6.991;  751.918
300.518;  109.935;  -10.362;  689.338
301.116;  111.575;   -9.581;  691.381
301.715;  110.611;   -4.891;  730.222
302.313;  110.406;   -8.801;  704.943
302.911;  104.959;   -8.522;  733.830
303.509;  110.600;   -6.171;  925.627
304.108;  108.007;   -7.311;  760.383
304.706;  107.099;   -8.321;  801.664
305.304;  102.565;  -10.222;  796.707
305.902;  107.474;   -6.021;  784.484
306.500;  102.291;   -4.971;  728.200
307.098;  100.103;   -7.061;  746.560
307.696;   98.720;   -8.801;  780.432
308.294;   99.981;   -6.411;  731.359
308.892;  101.588;   -2.901;  759.769
309.490;   97.439;   -5.041;  712.161
310.088;   95.016;   -5.002;  788.444
310.686;   99.381;   -2.041;  821.749
311.284;   95.916;   -2.351;  766.040
311.882;   93.092;   -4.422;  731.225
312.480;   89.959;   -4.192;  697.167
313.078;   90.872;   -1.172;  808.331
313.675;   93.316;   -2.601;  691.600
314.273;   86.982;   -1.312;  797.837
314.871;   86.000;   -3.942;  589.829
315.468;   84.319;   -2.802;  652.090
316.066;   87.222;   -0.701;  694.427
316.664;   79.788;   -4.362;  656.351
317.261;   83.698;   -2.872;  910.128
317.859;   79.392;   -2.022;  768.735
318.456;   80.251;   -0.531;  830.096
319.054;   74.663;   -3.912;  787.828
319.651;   74.551;   -4.752;  759.928
320.249;   73.246;   -2.602;  810.188
320.846;   71.112;   -0.821;  714.286
321.443;   67.702;   -4.642;  832.135
322.041;   65.674;   -5.002;  812.315
322.638;   63.005;   -3.982;  701.456
323.235;   64.572;   -3.411;  665.683
323.833;   60.122;   -7.361;  740.354
324.430;   56.574;   -8.611;  615.900
325.027;   56.961;   -4.061;  876.855
325.624;   57.129;   -4.031;  644.532
326.221;   53.824;   -7.481;  689.717
326.818;   53.247;   -5.281;  818.332
327.415;   55.728;   -7.460;  748.828
328.012;   55.594;   -5.510;  690.585
328.609;   53.747;   -7.880;  731.389
329.206;   51.953;   -8.331;  778.621
329.803;   50.930;   -5.121;  737.841
330.400;   54.832;   -4.510;  704.260
330.997;   56.608;   -6.441;  817.147
331.594;   54.956;   -8.831;  788.185
332.191;   60.361;   -7.621;  728.722
332.787;   62.549;   -4.591;  844.463
333.384;   63.741;   -7.412;  763.093
333.981;   61.403;   -8.293;  815.687
334.578;   63.849;   -7.052;  708.378
335.174;   66.854;   -3.102;  731.469
335.771;   65.436;   -5.943;  836.456
336.367;   63.758;   -7.393;  710.631
336.964;   67.168;   -4.063;  793.266
337.561;   65.779;   -3.813;  731.112
338.157;   61.389;   -4.654;  911.916
338.754;   60.322;   -7.934;  796.589
339.350;   58.065;   -4.414;  722.493
339.946;   59.412;   -4.664;  773.135
340.543;   51.156;   -6.375;  846.136
341.139;   45.857;   -9.815;  720.836
341.735;   42.134;   -4.526;  772.593
342.332;   41.092;   -4.895;  691.472
342.928;   41.766;   -4.295;  795.394
343.524;   34.724;   -5.476;  761.684
344.120;   30.977;   -5.856;  738.562
344.716;   34.303;   -2.155;  723.717
345.313;   32.197;   -6.275;  795.342
345.909;   26.205;   -8.815;  627.336
346.505;   28.700;   -5.305;  740.247
347.101;   28.607;   -2.674;  827.864
347.697;   29.036;   -4.344;  785.398
348.293;   23.753;   -9.975;  627.244
348.889;   25.016;   -5.774;  745.914
349.485;   23.297;   -5.004;  688.205
350.081;   24.284;   -4.704;  772.592
350.676;   19.677;   -6.635;  691.606
351.272;   23.861;   -4.504;  809.530
351.868;   23.918;   -3.914;  780.497
352.464;   21.008;   -9.044;  723.932
353.059;   16.670;   -8.314;  646.017
353.655;   20.251;   -7.024;  777.063
354.251;   21.360;   -5.343;  759.845
354.846;   15.633;   -8.604;  740.646
355.442;   13.999;   -6.945;  753.071
356.038;   15.196;   -7.564;  751.708
356.633;   15.587;   -5.814;  728.594
357.229;   13.267;   -7.364;  724.757
357.824;   11.649;   -8.024;  703.600
358.420;   10.950;   -9.384;  679.726
359.015;   11.154;   -5.104;  695.357
359.610;   12.455;   -6.854;  763.920
360.206;    6.330;  -10.185;  603.240
360.801;    8.991;   -7.054;  646.503
361.396;   11.136;   -5.034;  725.975
361.992;    6.695;   -8.284;  668.220
362.587;    4.173;   -8.625;  670.160
363.182;    5.807;   -7.674;  689.631
363.777;    5.582;   -5.164;  738.242
364.372;    5.709;   -8.604;  737.314
364.967;    2.390;   -9.055;  680.744
365.563;    6.303;   -6.114;  815.567
366.158;    3.207;   -5.814;  685.161
366.753;    3.937;   -7.854;  649.263
367.348;    2.167;   -7.804;  746.056
367.942;    2.005;   -7.954;  697.298
368.537;    1.481;   -4.984;  754.245
369.132;    1.912;   -8.564;  703.428
369.727;   -2.353;   -8.855;  638.079
370.322;   -1.524;   -6.245;  580.186
370.917;   -2.190;   -6.425;  710.646
371.511;    0.893;   -6.294;  861.834
372.106;   -2.115;   -7.685;  776.964
372.701;   -4.838;   -7.335;  585.988
373.296;   -0.082;   -4.564;  863.135
373.890;   -4.646;  -10.235;  647.840
374.485;   -6.893;   -7.885;  691.199
375.079;   -3.414;   -7.324;  738.685
375.674;   -1.587;   -3.494;  812.970
376.268;   -6.562;   -8.525;  691.759
376.863;  -11.960;  -10.086;  580.327
377.457;   -5.340;   -7.025;  662.490
378.052;   -7.585;   -3.585;  764.884
378.646;   -8.410;   -7.595;  741.167
379.240;   -8.848;   -8.335;  721.176
379.835;   -8.536;   -5.785;  636.978
380.429;  -10.284;   -4.335;  562.557
381.023;  -10.442;   -6.805;  779.205
381.617;  -12.065;   -9.195;  680.106
382.212;   -9.310;   -6.905;  685.303
382.806;   -7.937;   -3.745;  760.690
383.400;  -12.637;   -7.745;  672.281
383.994;  -13.385;   -9.765;  664.870
384.588;   -9.717;   -6.564;  697.701
385.182;   -7.994;   -5.344;  726.624
385.776;  -10.024;   -8.514;  706.875
386.370;  -12.674;   -9.555;  681.968
386.964;  -12.018;   -8.715;  684.155
387.558;   -9.905;   -6.174;  598.360
388.152;  -14.248;   -8.725;  681.959
388.745;  -11.876;   -7.965;  814.707
389.339;  -11.015;   -5.924;  747.642
389.933;   -9.598;   -5.524;  695.370
390.527;  -11.194;   -7.114;  859.029
391.120;  -16.841;  -10.725;  595.318
391.714;  -14.242;   -8.035;  711.633
392.308;  -10.793;   -3.574;  780.253
392.901;  -14.048;   -7.245;  642.460
393.495;  -15.977;   -9.285;  595.414
394.089;  -14.001;   -5.895;  760.452
394.682;  -14.900;   -4.295;  697.188
395.275;  -15.676;   -9.875;  719.927
395.869;  -16.289;   -8.485;  667.314
396.462;  -14.853;   -7.455;  616.609
397.056;  -11.584;   -5.424;  776.621
397.649;  -15.926;   -6.605;  731.575
398.242;  -13.107;   -8.224;  712.645
398.836;  -12.973;   -7.474;  766.408
399.429;  -14.238;   -7.094;  631.041
400.022;  -17.079;   -9.475;  665.902
400.615;  -14.694;   -7.145;  805.609
401.208;  -12.231;   -7.174;  691.451
401.802;  -14.880;   -5.515;  699.329
402.395;  -16.754;   -9.875;  683.502
402.988;  -16.964;   -8.845;  696.627
403.581;  -14.834;   -8.874;  646.878
404.174;  -11.712;   -5.324;  686.568
404.767;  -14.505;   -9.575;  638.583
405.360;  -16.762;  -10.965;  621.445
405.953;  -12.246;   -8.764;  759.034
406.545;  -11.224;   -7.514;  725.342
407.138;  -15.640;  -10.025;  618.350
407.731;  -14.374;  -10.034;  613.303
408.324;  -10.361;   -9.374;  660.554
408.917;  -10.906;   -6.534;  681.864
409.509;  -12.970;   -8.004;  740.396
410.102;  -15.347;   -9.875;  643.948
410.695;   -9.985;   -8.604;  665.758
411.287;  -10.270;   -6.794;  599.821
411.880;  -11.923;   -9.334;  585.421
412.472;  -14.544;  -10.254;  613.092
413.065;  -11.851;   -6.714;  629.408
413.657;   -9.442;   -7.234;  576.678
414.250;  -10.223;  -10.544;  646.681
414.842;  -11.394;   -9.744;  676.353
415.434;   -9.310;   -6.994;  570.463
416.027;   -5.322;   -5.893;  652.196
416.619;   -7.859;   -7.264;  713.400
417.211;   -7.903;  -10.374;  599.352
417.804;   -3.337;   -7.993;  628.499
418.396;   -8.278;   -7.234;  607.643
418.988;   -6.221;   -9.443;  659.238
419.580;   -8.942;  -10.724;  568.276
420.172;   -7.117;  -10.323;  536.196
420.764;   -2.637;   -8.793;  672.482
421.356;   -4.389;  -11.143;  636.898
421.948;   -5.361;   -8.293;  677.661
422.540;    0.161;   -7.893;  680.027
423.132;   -0.983;   -7.082;  600.641
423.724;   -4.372;   -8.653;  561.267
424.316;   -1.695;  -10.213;  621.345
424.908;    0.688;   -9.762;  591.517
425.500;    2.164;   -5.572;  647.978
426.092;    2.616;   -8.422;  648.268
426.683;    1.206;   -9.283;  684.836
427.275;    4.087;   -7.852;  641.471
427.867;    5.540;   -5.272;  668.948
428.458;    6.545;   -7.682;  732.344
429.050;    4.582;  -10.612;  680.749
429.642;    6.599;   -9.882;  743.124
430.233;    7.100;   -6.962;  569.356
430.825;    8.208;   -6.842;  724.809
431.416;    5.777;   -9.672;  698.241
432.008;    9.639;   -6.552;  651.723
432.599;   10.370;   -6.891;  656.073
433.190;    7.118;  -10.912;  637.670
433.782;    6.103;  -11.172;  590.395
434.373;   14.346;   -6.061;  884.765
434.964;   12.571;   -8.251;  602.920
435.556;    9.940;   -9.722;  634.537
436.147;   13.292;   -9.082;  758.490
436.738;   13.020;   -8.041;  701.099
437.329;   18.262;   -7.341;  721.723
437.920;   10.762;   -8.162;  666.688
438.511;   10.503;  -11.802;  564.526
439.103;   17.244;  -10.191;  623.998
439.694;   20.093;   -7.601;  681.583
440.285;   19.917;   -8.541;  764.432
440.876;   18.494;   -9.751;  845.738
441.466;   18.050;   -9.401;  575.162
442.057;   22.971;   -7.760;  665.814
442.648;   22.222;   -9.971;  746.255
443.239;   19.891;  -11.001;  620.477
443.830;   25.482;   -7.990;  704.958
444.421;   27.544;   -7.910;  655.474
445.011;   23.002;   -8.131;  693.619
445.602;   23.328;   -7.111;  743.126
446.193;   24.885;  -10.920;  488.117
446.783;   29.099;   -6.500;  640.397
447.374;   24.447;   -8.671;  692.759
447.964;   25.571;  -10.781;  713.770
448.555;   33.763;   -9.650;  822.742
449.145;   30.316;   -8.660;  662.853
449.736;   30.220;   -8.990;  803.179
450.326;   30.602;   -9.500;  713.626
450.917;   35.108;   -8.680;  675.324
451.507;   34.669;   -7.520;  600.661
452.097;   34.696;   -8.590;  746.267
452.688;   36.061;  -11.340;  742.160
453.278;   35.724;  -10.100;  566.840
453.868;   40.357;   -6.019;  793.550
454.458;   38.060;   -9.440;  651.141
455.048;   39.402;  -10.560;  711.783
455.639;   39.886;  -11.799;  567.096
456.229;   43.634;   -6.899;  710.694
456.819;   45.416;   -7.389;  751.158
457.409;   45.504;  -11.119;  773.993
457.999;   48.855;   -9.289;  737.505
458.589;   48.177;   -6.139;  686.606
459.179;   47.693;   -8.729;  717.658
459.769;   46.184;   -9.789;  627.099
460.358;   51.050;  -10.259;  797.262
460.948;   51.136;   -7.299;  689.503
461.538;   52.438;  -10.289;  660.677
462.128;   51.317;  -11.269;  664.934
462.717;   57.314;   -9.368;  710.326
463.307;   60.538;   -7.908;  705.846
463.897;   55.751;   -9.599;  656.942
464.486;   54.949;   -9.769;  837.128
465.076;   59.977;   -8.048;  733.776
465.666;   63.876;   -9.358;  652.900
466.255;   60.345;   -7.919;  785.651
466.845;   59.675;  -11.689;  666.749
467.434;   62.456;   -7.818;  725.873
468.023;   64.351;   -7.678;  658.357
468.613;   61.639;  -10.939;  713.946
469.202;   66.100;  -10.118;  646.507
469.791;   70.075;   -9.108;  737.811
470.381;   71.957;   -6.058;  742.813
470.970;   71.057;  -10.428;  711.099
471.559;   71.376;  -10.268;  733.291
472.148;   74.739;   -8.448;  675.737
472.738;   77.263;   -6.917;  765.466
473.327;   76.893;  -11.978;  637.529
473.916;   76.299;  -11.888;  737.446
474.505;   80.018;   -9.437;  751.703
475.094;   83.346;   -6.747;  806.570
475.683;   81.438;   -9.367;  797.699
476.272;   83.158;  -12.637;  730.632
476.861;   85.776;  -10.027;  706.754
477.449;   93.138;   -8.716;  728.487
478.038;   87.277;   -9.577;  692.513
478.627;   88.410;   -9.718;  714.852
479.216;   94.892;   -8.947;  769.441
479.805;   97.405;   -6.256;  783.375
480.393;   97.328;   -7.937; 1008.945
480.982;   97.301;   -7.717;  874.501
481.571;  103.289;   -9.266;  858.333
482.159;  104.040;   -7.636;  705.386
482.748;  103.613;   -9.667;  821.385
483.336;  108.343;  -10.376;  858.209
483.925;  109.376;   -7.147;  774.373
484.513;  115.378;   -7.996;  758.962
485.102;  112.281;  -10.027;  810.965
485.690;  120.730;  -10.446; 1011.050
486.278;  121.919;   -8.446;  979.329
486.867;  123.345;   -6.356;  809.662
487.455;  125.561;   -9.136;  898.229
488.043;  127.424;  -10.646;  748.361
488.631;  135.297;   -7.456; 1005.079
489.220;  138.983;   -6.636;  908.626
489.808;  139.983;  -11.036;  741.415
490.396;  147.513;  -10.246;  914.645
490.984;  154.514;   -8.556;  830.161
491.572;  165.103;   -5.886;  940.315
492.160;  172.463;   -9.486;  919.081
492.748;  182.848;  -10.976;  884.341
493.336;  205.544;   -8.776; 1019.693
493.924;  235.841;   -5.465;  958.077
494.512;  271.716;   -9.986; 1066.638
495.100;  316.304;  -10.636; 1103.280
495.687;  381.041;  -10.885; 1206.373
496.275;  464.054;   -8.126; 1150.796
496.863;  545.767;  -10.586; 1281.171
497.451;  658.091;  -11.926; 1386.805
498.038;  765.288;  -10.885; 1556.729
498.626;  890.895;   -6.315; 1741.407
499.214; 1101.176;   -7.326; 2016.609
499.801; 1338.735;  -11.906; 2220.633
500.389; 1646.454;  -10.466; 2312.494
500.976; 1933.264;   -5.236; 2744.849
501.564; 2403.082;   -8.936; 3148.565
502.151; 3044.778;  -13.176; 3515.999
502.738; 3418.545;  -10.646; 3971.274
503.326; 3824.496;   -9.525; 4403.796
503.913; 4274.430;  -10.856; 5161.749
504.500; 4717.826;  -11.586; 5986.420
505.088; 5278.760;  -10.336; 6381.201
505.675; 6152.218;   -6.355; 6925.547
506.262; 6743.926;   -9.046; 7619.060
506.849; 7138.706;  -10.416; 8733.969
507.436; 7589.938;  -10.305; 9790.121
508.023; 7953.198;   -5.496; 9985.472
508.610; 8040.063;   -7.856;10434.618
509.197; 8999.177;  -10.097;11198.435
509.784;10296.889;  -10.886;12391.194
510.371;11705.734;   -9.315;13603.713
510.958;12749.296;   -9.936;14426.586
511.545;13220.172;   -9.326;15243.775
512.132;13421.977;  -10.075;15945.876
512.719;13971.738;   -7.796;16340.369
513.305;15186.659;  -10.606;18011.766
513.892;16704.789;  -11.486;19754.971
514.479;17982.729;   -9.126;20967.805
515.066;19396.348;   -6.026;22299.793
515.652;19545.188;   -8.466;22908.660
516.239;20047.773;  -10.886;23798.875
516.825;21418.869;  -11.496;25567.275
517.412;22955.389;   -5.796;28154.959
517.998;24217.502;  -10.506;28344.111
518.585;25060.375;  -10.076;27134.219
519.171;24627.500;   -8.315;27268.576
519.758;25248.057;   -8.596;28964.129
520.344;27691.826;   -8.466;30664.494
520.930;26794.643;  -11.006;32550.605
521.516;25255.268;  -10.495;35422.895
522.103;26966.264;   -5.526;38280.004
522.689;29258.607;   -8.746;37835.117
523.275;30402.572;  -11.376;37288.613
523.861;32368.385;  -11.156;37281.395
524.447;32044.738;   -8.135;37846.949
525.033;32310.652;   -7.896;38321.949
525.619;33045.930;  -12.476;38579.285
526.205;33194.012;   -9.516;40622.875
526.791;32824.566;   -6.926;42258.836
527.377;32747.531;   -8.346;42966.902
527.963;34401.602;   -8.717;42018.949
528.549;35870.699;  -11.016;42476.828
529.135;34519.363;   -8.536;41854.852
529.721;34460.133;   -9.666;41237.711
530.306;33585.277;  -10.066;41259.445
530.892;34733.508;  -11.356;41506.047
531.478;36791.777;   -6.596;43559.613
532.063;38673.496;   -8.836;47695.563
532.649;37004.484;  -10.047;50808.324
533.235;36969.375;   -9.746;51787.500
533.820;39295.039;   -6.566;52145.035
534.406;40849.070;  -10.817;51133.488
534.991;42694.520;   -9.416;49996.805
535.576;41460.777;   -9.036;48882.852
536.162;38962.934;   -6.156;46942.285
536.747;39188.199;  -11.607;45711.746
537.333;41921.086;  -11.787;48510.180
537.918;42957.848;  -12.437;50439.891
538.503;42517.063;   -7.196;50863.711
539.088;43119.719;  -10.556;50906.922
539.673;44034.508;   -8.767;52621.965
540.259;40977.715;  -10.026;52368.094
540.844;40253.285;   -7.416;50879.109
541.429;39865.793;   -9.467;52077.777
542.014;39471.117;   -9.527;52716.695
542.599;42600.738;   -9.946;52363.281
543.184;43953.000;   -7.927;53187.137
543.769;44008.102;   -9.297;54697.605
544.354;44279.137;  -10.127;53913.914
544.938;42246.199;   -9.267;49680.164
545.523;40397.563;   -6.506;47386.277
546.108;42065.008;   -9.787;49151.949
546.693;42954.574;  -11.587;51384.637
547.278;43320.109;  -10.986;51853.254
547.862;43575.078;   -8.206;51173.750
548.447;41862.781;  -10.067;51691.395
549.031;41837.332;   -9.637;52456.703
549.616;42400.797;   -9.926;52714.516
550.201;41598.422;   -6.347;52414.598
550.785;42685.340;   -7.917;52355.059
551.370;43710.648;  -10.867;54589.453
551.954;45767.535;   -9.047;58267.348
552.538;45066.027;   -7.827;59062.176
553.123;43109.078;  -10.287;58115.285
553.707;42354.520;  -12.178;56556.285
554.291;39854.766;   -8.717;56201.668
554.876;41004.734;   -7.457;55335.762
555.460;43038.836;  -10.387;54155.703
556.044;44465.875;   -9.618;53721.484
556.628;45180.430;  -11.567;53731.016
557.212;45723.281;   -8.097;54312.531
557.796;47113.672;  -11.077;53797.773
558.380;45186.543;  -11.108;56145.984
558.964;43638.730;   -9.057;57277.930
559.548;41413.184;   -6.977;56459.641
560.132;38250.250;  -11.457;54434.543
560.716;39671.086;  -11.378;54800.617
561.300;41921.961;   -9.577;57606.945
561.884;40673.082;   -7.127;58972.445
562.467;39025.688;   -7.118;57327.570
563.051;37688.574;  -13.358;54962.434
563.635;35890.977;  -10.178;52594.473
564.219;37732.887;   -7.837;50610.410
564.802;41087.340;  -11.398;49551.180
565.386;41390.883;  -12.788;48370.953
565.969;42600.141;   -9.077;48178.871
566.553;41583.184;   -6.207;49957.305
567.136;39921.457;   -8.568;50369.594
567.720;40921.656;  -11.868;49492.004
568.303;41986.707;   -8.268;50616.352
568.887;41335.688;   -8.698;50727.148
569.470;39149.078;   -6.808;51698.379
570.053;36910.926;  -13.188;52122.078
570.637;34754.438;  -12.037;52536.438
571.220;34801.246;   -8.577;51186.098
571.803;34816.633;   -8.498;51032.762
572.386;36653.078;  -10.498;49609.887
572.969;37160.824;   -9.388;48285.926
573.552;36996.324;   -8.338;47624.285
574.135;35640.676;   -8.518;45498.641
574.718;32272.594;  -13.628;41970.434
575.301;33169.332;  -10.893;41447.137
575.884;34066.070;   -8.158;40923.836
576.467;38608.078;  -10.328;45267.723
577.050;38888.410;  -13.058;48175.543
577.633;37752.391;   -9.458;47729.328
578.216;34537.387;   -8.928;47579.793
578.799;32214.107;   -9.358;47820.996
579.381;33656.441;  -11.388;48115.551
579.964;34124.305;  -11.718;47333.766
580.547;33030.586;   -8.588;46668.969
581.129;33645.281;   -8.859;44466.141
581.712;35326.832;  -10.729;44164.922
582.294;35028.535;  -11.118;46477.855
582.877;35713.781;   -5.218;48244.254
583.459;35784.180;   -8.679;47437.895
584.042;36952.195;  -10.709;46943.219
584.624;35018.703;  -11.669;46792.227
585.206;33822.426;   -8.218;46557.250
585.789;34819.633;  -10.569;45793.773
586.371;35138.156;  -11.859;43836.391
586.953;35907.078;  -10.719;42972.492
587.536;37206.625;   -7.198;42487.211
588.118;36330.402;   -8.720;42086.414
588.700;35302.152;  -10.439;43389.930
589.282;32709.055;   -9.198;43646.039
589.864;30531.855;   -9.199;43438.109
590.446;30222.672;  -11.319;43151.926
591.028;29370.533;  -11.159;42781.867
591.610;28845.152;  -11.779;42839.098
592.192;28622.896;   -7.668;42820.402
592.774;26551.611;  -11.949;40724.277
593.356;24957.344;  -12.129;39874.789
593.937;26692.115;  -10.669;39980.648
594.519;30838.785;   -6.509;42069.633
595.101;31849.111;  -10.849;42976.031
595.683;30937.020;  -11.679;44084.441
596.264;30207.570;   -9.049;43478.797
596.846;29989.502;   -8.849;43803.672
597.427;29967.402;   -9.570;42986.934
598.009;31625.939;  -12.620;42832.219
598.591;31666.039;  -10.039;42580.086
599.172;33737.418;  -10.369;43061.805
599.753;35909.707;   -9.140;41691.469
600.335;35260.027;  -11.430;40692.520
600.916;32765.088;   -9.939;39982.422
601.498;29739.627;   -8.479;40318.617
602.079;29288.299;  -10.920;40670.609
602.660;29008.539;  -11.480;41450.898
603.241;29828.805;  -11.699;41137.738
603.823;30085.016;   -9.579;38868.797
604.404;29680.344;  -10.620;38182.785
604.985;32517.855;  -10.450;38078.047
605.566;33401.398;   -9.129;38056.633
606.147;34270.555;   -7.510;37020.418
606.728;33150.305;  -10.660;37883.359
607.309;31447.207;  -11.740;38748.273
607.890;31263.357;   -9.759;38850.230
608.471;29984.408;   -8.250;37457.918
609.051;30154.273;   -9.240;36066.457
609.632;30044.813;  -12.120;35991.074
610.213;29555.279;   -9.110;37402.641
610.794;30690.025;   -8.030;38383.363
611.374;29535.459;   -8.110;40562.387
611.955;29322.643;  -13.560;38533.727
612.536;30350.482;  -11.400;36951.789
613.116;29910.115;   -8.070;37197.891
613.697;30760.607;  -10.830;38411.125
614.277;30517.307;  -11.641;38673.938
614.858;29868.381;  -13.310;37075.863
615.438;29951.689;   -7.460;35092.906
616.019;28088.500;   -7.601;33666.301
616.599;28773.133;  -12.020;34189.023
617.179;28572.322;  -11.780;36952.047
617.760;27483.654;   -8.570;39582.574
618.340;28008.270;  -11.471;38943.977
618.920;28605.676;  -11.170;37594.156
619.500;29580.701;  -11.071;37866.938
620.080;30050.324;   -7.750;37869.043
620.660;30216.449;  -12.711;36868.617
621.241;30915.871;  -10.211;36352.309
621.821;30466.486;  -10.961;35459.520
622.401;30675.008;   -7.720;35207.414
622.980;32664.600;   -8.981;35980.422
623.560;31506.109;   -9.331;37351.328
624.140;27258.941;   -9.850;34388.582
624.720;23337.486;   -7.451;32368.764
625.300;23000.725;   -9.070;32638.629
625.880;27127.092;  -12.601;34599.035
626.459;30204.717;  -11.751;36831.738
627.039;30219.385;   -9.281;38299.098
627.619;29329.594;   -8.801;38289.574
628.198;29476.039;  -12.071;37220.695
628.778;30294.066;   -9.461;37632.563
629.357;31054.631;   -8.491;38003.012
629.937;30740.969;   -9.721;38402.039
630.516;31490.695;   -9.951;37868.801
631.096;32679.775;  -11.731;35760.410
631.675;35021.570;   -8.572;35225.219
632.254;34950.094;  -11.282;35130.289
632.834;33612.586;  -13.322;35794.570
633.413;34388.191;  -10.301;35788.922
633.992;34452.719;   -8.582;34532.863
634.571;35330.160;   -8.352;33590.113
635.151;34611.227;  -11.912;34943.863
635.730;32377.982;  -10.511;35352.523
636.309;32138.732;   -7.731;35366.605
636.888;31571.623;   -9.952;36165.637
637.467;30936.912;  -11.672;37515.902
638.046;29464.500;   -8.901;39288.695
638.625;28803.508;   -7.912;38279.699
639.204;28173.998;  -10.022;37741.598
639.782;29377.314;  -12.252;38364.551
640.361;31545.885;  -10.041;36740.621
640.940;31463.865;  -11.161;34950.082
641.519;30950.188;   -9.701;34137.398
642.097;32070.535;  -11.271;35654.258
642.676;32114.086;   -8.651;35637.957
643.255;31090.150;   -8.711;36567.074
643.833;30569.014;   -9.581;37809.434
644.412;31363.203;  -13.711;37337.293
644.990;32742.980;  -11.811;37018.531
645.569;35518.344;   -9.411;36518.469
646.147;36206.477;  -10.291;36186.430
646.726;34295.117;  -12.401;36267.688
647.304;32673.010;  -10.411;36647.625
647.882;33279.750;   -9.651;39286.742
648.461;33029.363;   -9.631;39157.703
649.039;30708.170;  -11.881;35412.883
649.617;30596.982;   -9.661;34744.918
650.195;31148.840;   -9.301;35403.098
650.773;30413.629;  -10.511;35053.797
651.352;30275.852;  -11.521;33756.816
651.930;29057.865;  -12.211;31868.773
652.508;28026.553;   -9.171;33121.551
653.086;29279.854;   -9.371;33564.793
653.663;31521.744;  -13.161;34054.668
654.241;30514.738;  -13.031;35693.309
654.819;28701.311;   -9.371;36422.906
655.397;29341.721;  -10.511;38213.484
655.975;29550.623;  -10.371;39507.625
656.553;30328.174;  -10.051;39498.223
657.130;31081.445;  -10.061;40395.480
657.708;28052.990;   -9.561;39242.020
658.286;25368.283;  -11.511;38920.020
658.863;25701.771;  -10.261;40202.898
659.441;28492.516;   -7.531;39677.938
660.018;31197.584;   -9.501;40413.355
660.596;31969.766;  -13.301;39931.414
661.173;34634.090;  -11.211;39604.531
661.750;33721.754;   -9.951;39700.070
662.328;31067.061;   -9.390;39292.809
662.905;29755.377;  -11.330;38235.648
663.482;26990.666;   -9.050;36212.305
664.060;24660.334;   -8.240;35944.945
664.637;28630.465;  -10.050;35170.785
665.214;33346.125;  -11.760;34197.523
665.791;32234.123;  -10.530;34549.520
666.368;31768.174;   -9.690;35118.578
666.945;32019.316;   -9.320;36019.418
667.522;32894.539;  -11.860;36048.438
668.099;31989.615;  -10.770;36243.914
668.676;31961.402;   -6.260;35958.875
669.253;34051.461;   -7.000;37384.730
669.830;34427.594;  -10.190;36779.629
670.407;33374.520;   -9.550;35231.289
670.984;32776.168;   -9.260;35544.270
671.560;31176.947;   -9.280;35466.867
672.137;29457.836;  -11.810;34280.863
672.714;29560.018;  -11.490;34632.863
673.290;30433.533;   -7.740;35135.422
673.867;30899.568;  -10.660;36114.480
674.443;30227.230;  -12.230;36152.859
675.020;28749.068;  -10.450;35327.238
675.596;27338.512;   -9.260;35795.176
676.173;28074.502;  -10.780;35430.355
676.749;28714.807;  -13.690;33549.516
677.326;29934.479;  -11.980;32210.012
677.902;28169.590;   -8.630;32068.871
678.478;26244.428;  -10.730;32583.891
679.054;27852.359;  -10.520;32088.928
679.631;29274.826;  -11.920;30978.848
680.207;30452.658;   -7.490;33160.887
680.783;31673.332;   -9.860;35570.363
681.359;32160.467;  -13.380;36125.184
681.935;30739.377;  -12.480;35240.922
682.511;31307.418;   -7.900;34429.961
683.087;32008.439;   -7.710;34463.680
683.663;32731.395;  -11.480;34648.898
684.239;32258.205;  -14.090;34546.457
684.815;33142.633;   -7.560;35586.375
685.390;33294.871;   -9.910;35821.895
685.966;33013.145;  -11.159;35085.871
686.542;33581.859;  -11.169;34198.230
687.118;32022.289;   -5.959;32847.707
687.693;32135.918;  -10.329;32794.027
688.269;31576.740;  -12.059;33072.367
688.844;32233.859;  -10.909;33141.664
689.420;33447.402;   -8.019;33965.742
689.995;30294.633;   -8.399;34655.523
690.571;29490.041;  -10.949;33576.742
691.146;28787.801;   -9.619;32657.219
691.722;26753.070;   -8.999;32526.979
692.297;25793.387;  -11.589;33014.617
692.872;26575.867;  -11.739;34012.254
693.448;26834.199;  -11.059;34237.434
694.023;28623.898;  -10.139;34142.672
694.598;30807.799;   -9.029;34132.031
695.173;30511.373;  -13.319;34205.250
695.748;27891.258;  -10.169;32882.488
696.323;25490.354;   -8.339;32864.906
696.898;25085.854;   -8.169;33170.004
697.473;28310.561;  -12.309;32432.984
698.048;28316.025;  -10.989;31649.303
698.623;27297.922;   -9.329;30778.141
699.198;28858.328;   -9.849;31140.119
699.773;30198.789;  -12.329;31764.299
700.348;30063.779;  -10.389;31780.816
700.922;28210.080;   -9.269;32046.375
701.497;26407.678;   -9.329;32603.574
702.072;28030.676;  -10.789;34799.871
702.646;27944.838;  -10.839;35793.172
703.221;28528.971;   -9.099;35201.590
703.795;29095.680;  -10.939;34764.527
704.370;27725.930;  -12.859;34307.367
704.944;29058.639;  -11.559;33509.887
705.519;30160.885;   -7.939;31388.584
706.093;32117.334;  -10.499;31340.104
706.668;33057.043;  -11.289;32630.281
707.242;32160.158;  -11.509;32728.779
707.816;30702.926;   -9.639;32947.238
708.390;30177.500;  -11.429;33277.855
708.965;31209.674;  -11.869;33834.336
709.539;31273.926;  -11.689;33709.273
710.113;30808.090;  -10.478;33044.313
710.687;28166.645;  -10.228;31953.992
711.261;27397.898;  -13.698;30505.949
711.835;27151.947;  -13.378;30262.369
712.409;26783.379;   -9.698;31254.447
712.983;26382.289;  -11.898;32754.986
713.557;25268.449;  -15.138;34018.824
714.131;26529.158;  -14.098;34579.625
714.704;26589.699;   -9.958;33890.262
715.278;25838.205;  -10.028;33531.102
715.852;24909.330;  -11.148;33601.660
716.425;24416.533;   -9.068;33515.117
716.999;26139.516;  -10.038;33185.555
717.573;26827.533;   -9.798;33905.996
718.146;27822.510;  -12.378;35199.293
718.720;28371.043;  -11.918;35060.551
719.293;27486.072;   -8.088;34973.230
719.867;26535.721;  -10.888;36394.449
720.440;27314.719;  -11.938;36663.008
721.013;29215.402;  -12.818;35102.426
721.587;30645.047;  -10.298;33985.266
722.160;30451.672;  -10.048;33524.965
722.733;28556.518;  -12.108;32987.043
723.306;26341.633;  -10.818;33066.301
723.880;26694.297;   -8.908;33399.500
724.453;25787.145;   -9.878;33468.297
725.026;25536.164;  -11.188;33816.637
725.599;25791.010;  -11.678;32797.996
726.172;25522.707;   -9.618;33187.434
726.745;26524.662;   -8.258;35136.613
727.318;29174.801;  -12.978;35751.730
727.891;31221.725;  -12.148;35890.430
728.463;32513.432;   -8.968;34822.090
729.036;32683.932;  -10.188;32895.086
729.609;30265.539;  -11.788;31823.225
730.182;28402.658;  -11.788;31445.283
730.754;27663.748;  -10.268;32373.223
731.327;27395.254;   -9.998;33676.820
731.900;26529.596;  -12.228;33417.000
732.472;25581.691;  -13.848;31978.498
733.045;25424.857;   -8.698;30368.777
733.617;24843.309;  -10.607;30574.215
734.190;23502.928;  -11.507;31280.975
734.762;23873.855;  -13.647;31674.412
735.334;25207.627;   -9.767;31247.291
735.907;25529.119;   -9.897;29876.211
736.479;23509.240;  -11.637;29808.488
737.051;22805.779;   -9.567;30233.547
737.623;23666.531;   -8.187;31469.086
738.195;25556.996;  -11.187;31784.225
738.768;25974.846;  -12.337;32120.523
739.340;25418.561;  -12.227;32094.342
739.912;24988.676;  -11.057;31312.680
740.484;25802.873;  -10.207;31946.238
741.056;26961.578;  -10.047;32984.059
741.628;26511.340;  -13.627;33897.715
742.199;27040.281;   -7.177;33213.016
742.771;25385.326;  -10.797;31369.113
743.343;23879.252;  -11.997;31865.473
743.915;24040.285;  -12.867;32388.631
744.487;24632.451;   -7.617;31079.568
745.058;25929.928;   -9.557;30570.107
745.630;25762.459;   -9.877;29970.127
746.201;24584.748;  -14.177;29186.766
746.773;24174.756;   -9.237;28805.723
747.344;24261.830;   -9.847;29591.223
747.916;24376.164;  -11.657;31412.201
748.487;24070.551;  -10.587;32194.898
749.059;23928.793;   -8.707;32533.719
749.630;22955.260;  -10.537;32158.518
750.201;23227.064;  -11.687;30855.395
750.773;23394.191;  -11.647;28622.555
751.344;24638.889;   -7.147;28405.732
751.915;24512.859;   -9.757;28461.551
752.486;24072.287;  -12.427;27842.850
753.057;22539.361;  -12.227;27845.008
753.628;22141.340;  -10.417;27728.107
754.199;22298.586;  -11.767;27381.086
754.770;21758.223;  -11.187;25882.203
755.341;21297.832;  -10.507;25886.184
755.912;21581.168;   -9.387;26050.861
756.483;21972.438;  -10.647;26798.779
757.054;21612.012;  -11.837;27048.238
757.625;19839.871;  -12.716;26294.838
758.195;19231.188;   -9.666;26142.076
758.766;20185.115;   -8.656;26392.234
759.337;20032.936;  -12.856;26334.594
759.907;19359.764;  -13.366;27579.652
760.478;18483.352;   -8.576;28352.770
761.048;19104.449;  -10.526;27325.088
761.619;19711.180;  -11.116;26460.428
762.189;19326.629;  -12.136;26029.826
762.760;19384.938;   -9.456;26430.145
763.330;19631.203;   -7.136;26670.902
763.900;19608.555;  -11.786;26603.021
764.471;18858.232;  -11.546;25542.740
765.041;18545.887;   -8.096;24358.459
765.611;18627.332;   -8.876;23991.297
766.181;18662.227;  -12.196;24470.236
766.751;19298.016;  -11.636;24845.975
767.321;19384.125;  -10.156;24533.633
767.891;19202.734;  -11.766;24916.492
768.461;18938.561;  -14.936;24776.771
769.031;18143.229;  -12.356;24757.988
769.601;17857.309;   -7.526;24181.088
770.171;18240.354;  -10.766;23670.387
770.741;18879.900;  -13.176;22960.045
771.311;18465.504;  -10.616;22917.523
771.880;17148.520;   -9.576;23562.941
772.450;16605.664;  -10.336;24216.500
773.020;16810.176;  -13.516;24140.398
773.589;16672.045;  -13.466;24414.857
774.159;16165.360;   -8.686;23858.717
774.729;15569.717;   -9.476;22942.135
775.298;15567.621;  -13.666;22324.033
775.867;15604.080;  -11.716;21140.313
776.437;15049.956;   -9.906;20838.092
777.006;14931.611;  -12.166;20599.510
777.576;16288.869;  -12.356;20508.809
778.145;15592.117;  -11.646;20732.947
778.714;14159.599;   -8.226;21062.465
779.283;13621.959;   -9.556;20949.664
779.853;13379.160;  -14.116;20508.623
780.422;13666.800;  -11.506;20649.082
780.991;14155.309;   -9.556;21527.520
781.560;14829.258;   -9.095;22632.658
782.129;13705.804;  -12.135;23048.277
782.698;12388.209;  -10.865;23438.555
783.267;11755.337;   -9.335;23267.734
783.836;12104.402;  -11.045;22415.133
784.404;12860.721;  -13.865;20443.152
784.973;13085.461;  -13.095;19699.150
785.542;13020.304;  -11.575;19763.828
786.111;12810.908;   -9.705;20341.408
786.679;12603.068;  -12.105;20207.967
787.248;12272.461;  -12.455;19516.465
787.817;12099.334;  -11.535;18900.363
788.385;11924.378;   -9.765;17879.121
788.954;11768.880;  -14.005;17658.301
789.522;11602.464;  -11.955;17788.879
790.090;10732.428;  -10.135;18118.277
790.659; 9858.131;  -10.975;18338.736
791.227; 9906.163;  -13.375;18508.615
791.795;10243.433;  -12.375;17898.254
792.364;10410.657;  -10.725;17295.133
792.932;10719.479;   -9.715;16822.051
793.500;10475.122;  -12.675;17040.148
794.068;10703.774;  -13.495;17179.787
794.636;10757.285;  -10.885;16664.246
795.204;10405.345;  -11.045;16524.545
795.772;10384.662;  -13.175;17274.564
796.340;10152.931;  -12.445;17891.002
796.908;10360.579;   -9.735;17648.561
797.476;10735.104;   -9.815;17064.080
798.044;10474.886;  -13.985;16672.777
798.612;10044.051;  -13.115;17023.996
799.180; 9254.331;  -10.185;16561.615
799.747; 8909.858;   -9.055;15962.773
800.315; 9128.134;  -12.385;15296.992
800.883; 8539.847;  -15.035;14801.771
801.450; 7830.062;  -10.365;14534.430
802.018; 7559.906;   -9.855;14173.248
802.585; 7514.599;  -11.905;14029.547
803.153; 7697.422;  -11.585;13836.846
803.720; 7504.233;   -9.095;13567.324
804.287; 7429.630;   -9.135;13360.622
804.855; 7617.815;  -11.604;13681.981
805.422; 7976.190;  -11.794;13536.560
805.989; 8201.348;  -10.734;13355.958
806.556; 8124.768;  -10.444;13747.896
807.124; 8367.765;  -12.764;13987.376
807.691; 8803.990;  -12.964;14038.674
808.258; 8869.497;  -11.134;14120.152
808.825; 8894.374;   -9.854;13860.111
809.392; 8555.609;  -10.504;13268.790
809.959; 7898.473;  -13.054;12680.389
810.526; 7240.557;   -8.294;12427.308
811.093; 6620.544;   -8.394;12030.105
811.659; 6396.093;  -12.304;11653.664
812.226; 6555.358;  -13.944;11637.183
812.793; 6942.905;  -10.484;11611.521
813.360; 7077.546;  -10.144;11885.181
813.926; 7087.471;  -11.684;12770.539
814.493; 7011.262;  -13.644;12677.638
815.060; 6905.397;   -9.724;11974.336
815.626; 7081.767;   -9.854;11594.715
816.193; 7152.155;  -13.254;11579.474
816.759; 6561.905;  -13.204;11666.972
817.325; 6147.762;   -9.434;11325.530
817.892; 6038.567;  -10.134;11105.369
818.458; 6195.013;  -13.474;10843.928
819.024; 6653.242;  -11.854;10714.406
819.591; 6785.597;  -10.244;10469.165
820.157; 6581.047;  -10.704;10235.523
820.723; 6563.737;  -12.324;10847.563
821.289; 6465.883;   -9.444;11040.980
821.855; 6517.030;   -8.374;10357.100
822.421; 6839.292;  -10.234; 9978.918
822.987; 6810.912;  -13.294; 9754.177
823.553; 6490.640;  -10.884;10065.755
824.119; 6255.736;   -8.884;10036.294
824.685; 5783.988;   -6.784;10029.192
825.251; 5698.605;  -12.004;10199.230
825.816; 5455.297;  -11.474; 9820.189
826.382; 5247.917;   -9.174; 9297.248
826.948; 5538.364;   -9.214; 9381.347
827.513; 5973.127;  -10.774; 9450.726
828.079; 6080.212;  -11.924; 9472.444
828.645; 5902.807;  -10.543; 9292.643
829.210; 5778.070;  -10.533; 9065.341
829.776; 5682.794;  -10.753; 9132.620
830.341; 5826.366;  -10.173; 9092.878
830.906; 5861.446;  -10.743; 9078.557
831.472; 5622.401;  -11.113; 8534.535
832.037; 5252.531;  -10.603; 8677.874
832.602; 5122.304;  -13.323; 8628.692
833.167; 4903.189;  -10.823; 8879.031
833.733; 4771.938;  -10.113; 9189.790
834.298; 4636.586;  -13.583; 9052.608
834.863; 4829.161;  -12.703; 8895.087
835.428; 5063.741;  -10.523; 8824.266
835.993; 4992.785;   -6.963; 8845.385
836.558; 4949.713;  -10.763; 8888.563
837.123; 5095.010;   -9.903; 8966.582
837.688; 5458.870;   -9.913; 8617.860
838.253; 5500.398;  -10.283; 8590.699
838.817; 5153.088;  -12.963; 8443.797
839.382; 5032.324;  -14.243; 8799.356
839.947; 5179.398;  -10.733; 8810.595
840.511; 5186.667;   -9.383; 8796.394
841.076; 5017.400;  -12.563; 8347.231
841.641; 4836.060;  -12.953; 8224.330
842.205; 4701.224;   -7.043; 8223.349
842.770; 4498.116;   -8.163; 8622.107
843.334; 4644.509;  -12.503; 8410.386
843.898; 4794.827;  -11.693; 8337.465
844.463; 4361.379;  -10.203; 8506.283
845.027; 4039.359;   -9.533; 8280.962
845.591; 4057.519;  -13.443; 8231.141
846.156; 4128.404;  -13.143; 7969.179
846.720; 3965.772;   -9.433; 7768.278
847.284; 3868.959;  -11.033; 7630.957
847.848; 3852.801;  -10.403; 7472.395
848.412; 3679.855;  -11.553; 7437.394
848.976; 3581.128;   -8.393; 7674.592
849.540; 3534.120;   -8.713; 7836.011
850.104; 3498.480;  -12.463; 7913.669
850.668; 3554.701;  -12.973; 7694.508
851.232; 3516.160;  -10.793; 7756.887
851.796; 3526.938;  -10.662; 7926.545
852.359; 3610.801;  -13.082; 7827.844
852.923; 3590.964;  -12.192; 7641.163
853.487; 3592.890;  -11.912; 7342.501
854.050; 3444.989;  -10.892; 7042.820
854.614; 3488.109;  -13.992; 7151.338
855.177; 3559.514;  -11.732; 7105.077
855.741; 3434.606;   -8.962; 6989.675
856.304; 3297.208;   -9.442; 6596.634
856.868; 3174.900;  -14.192; 6356.272
857.431; 3118.150;  -12.702; 6468.571
857.995; 3113.978;   -9.942; 6373.210
858.558; 3196.437;   -9.112; 6324.448
859.121; 3093.466;  -12.932; 6408.327
859.684; 2952.247;  -13.442; 6347.886
860.247; 2910.679;  -10.632; 6321.264
860.810; 2872.398;  -11.272; 6301.903
861.374; 2803.078;   -9.832; 6607.881
861.937; 2713.552;  -11.762; 6408.200
862.500; 2708.993;   -9.722; 6572.639
863.062; 2693.633;  -10.512; 6387.297
863.625; 2690.655;  -11.232; 6190.836
864.188; 2727.174;  -14.112; 5807.254
864.751; 2735.322;  -11.302; 5682.413
865.314; 2620.459;  -10.112; 5547.492
865.876; 2447.918;  -12.182; 5500.150
866.439; 2291.072;  -10.722; 5415.909
867.002; 2193.113;   -9.252; 5501.567
867.564; 2245.994;   -9.572; 5413.946
868.127; 2287.127;  -13.142; 5160.325
868.689; 2371.034;  -12.902; 5133.183
869.252; 2480.352;   -9.732; 5252.382
869.814; 2413.898;   -9.432; 5297.141
870.377; 2309.535;  -11.552; 5390.919
870.939; 2303.095;   -9.052; 5599.898
871.501; 2254.548;  -10.982; 5248.336
872.063; 2149.662;  -12.292; 4854.235
872.626; 2087.318;  -14.912; 4817.074
873.188; 2000.671;  -13.112; 4987.732
873.750; 1971.468;  -13.442; 4868.651
874.312; 1939.774;   -9.402; 4779.330
874.874; 1898.678;  -11.062; 4866.348
875.436; 1791.169;  -13.931; 4718.887
875.998; 1675.048;   -9.561; 4660.005
876.560; 1661.090;  -11.321; 4462.964
877.122; 1722.913;  -12.221; 4145.042
877.683; 1840.421;  -12.191; 4056.481
878.245; 1884.335;  -12.101; 3950.740
878.807; 1909.823;   -8.971; 4058.958
879.369; 1853.009;  -12.071; 3954.677
879.930; 1719.900;  -14.621; 3941.495
880.492; 1634.254;  -10.311; 4067.014
881.053; 1640.514;  -10.901; 3859.633
881.615; 1635.374;  -14.411; 3776.071
882.176; 1568.231;  -13.761; 3734.750
882.738; 1487.258;   -9.181; 3678.489
883.299; 1471.424;  -11.791; 3405.407
883.860; 1484.980;  -13.121; 3351.106
884.422; 1431.853;  -11.211; 3394.044
884.983; 1351.580;  -10.091; 3166.443
885.544; 1303.230;   -8.461; 3189.802
886.105; 1240.088;  -12.361; 3160.360
886.666; 1175.218;  -14.141; 3093.059
887.227; 1144.184;  -11.361; 2941.957
887.788; 1092.640;  -11.401; 2974.836
888.349;  998.926;  -13.791; 2721.214
888.910;  956.794;  -13.191; 2696.493
889.471;  921.439;   -9.881; 2560.172
890.032;  927.144;   -9.881; 2558.190
890.593;  921.151;  -10.371; 2567.669
891.153;  832.878;  -13.301; 2460.307
891.714;  720.243;  -11.431; 2372.046
892.275;  672.766;  -11.291; 2309.505
892.835;  683.557;  -11.471; 2382.543
893.396;  676.685;  -11.541; 2295.502
893.956;  650.175;  -11.181; 2162.420
894.517;  610.108;  -11.741; 2125.439
895.077;  556.356;  -11.671; 2086.978
895.638;  514.446;  -11.311; 2126.316
896.198;  501.506;   -9.831; 1838.275
896.758;  486.810;   -8.421; 1892.813
897.319;  464.570;  -12.351; 1792.232
897.879;  444.966;  -13.511; 1762.751
898.439;  412.468;  -12.001; 1661.149
898.999;  391.517;  -10.180; 1781.468
899.559;  386.072;  -12.030; 1703.347
900.119;  377.588;  -15.710; 1537.525
900.679;  361.549;   -8.900; 1638.384
901.239;  340.577;   -8.340; 1527.902
901.799;  311.913;  -13.910; 1456.441
902.359;  288.530;  -13.460; 1357.140
902.919;  280.314;  -11.490; 1331.118
903.479;  281.352;  -12.110; 1317.257
904.038;  275.507;  -11.720; 1262.595
904.598;  266.537;  -13.610; 1152.034
905.158;  255.652;  -11.040; 1240.893
905.717;  239.709;  -10.900; 1233.691
906.277;  228.901;  -15.080; 1217.330
906.836;  227.457;  -13.380; 1222.408
907.396;  223.350;  -10.780; 1193.047
907.955;  216.868;   -8.500; 1182.526
908.515;  211.374;  -12.760; 1099.364
909.074;  210.182;  -11.900; 1092.863
909.633;  209.579;   -8.950; 1069.121
910.192;  207.195;   -8.770; 1196.460
910.752;  196.450;  -12.390; 1029.960
911.311;  186.782;  -13.680; 1009.780
911.870;  176.672;  -12.370;  971.460
912.429;  171.473;  -10.900; 1094.080
912.988;  168.792;  -11.690; 1081.060
913.547;  165.634;  -13.240;  940.380
914.106;  163.835;  -11.990;  999.420
914.665;  162.394;   -9.990;  984.020
915.224;  160.039;  -12.880; 1035.760
915.782;  156.916;  -12.350;  922.560
916.341;  156.821;   -9.110; 1049.840
916.900;  154.440;   -9.270;  925.260
917.458;  152.368;  -13.240;  884.220
918.017;  151.421;  -13.550;  942.600
918.576;  149.260;  -12.320;  904.440
919.134;  147.888;  -11.490;  837.980
919.693;  146.137;  -13.670;  893.060
920.251;  144.884;  -15.470;  876.500
920.809;  144.905;  -11.290;  839.580
921.368;  144.515;  -10.210;  885.360
921.926;  141.509;  -12.140;  842.940
922.484;  139.126;  -13.080;  903.360
923.042;  138.232;  -11.720;  880.340
923.601;  138.481;   -7.480;  998.680
924.159;  136.290;  -11.570;  935.560
924.717;  133.878;  -13.840;  841.080
925.275;  134.805;  -10.640;  903.240
925.833;  133.641;  -11.540;  779.320
926.391;  135.167;  -12.960;  938.380
926.949;  135.237;  -14.130;  857.680
927.506;  134.538;  -11.750;  903.500
928.064;  134.264;  -10.250;  877.580
928.622;  134.212;  -13.030;  880.100
929.180;  137.672;  -13.400;  814.180
929.737;  138.751;  -10.700;  808.540
930.295;  142.161;  -10.070;  928.480
930.853;  142.341;  -11.960;  849.100
931.410;  142.129;  -13.120;  821.120
931.968;  144.839;  -10.770;  940.660
932.525;  144.381;  -10.680;  909.380
933.082;  144.462;  -13.130;  811.440
933.640;  145.439;  -13.210;  925.900
934.197;  145.014;  -11.060;  886.360
934.754;  144.958;   -9.580;  897.780
935.312;  147.190;  -14.000;  863.340
935.869;  148.001;  -10.710; 1012.980
936.426;  146.885;   -9.860;  872.800
936.983;  146.607;   -9.710;  889.020
937.540;  147.937;  -13.990;  838.280
938.097;  153.350;  -14.040;  940.120
938.654;  156.482;  -10.310;  898.860
939.211;  157.373;  -10.560;  952.480
939.768;  158.208;  -13.900;  915.420
940.324;  159.802;  -14.760;  904.200
940.881;  163.120;  -10.370;  878.500
941.438;  167.301;   -8.260; 1021.200
941.995;  166.686;  -12.540;  992.560
942.551;  165.724;  -14.670;  875.620
943.108;  167.820;  -10.450;  937.920
943.664;  168.315;  -10.750;  869.340
944.221;  172.307;  -11.550; 1088.140
944.777;  172.063;  -14.770;  869.680
945.334;  170.184;  -12.820;  884.840
945.890;  164.255;  -10.130;  946.480
946.446;  161.332;  -13.470;  947.020
947.003;  163.767;  -12.120;  964.940
947.559;  164.526;   -9.980; 1063.040
948.115;  160.290;   -9.080; 1026.540
948.671;  156.786;  -10.830;  967.300
949.227;  157.388;  -12.440;  859.560
949.783;  157.303;  -12.910;  858.900
950.339;  160.944;  -10.270;  991.000
950.895;  162.338;  -13.630; 1023.840
951.451;  162.659;  -15.100;  925.280
952.007;  160.623;  -11.330;  998.540
952.563;  157.067;  -10.580;  937.780
953.118;  153.444;  -13.440;  904.940
953.674;  153.112;  -12.710;  935.780
954.230;  155.859;  -10.350;  949.640
954.785;  159.767;   -9.190;  936.640
955.341;  161.752;  -11.200;  998.160
955.897;  156.160;  -16.560;  834.660
956.452;  155.280;  -12.570;  953.840
957.008;  152.470;   -7.970; 1083.640
957.563;  148.520;  -11.940; 1009.540
958.118;  144.161;  -13.450;  877.700
958.674;  142.270;  -12.030;  946.780
959.229;  143.272;   -9.410; 1013.980
959.784;  144.246;  -12.000;  832.400
960.339;  144.399;  -14.780; 1001.280
960.894;  142.438;   -9.860;  963.760
961.449;  138.109;   -9.970;  859.960
962.004;  138.246;  -10.900; 1212.840
962.559;  135.533;  -13.150;  860.140
963.114;  135.567;  -13.740;  742.480
963.669;  135.439;   -9.820;  915.500
964.224;  135.516;  -13.890;  874.340
964.779;  137.780;  -12.600;  828.420
965.334;  136.304;  -10.950; 1017.860
965.888;  127.934;  -11.170;  875.360
966.443;  118.595;  -12.540;  972.380
966.998;  105.932;  -15.780;  819.460
967.552;   98.883;   -9.760;  908.380
968.107;   93.890;   -9.060;  868.300
968.661;   95.466;  -11.950;  922.440
969.216;   96.947;  -12.800;  856.280
969.770;   99.595;  -11.210;  917.200
970.324;  102.012;  -11.610;  923.140
970.879;  103.471;  -11.370;  947.180
971.433;  106.701;  -12.540;  952.720
971.987;  107.028;  -11.320;  895.340
972.541;  105.552;  -10.720;  917.100
973.095;  106.807;   -9.680; 1009.460
973.649;  103.622;  -11.440;  809.480
974.203;  102.740;  -11.210;  829.040
974.757;  102.304;  -10.240;  855.220
975.311;  102.037;  -13.720;  872.600
975.865;  102.368;  -13.770;  881.820
976.419;  100.280;  -11.690;  857.400
976.973;   98.602;   -9.510;  849.620
977.526;   98.000;  -12.620;  949.920
978.080;   95.945;  -12.010;  796.780
978.634;   96.312;  -10.170;  921.320
979.187;   94.527;   -9.020;  905.400
979.741;   96.016;   -9.820; 1018.380
980.294;   93.742;  -14.870;  789.160
980.848;   93.419;  -12.380;  717.220
981.401;   94.135;  -10.350;  816.540
981.955;   92.564;  -13.720;  844.300
982.508;   88.329;  -11.490;  746.340
983.061;   88.815;  -10.000;  915.260
983.615;   86.861;  -11.480;  798.800
984.168;   85.611;  -13.220;  770.080
984.721;   84.364;  -13.960;  880.760
985.274;   83.985;  -10.870;  867.500
985.827;   81.809;   -9.790;  834.220
986.380;   78.271;  -13.120;  721.340
986.933;   78.998;  -12.450;  864.800
987.486;   78.282;  -10.210;  861.920
988.039;   79.329;   -8.430;  863.100
988.591;   78.123;  -10.520;  893.260
989.144;   76.136;  -14.860;  737.260
989.697;   74.423;  -13.080;  758.740
990.250;   73.864;  -10.150;  858.100
990.802;   70.973;  -13.430;  755.860
991.355;   70.974;  -12.750;  974.880
991.907;   69.196;  -12.040;  864.320
992.460;   67.417;  -11.330;  753.760
993.012;   66.451;  -13.610;  749.540
993.565;   64.396;  -13.460;  711.360
994.117;   66.021;   -9.360;  950.780
994.669;   62.927;  -11.300;  701.320
995.221;   62.125;  -13.540;  791.920
995.774;   61.394;  -13.430;  787.580
996.326;   59.275;  -12.520;  740.220
996.878;   58.656;  -10.950;  838.420
997.430;   56.253;  -14.300;  699.860
997.982;   55.107;  -13.760;  750.140
998.534;   55.196;  -11.530;  739.060
999.086;   53.818;  -10.310;  738.220
999.638;   52.950;  -12.530;  661.380
1000.190;   52.149;  -11.840;  699.320
1000.741;   52.006;  -10.260;  742.700
1001.293;   51.273;   -8.860;  686.020
1001.845;   50.607;  -13.700;  676.640
1002.396;   50.282;  -12.100;  743.400
1002.948;   49.760;  -12.760;  737.400
1003.500;   48.004;  -10.380;  723.780
1004.051;   48.501;  -11.900;  907.580
1004.603;   46.677;  -12.250;  791.820
1005.154;   43.914;  -13.210;  608.980
1005.705;   42.325;  -10.950;  723.960
1006.257;   42.247;  -13.880;  707.220
1006.808;   42.103;  -12.840;  685.460
1007.359;   40.896;  -10.570;  763.240
1007.910;   40.824;   -9.620;  646.640
1008.461;   39.905;  -13.630;  732.940
1009.013;   38.904;  -17.200;  588.340
1009.564;   39.770;  -10.200;  793.520
1010.115;   38.185;  -12.570;  597.040
1010.665;   37.297;  -15.150;  602.160
1011.216;   37.828;  -14.480;  667.920
1011.767;   37.236;  -11.340;  697.920
1012.318;   37.944;   -9.780;  736.980
1012.869;   36.257;  -12.380;  679.000
1013.419;   35.516;  -15.560;  603.120
1013.970;   36.941;  -11.010;  666.640
1014.521;   35.923;  -11.610;  620.620
1015.071;   35.464;  -13.450;  670.380
1015.622;   35.478;  -13.870;  635.460
1016.172;   34.206;  -11.610;  596.820
1016.723;   34.020;  -12.120;  614.380
1017.273;   33.421;  -13.620;  604.160
1017.823;   34.155;  -14.140;  650.340
1018.374;   34.059;  -12.800;  611.760
1018.924;   33.248;  -12.340;  716.880
1019.474;   33.710;  -11.410;  718.880
1020.024;   31.694;  -14.770;  657.580
1020.574;   33.499;   -9.780;  726.160
1021.124;   33.403;   -8.560;  673.580
1021.674;   32.341;  -15.190;  559.120
1022.224;   33.427;  -13.530;  708.940
1022.774;   32.304;  -13.280;  668.820
1023.324;   32.661;  -10.690;  753.520
1023.874;   33.356;  -10.240;  875.760
1024.423;   31.870;  -12.540;  613.700
1024.973;   31.088;  -10.010;  610.760
1025.523;   30.055;  -10.550;  620.960
1026.072;   30.038;  -13.560;  606.420
1026.622;   30.459;  -15.120;  675.740
1027.172;   32.043;  -11.260;  715.660
1027.721;   30.348;  -11.410;  601.220
1028.270;   30.238;  -13.530;  663.400
1028.820;   29.921;  -13.680;  638.080
1029.369;   29.240;  -13.520;  612.700
1029.918;   29.428;  -10.980;  649.840
1030.468;   28.750;  -13.530;  564.780
1031.017;   29.128;  -13.170;  634.800
1031.566;   27.742;  -12.200;  608.900
1032.115;   29.178;   -9.960;  694.500
1032.664;   27.816;  -13.210;  596.480
1033.213;   29.270;  -12.500;  735.420
1033.762;   28.314;  -11.910;  635.620
1034.311;   27.747;   -9.640;  677.220
1034.860;   27.844;  -13.310;  691.000
1035.408;   28.489;  -11.830;  722.720
1035.957;   28.278;  -12.000;  719.540
1036.506;   25.857;  -11.690;  530.800
1037.055;   28.464;  -10.990;  844.320
1037.603;   26.880;  -15.120;  664.000
1038.152;   24.875;  -12.450;  534.760
1038.700;   25.818;  -10.560;  585.740
1039.249;   26.493;  -11.080;  681.220
1039.797;   25.529;  -12.540;  633.360
1040.345;   26.726;  -11.920;  705.420
1040.894;   25.479;  -11.410;  625.300
1041.442;   24.783;  -14.320;  632.200
1041.990;   24.289;  -16.240;  559.160
1042.538;   24.424;  -11.680;  536.180
1043.087;   23.941;  -10.760;  570.860
1043.635;   25.551;  -11.850;  670.500
1044.183;   23.447;  -15.480;  586.400
1044.731;   23.993;  -11.770;  576.000
1045.279;   23.635;  -13.090;  674.920
1045.827;   24.971;  -12.440;  892.400
1046.374;   22.948;  -13.840;  515.420
1046.922;   22.971;  -13.220;  590.580
1047.470;   24.406;  -10.230;  691.300
1048.018;   23.770;  -14.590;  647.960
1048.565;   24.054;  -12.050;  708.600
1049.113;   22.208;  -11.650;  557.000
1049.660;   22.817;  -10.510;  629.660
1050.208;   22.523;  -13.310;  675.640
1050.755;   21.333;  -15.900;  606.580
1051.303;   23.340;  -11.430;  686.820
1051.850;   21.781;   -8.480;  635.120
1052.397;   20.139;  -15.010;  473.960
1052.945;   20.389;  -13.960;  617.760
1053.492;   22.605;  -13.150;  741.840
1054.039;   22.462;   -9.630;  720.180
1054.586;   20.448;  -13.680;  557.240
1055.133;   21.615;  -14.570;  693.140
1055.680;   21.845;  -13.820;  646.620
1056.227;   20.634;  -11.730;  542.780
1056.774;   21.991;  -12.480;  794.980
1057.321;   19.603;  -13.930;  523.260
1057.868;   19.921;  -11.690;  651.320
1058.415;   20.442;   -9.520;  651.980
1058.961;   20.713;  -13.160;  678.940
1059.508;   20.418;  -12.920;  643.820
1060.055;   20.031;  -11.920;  581.780
1060.601;   19.788;  -11.500;  624.300
1061.148;   19.465;  -14.330;  616.820
1061.694;   18.850;  -16.870;  592.580
1062.241;   19.046;  -10.330;  596.320
1062.787;   19.234;  -10.620;  663.140
1063.334;   20.890;  -10.110;  808.560
1063.880;   19.163;  -13.400;  668.360
1064.426;   19.071;  -10.680;  706.820
1064.972;   18.352;   -9.920;  601.340
1065.518;   16.977;  -10.980;  566.640
1066.065;   18.926;  -14.890;  624.460
1066.611;   17.642;  -12.870;  598.800
1067.157;   18.629;  -12.950;  641.860
1067.703;   18.118;  -13.540;  668.480
1068.249;   17.953;  -13.540;  605.220
1068.794;   17.891;  -12.600;  626.880
1069.340;   16.563;  -10.620;  578.960
1069.886;   16.796;  -12.830;  590.700
1070.432;   16.908;  -14.870;  541.720
1070.977;   16.907;  -11.980;  601.080
1071.523;   17.120;   -8.200;  573.060
1072.068;   16.618;  -12.330;  582.000
1072.614;   16.494;  -16.370;  527.760
1073.160;   17.566;  -11.100;  687.040
1073.705;   15.554;  -10.480;  572.520
1074.250;   15.557;  -14.520;  559.900
1074.796;   16.898;  -11.460;  655.160
1075.341;   16.429;  -11.950;  664.100
1075.886;   15.710;  -11.460;  594.240
1076.431;   14.724;  -13.770;  649.880
1076.976;   15.099;  -12.680;  639.220
1077.521;   15.285;  -13.170;  583.080
1078.067;   14.502;  -10.860;  579.400
1078.612;   15.375;  -13.920;  661.620
1079.156;   14.955;  -13.880;  601.540
1079.701;   15.637;  -13.120;  693.260
1080.246;   15.166;   -9.940;  696.300
1080.791;   15.113;  -14.740;  625.020
1081.336;   14.324;  -13.750;  659.320
1081.880;   14.516;  -13.400;  649.680
1082.425;   14.246;  -12.220;  573.480
1082.970;   15.659;  -11.610;  717.040
1083.514;   14.355;  -13.580;  597.000
1084.059;   13.381;  -12.810;  586.720
1084.603;   13.310;  -12.320;  565.840
1085.147;   13.957;  -13.190;  645.220
1085.692;   14.597;  -12.480;  716.800
1086.236;   12.646;  -13.020;  503.140
1086.780;   14.389;   -9.190;  751.440
1087.325;   13.980;  -12.480;  654.620
1087.869;   13.532;  -12.450;  610.700
1088.413;   13.749;  -12.240;  705.040
1088.957;   11.949;   -9.020;  543.400
1089.501;   13.416;  -10.320;  766.640
1090.045;   13.309;  -12.720;  726.480
1090.589;   11.353;  -13.690;  569.920
1091.133;   12.595;  -10.020;  673.340
1091.676;   13.230;  -12.330;  591.940
1092.220;   11.734;  -14.970;  600.920
1092.764;   13.155;  -12.430;  706.960
1093.307;   12.342;   -9.800;  673.780
1093.851;   10.459;  -14.970;  556.540
1094.395;   11.850;  -15.310;  683.140
1094.938;   11.034;  -10.370;  632.520
1095.482;   11.150;  -11.050;  559.800
1096.025;   11.476;  -11.840;  710.880
1096.568;   12.028;  -12.840;  779.280
1097.112;   10.047;  -14.700;  508.180
1097.655;   12.037;   -8.720;  603.000
1098.198;   10.005;  -13.610;  600.180
1098.741;    9.975;  -13.350;  612.860
1099.285;   11.378;  -11.230;  657.300
1099.828;    8.955;  -11.840;  439.400
1100.371;   10.961;  -10.840;  608.160
1100.914;   10.504;  -14.190;  682.660
1101.457;    9.597;  -11.240;  679.900
1101.999;    8.785;  -11.270;  584.680
1102.542;   10.279;  -11.480;  641.440
1103.085;    9.638;  -11.750;  658.500
1103.628;   10.484;  -11.400;  762.060
1104.170;    9.786;  -10.490;  588.280
1104.713;    9.533;  -10.600;  646.700
1105.256;    8.893;  -14.360;  557.440
1105.798;    8.380;  -13.210;  499.980
1106.341;   10.358;  -10.270;  728.900
1106.883;    8.853;  -12.200;  521.340
1107.425;    9.074;  -13.110;  668.180
1107.968;    8.841;  -12.840;  612.380
1108.510;    9.311;   -6.480;  684.960
1109.052;    7.736;  -13.940;  612.620
1109.594;    8.436;  -13.690;  554.440
1110.136;    8.832;  -11.880;  643.220
1110.679;    8.367;   -9.500;  633.080
1111.221;    8.628;  -14.160;  604.460
1111.763;    7.819;  -13.980;  559.220
1112.304;    7.447;  -13.880;  547.140
1112.846;    7.709;  -12.210;  666.240
1113.388;   10.213;  -11.390;  942.180
1113.930;    8.237;  -14.540;  694.200
1114.472;    7.474;  -12.640;  606.540
1115.013;    6.196;  -11.620;  551.280
1115.555;    6.488;  -13.640;  587.100
1116.097;    6.432;  -15.380;  579.480
1116.638;    7.314;  -12.640;  684.600
1117.180;    7.782;   -9.850;  667.740
1117.721;    6.417;  -13.690;  568.580
1118.262;    7.520;  -12.680;  677.960
1118.804;    7.563;  -12.530;  637.340
1119.345;    6.157;  -11.690;  578.400
1119.886;    6.546;  -13.380;  704.040
1120.427;    6.191;  -14.070;  589.020
1120.969;    5.417;  -13.500;  597.920
1121.510;    5.388;  -11.480;  563.060
1122.051;    6.618;  -12.830;  723.580
1122.592;    5.260;  -14.290;  655.420
1123.133;    5.025;  -12.400;  547.940
1123.673;    6.970;  -10.130;  706.480
1124.214;    5.631;  -12.930;  612.460
1124.755;    5.776;  -14.380;  639.460
1125.296;    5.755;  -14.000;  627.320
1125.836;    6.565;  -10.070;  691.500
1126.377;    4.576;  -12.640;  599.660
1126.918;    5.346;  -12.960;  614.980
1127.458;    5.032;  -13.350;  622.220
1127.999;    5.999;  -10.750;  656.980
1128.539;    5.171;  -12.350;  694.240
1129.079;    5.015;  -14.860;  632.720
1129.620;    3.744;  -13.840;  558.100
1130.160;    4.205;  -12.330;  539.480
1130.700;    4.274;  -14.530;  640.840
1131.240;    4.719;  -12.530;  643.700
1131.781;    4.019;  -14.450;  619.680
1132.321;    3.805;   -9.790;  599.120
1132.861;    2.857;  -14.860;  564.200
1133.401;    3.265;  -14.290;  593.940
1133.941;    4.064;  -11.750;  626.280
1134.481;    3.200;   -9.920;  597.580
1135.020;    3.236;  -12.290;  609.160
1135.560;    3.323;  -11.650;  674.940
1136.100;    2.626;  -16.270;  501.160
1136.640;    3.276;  -10.890;  510.480
1137.179;    2.938;  -14.180;  537.960
1137.719;    2.857;  -16.250;  605.400
1138.258;    3.681;  -14.230;  587.360
1138.798;    3.876;   -9.090;  663.780
1139.337;    1.968;  -15.130;  482.840
1139.877;    2.838;  -13.680;  642.360
1140.416;    4.930;  -11.320;  878.060
1140.955;    1.954;  -10.860;  535.380
1141.494;    3.090;  -12.920;  669.280
1142.034;    1.913;  -13.930;  583.520
1142.573;    3.310;  -11.440;  646.280
1143.112;    2.382;  -12.000;  553.480
1143.651;    2.707;  -13.670;  536.480
1144.190;    2.588;  -12.730;  691.640
1144.729;    1.783;  -14.560;  607.420
1145.267;    1.821;  -11.830;  584.900
1145.806;    1.914;  -12.230;  637.040
1146.345;    1.682;  -14.130;  635.020
1146.884;    2.336;  -11.590;  622.500
1147.422;    1.340;  -12.550;  533.060
1147.961;    3.093;  -11.180;  708.460
1148.500;    2.413;  -11.510;  669.720
1149.038;    2.842;  -11.640;  632.500
1149.577;    1.998;  -10.130;  698.640
1150.115;    0.334;  -13.970;  452.280
1150.653;    1.355;  -14.520;  607.340
1151.192;    1.040;  -12.810;  552.920
1151.730;    1.262;   -9.100;  652.560
1152.268;    0.921;  -12.220;  589.520
1152.806;    0.827;  -14.140;  571.180
1153.344;    0.475;  -12.350;  577.640
1153.882;    0.508;   -8.980;  600.060
1154.421;   -0.337;  -15.190;  470.620
1154.958;    0.847;  -15.210;  595.240
1155.496;    1.289;  -12.850;  645.280
1156.034;    0.693;   -9.940;  721.880
1156.572;    1.956;  -13.570;  667.060
1157.110;   -0.929;  -14.590;  473.940
1157.647;    0.985;  -13.030;  676.960
1158.185;    0.218;  -12.140;  564.320
1158.723;   -1.326;  -14.390;  509.200
1159.260;    0.451;  -14.090;  701.700
1159.798;    1.328;  -11.920;  658.160
1160.335;   -0.580;  -11.110;  631.820

