
Integration time [ms]:   3.276
Averaging Nr. [scans]: 1000
Smoothing Nr. [pixels]: 0
Data measured with spectrometer [name]: 7414430SP
Wave   ;Sample   ;Dark     ;Reference
[nm]   ;[counts] ;[counts] ;[counts] 

288.544;  157.269;    7.793;  793.890
289.143;  162.094;    7.462;  681.602
289.742;  162.676;    8.602;  828.814
290.341;  150.014;    1.321;  789.841
290.940;  139.654;   -0.709;  730.702
291.538;  140.419;    0.881;  881.108
292.137;  138.488;    0.122;  792.581
292.736;  142.411;   -1.929;  975.101
293.335;  139.519;   -8.229;  735.086
293.934;  138.775;   -5.279;  781.677
294.532;  138.425;   -1.369; 1031.958
295.131;  125.247;   -7.641;  834.394
295.730;  124.651;   -8.420;  809.588
296.328;  124.118;   -5.611;  783.442
296.927;  122.202;   -5.781;  779.652
297.525;  123.482;   -6.361;  781.236
298.124;  114.805;  -11.382;  654.009
298.722;  119.521;   -7.641;  761.933
299.321;  115.740;   -6.811;  708.597
299.919;  114.324;   -6.991;  751.918
300.518;  110.676;  -10.362;  689.338
301.116;  111.390;   -9.581;  691.381
301.715;  111.886;   -4.891;  730.222
302.313;  110.660;   -8.801;  704.943
302.911;  105.993;   -8.522;  733.830
303.509;  111.886;   -6.171;  925.627
304.108;  108.366;   -7.311;  760.383
304.706;  107.672;   -8.321;  801.664
305.304;  102.455;  -10.222;  796.707
305.902;  107.562;   -6.021;  784.484
306.500;  102.430;   -4.971;  728.200
307.098;  100.855;   -7.061;  746.560
307.696;   99.517;   -8.801;  780.432
308.294;  100.170;   -6.411;  731.359
308.892;  101.282;   -2.901;  759.769
309.490;   98.389;   -5.041;  712.161
310.088;   95.945;   -5.002;  788.444
310.686;   99.811;   -2.041;  821.749
311.284;   95.436;   -2.351;  766.040
311.882;   93.881;   -4.422;  731.225
312.480;   90.812;   -4.192;  697.167
313.078;   91.524;   -1.172;  808.331
313.675;   92.686;   -2.601;  691.600
314.273;   87.654;   -1.312;  797.837
314.871;   86.515;   -3.942;  589.829
315.468;   85.788;   -2.802;  652.090
316.066;   87.755;   -0.701;  694.427
316.664;   81.004;   -4.362;  656.351
317.261;   84.091;   -2.872;  910.128
317.859;   80.054;   -2.022;  768.735
318.456;   80.314;   -0.531;  830.096
319.054;   76.535;   -3.912;  787.828
319.651;   75.240;   -4.752;  759.928
320.249;   73.531;   -2.602;  810.188
320.846;   71.822;   -0.821;  714.286
321.443;   68.868;   -4.642;  832.135
322.041;   66.129;   -5.002;  812.315
322.638;   63.596;   -3.982;  701.456
323.235;   63.945;   -3.411;  665.683
323.833;   61.552;   -7.361;  740.354
324.430;   56.775;   -8.611;  615.900
325.027;   56.567;   -4.061;  876.855
325.624;   57.820;   -4.031;  644.532
326.221;   54.547;   -7.481;  689.717
326.818;   53.091;   -5.281;  818.332
327.415;   56.925;   -7.460;  748.828
328.012;   56.165;   -5.510;  690.585
328.609;   54.035;   -7.880;  731.389
329.206;   52.158;   -8.331;  778.621
329.803;   52.163;   -5.121;  737.841
330.400;   55.019;   -4.510;  704.260
330.997;   57.421;   -6.441;  817.147
331.594;   55.212;   -8.831;  788.185
332.191;   59.792;   -7.621;  728.722
332.787;   63.662;   -4.591;  844.463
333.384;   63.538;   -7.412;  763.093
333.981;   62.386;   -8.293;  815.687
334.578;   65.164;   -7.052;  708.378
335.174;   67.810;   -3.102;  731.469
335.771;   66.475;   -5.943;  836.456
336.367;   64.530;   -7.393;  710.631
336.964;   67.238;   -4.063;  793.266
337.561;   65.898;   -3.813;  731.112
338.157;   61.402;   -4.654;  911.916
338.754;   60.802;   -7.934;  796.589
339.350;   58.503;   -4.414;  722.493
339.946;   59.257;   -4.664;  773.135
340.543;   51.903;   -6.375;  846.136
341.139;   45.988;   -9.815;  720.836
341.735;   43.331;   -4.526;  772.593
342.332;   41.909;   -4.895;  691.472
342.928;   42.585;   -4.295;  795.394
343.524;   35.318;   -5.476;  761.684
344.120;   30.678;   -5.856;  738.562
344.716;   35.470;   -2.155;  723.717
345.313;   32.517;   -6.275;  795.342
345.909;   26.786;   -8.815;  627.336
346.505;   28.757;   -5.305;  740.247
347.101;   29.027;   -2.674;  827.864
347.697;   29.383;   -4.344;  785.398
348.293;   23.757;   -9.975;  627.244
348.889;   24.156;   -5.774;  745.914
349.485;   24.102;   -5.004;  688.205
350.081;   24.794;   -4.704;  772.592
350.676;   19.689;   -6.635;  691.606
351.272;   23.552;   -4.504;  809.530
351.868;   22.441;   -3.914;  780.497
352.464;   21.323;   -9.044;  723.932
353.059;   17.745;   -8.314;  646.017
353.655;   20.254;   -7.024;  777.063
354.251;   21.266;   -5.343;  759.845
354.846;   15.906;   -8.604;  740.646
355.442;   13.782;   -6.945;  753.071
356.038;   16.030;   -7.564;  751.708
356.633;   15.106;   -5.814;  728.594
357.229;   13.392;   -7.364;  724.757
357.824;   11.669;   -8.024;  703.600
358.420;   11.352;   -9.384;  679.726
359.015;   11.114;   -5.104;  695.357
359.610;   13.267;   -6.854;  763.920
360.206;    6.494;  -10.185;  603.240
360.801;    9.178;   -7.054;  646.503
361.396;   11.122;   -5.034;  725.975
361.992;    6.428;   -8.284;  668.220
362.587;    3.663;   -8.625;  670.160
363.182;    5.906;   -7.674;  689.631
363.777;    6.310;   -5.164;  738.242
364.372;    6.599;   -8.604;  737.314
364.967;    1.776;   -9.055;  680.744
365.563;    6.623;   -6.114;  815.567
366.158;    3.580;   -5.814;  685.161
366.753;    4.514;   -7.854;  649.263
367.348;    3.030;   -7.804;  746.056
367.942;    2.670;   -7.954;  697.298
368.537;    1.557;   -4.984;  754.245
369.132;    1.607;   -8.564;  703.428
369.727;   -1.608;   -8.855;  638.079
370.322;   -1.062;   -6.245;  580.186
370.917;   -1.938;   -6.425;  710.646
371.511;    1.627;   -6.294;  861.834
372.106;   -2.156;   -7.685;  776.964
372.701;   -5.325;   -7.335;  585.988
373.296;   -0.127;   -4.564;  863.135
373.890;   -4.693;  -10.235;  647.840
374.485;   -7.283;   -7.885;  691.199
375.079;   -2.819;   -7.324;  738.685
375.674;   -1.620;   -3.494;  812.970
376.268;   -6.505;   -8.525;  691.759
376.863;  -11.266;  -10.086;  580.327
377.457;   -5.628;   -7.025;  662.490
378.052;   -7.759;   -3.585;  764.884
378.646;   -8.439;   -7.595;  741.167
379.240;   -8.514;   -8.335;  721.176
379.835;   -7.914;   -5.785;  636.978
380.429;   -9.934;   -4.335;  562.557
381.023;  -10.247;   -6.805;  779.205
381.617;  -12.340;   -9.195;  680.106
382.212;   -8.944;   -6.905;  685.303
382.806;   -8.454;   -3.745;  760.690
383.400;  -11.927;   -7.745;  672.281
383.994;  -13.148;   -9.765;  664.870
384.588;   -9.805;   -6.564;  697.701
385.182;   -8.348;   -5.344;  726.624
385.776;   -9.572;   -8.514;  706.875
386.370;  -12.070;   -9.555;  681.968
386.964;  -12.265;   -8.715;  684.155
387.558;  -10.619;   -6.174;  598.360
388.152;  -13.591;   -8.725;  681.959
388.745;  -11.534;   -7.965;  814.707
389.339;  -10.065;   -5.924;  747.642
389.933;   -9.613;   -5.524;  695.370
390.527;  -10.642;   -7.114;  859.029
391.120;  -16.407;  -10.725;  595.318
391.714;  -13.463;   -8.035;  711.633
392.308;  -10.945;   -3.574;  780.253
392.901;  -14.244;   -7.245;  642.460
393.495;  -15.559;   -9.285;  595.414
394.089;  -14.194;   -5.895;  760.452
394.682;  -14.631;   -4.295;  697.188
395.275;  -15.050;   -9.875;  719.927
395.869;  -16.014;   -8.485;  667.314
396.462;  -14.346;   -7.455;  616.609
397.056;  -10.997;   -5.424;  776.621
397.649;  -15.582;   -6.605;  731.575
398.242;  -13.247;   -8.224;  712.645
398.836;  -12.076;   -7.474;  766.408
399.429;  -14.010;   -7.094;  631.041
400.022;  -17.200;   -9.475;  665.902
400.615;  -14.666;   -7.145;  805.609
401.208;  -12.426;   -7.174;  691.451
401.802;  -14.430;   -5.515;  699.329
402.395;  -16.206;   -9.875;  683.502
402.988;  -16.587;   -8.845;  696.627
403.581;  -13.730;   -8.874;  646.878
404.174;  -11.626;   -5.324;  686.568
404.767;  -14.489;   -9.575;  638.583
405.360;  -17.363;  -10.965;  621.445
405.953;  -10.991;   -8.764;  759.034
406.545;  -10.501;   -7.514;  725.342
407.138;  -14.840;  -10.025;  618.350
407.731;  -14.609;  -10.034;  613.303
408.324;   -9.899;   -9.374;  660.554
408.917;  -11.665;   -6.534;  681.864
409.509;  -12.845;   -8.004;  740.396
410.102;  -15.502;   -9.875;  643.948
410.695;   -9.582;   -8.604;  665.758
411.287;   -9.899;   -6.794;  599.821
411.880;  -11.171;   -9.334;  585.421
412.472;  -13.913;  -10.254;  613.092
413.065;  -11.150;   -6.714;  629.408
413.657;   -9.088;   -7.234;  576.678
414.250;   -9.189;  -10.544;  646.681
414.842;  -11.694;   -9.744;  676.353
415.434;   -8.705;   -6.994;  570.463
416.027;   -4.941;   -5.893;  652.196
416.619;   -6.811;   -7.264;  713.400
417.211;   -7.517;  -10.374;  599.352
417.804;   -3.402;   -7.993;  628.499
418.396;   -7.943;   -7.234;  607.643
418.988;   -5.634;   -9.443;  659.238
419.580;   -9.670;  -10.724;  568.276
420.172;   -7.357;  -10.323;  536.196
420.764;   -3.100;   -8.793;  672.482
421.356;   -4.209;  -11.143;  636.898
421.948;   -4.200;   -8.293;  677.661
422.540;    0.262;   -7.893;  680.027
423.132;   -0.807;   -7.082;  600.641
423.724;   -4.611;   -8.653;  561.267
424.316;   -1.793;  -10.213;  621.345
424.908;    2.011;   -9.762;  591.517
425.500;    2.778;   -5.572;  647.978
426.092;    2.921;   -8.422;  648.268
426.683;    1.383;   -9.283;  684.836
427.275;    4.661;   -7.852;  641.471
427.867;    5.663;   -5.272;  668.948
428.458;    6.702;   -7.682;  732.344
429.050;    4.594;  -10.612;  680.749
429.642;    7.037;   -9.882;  743.124
430.233;    7.574;   -6.962;  569.356
430.825;    8.879;   -6.842;  724.809
431.416;    5.826;   -9.672;  698.241
432.008;   10.273;   -6.552;  651.723
432.599;   10.157;   -6.891;  656.073
433.190;    7.721;  -10.912;  637.670
433.782;    7.261;  -11.172;  590.395
434.373;   13.865;   -6.061;  884.765
434.964;   12.726;   -8.251;  602.920
435.556;   10.787;   -9.722;  634.537
436.147;   13.415;   -9.082;  758.490
436.738;   13.087;   -8.041;  701.099
437.329;   19.244;   -7.341;  721.723
437.920;   11.066;   -8.162;  666.688
438.511;   11.703;  -11.802;  564.526
439.103;   18.491;  -10.191;  623.998
439.694;   19.721;   -7.601;  681.583
440.285;   20.094;   -8.541;  764.432
440.876;   18.937;   -9.751;  845.738
441.466;   17.813;   -9.401;  575.162
442.057;   22.887;   -7.760;  665.814
442.648;   21.925;   -9.971;  746.255
443.239;   19.446;  -11.001;  620.477
443.830;   25.214;   -7.990;  704.958
444.421;   26.972;   -7.910;  655.474
445.011;   23.292;   -8.131;  693.619
445.602;   23.509;   -7.111;  743.126
446.193;   25.563;  -10.920;  488.117
446.783;   29.767;   -6.500;  640.397
447.374;   25.113;   -8.671;  692.759
447.964;   26.583;  -10.781;  713.770
448.555;   33.864;   -9.650;  822.742
449.145;   29.731;   -8.660;  662.853
449.736;   31.186;   -8.990;  803.179
450.326;   30.802;   -9.500;  713.626
450.917;   36.699;   -8.680;  675.324
451.507;   35.706;   -7.520;  600.661
452.097;   35.825;   -8.590;  746.267
452.688;   36.883;  -11.340;  742.160
453.278;   35.965;  -10.100;  566.840
453.868;   41.438;   -6.019;  793.550
454.458;   38.299;   -9.440;  651.141
455.048;   39.586;  -10.560;  711.783
455.639;   41.407;  -11.799;  567.096
456.229;   44.388;   -6.899;  710.694
456.819;   46.805;   -7.389;  751.158
457.409;   46.513;  -11.119;  773.993
457.999;   49.415;   -9.289;  737.505
458.589;   48.761;   -6.139;  686.606
459.179;   48.718;   -8.729;  717.658
459.769;   47.346;   -9.789;  627.099
460.358;   52.643;  -10.259;  797.262
460.948;   52.547;   -7.299;  689.503
461.538;   53.813;  -10.289;  660.677
462.128;   51.618;  -11.269;  664.934
462.717;   58.356;   -9.368;  710.326
463.307;   61.052;   -7.908;  705.846
463.897;   56.623;   -9.599;  656.942
464.486;   55.315;   -9.769;  837.128
465.076;   60.892;   -8.048;  733.776
465.666;   64.407;   -9.358;  652.900
466.255;   61.373;   -7.919;  785.651
466.845;   60.580;  -11.689;  666.749
467.434;   63.755;   -7.818;  725.873
468.023;   65.408;   -7.678;  658.357
468.613;   62.857;  -10.939;  713.946
469.202;   67.092;  -10.118;  646.507
469.791;   71.914;   -9.108;  737.811
470.381;   72.928;   -6.058;  742.813
470.970;   72.958;  -10.428;  711.099
471.559;   72.163;  -10.268;  733.291
472.148;   75.255;   -8.448;  675.737
472.738;   77.957;   -6.917;  765.466
473.327;   78.112;  -11.978;  637.529
473.916;   77.410;  -11.888;  737.446
474.505;   81.164;   -9.437;  751.703
475.094;   83.969;   -6.747;  806.570
475.683;   84.055;   -9.367;  797.699
476.272;   84.721;  -12.637;  730.632
476.861;   87.774;  -10.027;  706.754
477.449;   94.045;   -8.716;  728.487
478.038;   88.420;   -9.577;  692.513
478.627;   89.150;   -9.718;  714.852
479.216;   96.339;   -8.947;  769.441
479.805;   98.945;   -6.256;  783.375
480.393;   99.034;   -7.937; 1008.945
480.982;   98.132;   -7.717;  874.501
481.571;  105.043;   -9.266;  858.333
482.159;  104.869;   -7.636;  705.386
482.748;  104.595;   -9.667;  821.385
483.336;  110.037;  -10.376;  858.209
483.925;  109.580;   -7.147;  774.373
484.513;  116.584;   -7.996;  758.962
485.102;  113.967;  -10.027;  810.965
485.690;  122.495;  -10.446; 1011.050
486.278;  124.199;   -8.446;  979.329
486.867;  124.821;   -6.356;  809.662
487.455;  126.417;   -9.136;  898.229
488.043;  127.648;  -10.646;  748.361
488.631;  136.660;   -7.456; 1005.079
489.220;  140.386;   -6.636;  908.626
489.808;  141.926;  -11.036;  741.415
490.396;  148.424;  -10.246;  914.645
490.984;  155.747;   -8.556;  830.161
491.572;  165.612;   -5.886;  940.315
492.160;  172.599;   -9.486;  919.081
492.748;  182.669;  -10.976;  884.341
493.336;  204.839;   -8.776; 1019.693
493.924;  232.562;   -5.465;  958.077
494.512;  268.954;   -9.986; 1066.638
495.100;  309.098;  -10.636; 1103.280
495.687;  372.406;  -10.885; 1206.373
496.275;  452.171;   -8.126; 1150.796
496.863;  530.495;  -10.586; 1281.171
497.451;  638.099;  -11.926; 1386.805
498.038;  743.933;  -10.885; 1556.729
498.626;  863.777;   -6.315; 1741.407
499.214; 1064.312;   -7.326; 2016.609
499.801; 1294.358;  -11.906; 2220.633
500.389; 1588.626;  -10.466; 2312.494
500.976; 1864.903;   -5.236; 2744.849
501.564; 2320.614;   -8.936; 3148.565
502.151; 2952.748;  -13.176; 3515.999
502.738; 3328.234;  -10.646; 3971.274
503.326; 3747.398;   -9.525; 4403.796
503.913; 4192.905;  -10.856; 5161.749
504.500; 4597.326;  -11.586; 5986.420
505.088; 5146.099;  -10.336; 6381.201
505.675; 6016.714;   -6.355; 6925.547
506.262; 6627.659;   -9.046; 7619.060
506.849; 6986.514;  -10.416; 8733.969
507.436; 7422.289;  -10.305; 9790.121
508.023; 7803.472;   -5.496; 9985.472
508.610; 7924.863;   -7.856;10434.618
509.197; 8901.180;  -10.097;11198.435
509.784;10161.596;  -10.886;12391.194
510.371;11542.640;   -9.315;13603.713
510.958;12616.182;   -9.936;14426.586
511.545;13092.679;   -9.326;15243.775
512.132;13312.892;  -10.075;15945.876
512.719;13837.165;   -7.796;16340.369
513.305;15000.629;  -10.606;18011.766
513.892;16509.020;  -11.486;19754.971
514.479;17820.313;   -9.126;20967.805
515.066;19225.865;   -6.026;22299.793
515.652;19435.326;   -8.466;22908.660
516.239;19956.066;  -10.886;23798.875
516.825;21323.078;  -11.496;25567.275
517.412;22764.777;   -5.796;28154.959
517.998;23936.092;  -10.506;28344.111
518.585;24829.859;  -10.076;27134.219
519.171;24469.443;   -8.315;27268.576
519.758;25052.701;   -8.596;28964.129
520.344;27434.137;   -8.466;30664.494
520.930;26530.199;  -11.006;32550.605
521.516;24971.807;  -10.495;35422.895
522.103;26504.217;   -5.526;38280.004
522.689;28647.244;   -8.746;37835.117
523.275;29582.496;  -11.376;37288.613
523.861;31132.508;  -11.156;37281.395
524.447;30586.814;   -8.135;37846.949
525.033;30191.422;   -7.896;38321.949
525.619;29200.109;  -12.476;38579.285
526.205;27302.887;   -9.516;40622.875
526.791;27555.516;   -6.926;42258.836
527.377;30095.469;   -8.346;42966.902
527.963;34262.949;   -8.717;42018.949
528.549;37109.602;  -11.016;42476.828
529.135;35872.977;   -8.536;41854.852
529.721;35622.070;   -9.666;41237.711
530.306;34734.359;  -10.066;41259.445
530.892;35579.734;  -11.356;41506.047
531.478;37704.957;   -6.596;43559.613
532.063;39747.238;   -8.836;47695.563
532.649;38007.313;  -10.047;50808.324
533.235;37744.488;   -9.746;51787.500
533.820;39972.063;   -6.566;52145.035
534.406;41450.934;  -10.817;51133.488
534.991;43051.648;   -9.416;49996.805
535.576;41723.480;   -9.036;48882.852
536.162;39118.801;   -6.156;46942.285
536.747;39352.219;  -11.607;45711.746
537.333;41841.543;  -11.787;48510.180
537.918;42478.000;  -12.437;50439.891
538.503;41687.574;   -7.196;50863.711
539.088;41449.934;  -10.556;50906.922
539.673;40841.949;   -8.767;52621.965
540.259;35925.969;  -10.026;52368.094
540.844;33339.977;   -7.416;50879.109
541.429;33169.980;   -9.467;52077.777
542.014;35134.422;   -9.527;52716.695
542.599;41260.434;   -9.946;52363.281
543.184;45154.949;   -7.927;53187.137
543.769;46285.996;   -9.297;54697.605
544.354;46931.652;  -10.127;53913.914
544.938;44861.754;   -9.267;49680.164
545.523;42749.719;   -6.506;47386.277
546.108;44313.758;   -9.787;49151.949
546.693;45260.816;  -11.587;51384.637
547.278;45615.973;  -10.986;51853.254
547.862;45916.785;   -8.206;51173.750
548.447;43922.262;  -10.067;51691.395
549.031;43935.059;   -9.637;52456.703
549.616;44621.121;   -9.926;52714.516
550.201;43769.648;   -6.347;52414.598
550.785;44712.504;   -7.917;52355.059
551.370;45748.617;  -10.867;54589.453
551.954;47944.648;   -9.047;58267.348
552.538;47315.242;   -7.827;59062.176
553.123;45292.203;  -10.287;58115.285
553.707;44678.465;  -12.178;56556.285
554.291;42008.020;   -8.717;56201.668
554.876;42867.820;   -7.457;55335.762
555.460;44979.750;  -10.387;54155.703
556.044;46621.758;   -9.618;53721.484
556.628;47691.105;  -11.567;53731.016
557.212;48282.023;   -8.097;54312.531
557.796;49341.660;  -11.077;53797.773
558.380;47197.641;  -11.108;56145.984
558.964;45689.898;   -9.057;57277.930
559.548;43264.086;   -6.977;56459.641
560.132;40023.566;  -11.457;54434.543
560.716;41390.016;  -11.378;54800.617
561.300;43726.250;   -9.577;57606.945
561.884;42390.836;   -7.127;58972.445
562.467;40601.563;   -7.118;57327.570
563.051;39201.793;  -13.358;54962.434
563.635;37562.273;  -10.178;52594.473
564.219;39530.508;   -7.837;50610.410
564.802;43082.852;  -11.398;49551.180
565.386;43345.059;  -12.788;48370.953
565.969;44491.141;   -9.077;48178.871
566.553;43278.207;   -6.207;49957.305
567.136;41574.672;   -8.568;50369.594
567.720;42707.668;  -11.868;49492.004
568.303;43897.219;   -8.268;50616.352
568.887;43179.664;   -8.698;50727.148
569.470;41167.383;   -6.808;51698.379
570.053;39120.648;  -13.188;52122.078
570.637;36807.656;  -12.037;52536.438
571.220;36595.531;   -8.577;51186.098
571.803;36679.574;   -8.498;51032.762
572.386;38812.016;  -10.498;49609.887
572.969;39704.434;   -9.388;48285.926
573.552;39841.277;   -8.338;47624.285
574.135;39083.289;   -8.518;45498.641
574.718;36420.344;  -13.628;41970.434
575.301;36792.066;  -10.893;41447.137
575.884;37163.789;   -8.158;40923.836
576.467;40927.191;  -10.328;45267.723
577.050;40508.242;  -13.058;48175.543
577.633;39213.098;   -9.458;47729.328
578.216;35773.594;   -8.928;47579.793
578.799;33192.457;   -9.358;47820.996
579.381;34460.891;  -11.388;48115.551
579.964;35218.289;  -11.718;47333.766
580.547;34164.633;   -8.588;46668.969
581.129;34610.398;   -8.859;44466.141
581.712;36313.762;  -10.729;44164.922
582.294;36175.238;  -11.118;46477.855
582.877;36914.992;   -5.218;48244.254
583.459;36893.277;   -8.679;47437.895
584.042;37948.422;  -10.709;46943.219
584.624;35908.668;  -11.669;46792.227
585.206;34800.109;   -8.218;46557.250
585.789;36024.734;  -10.569;45793.773
586.371;36529.523;  -11.859;43836.391
586.953;37282.938;  -10.719;42972.492
587.536;38697.270;   -7.198;42487.211
588.118;37964.258;   -8.720;42086.414
588.700;36947.520;  -10.439;43389.930
589.282;34346.230;   -9.198;43646.039
589.864;32187.299;   -9.199;43438.109
590.446;32126.682;  -11.319;43151.926
591.028;31696.895;  -11.159;42781.867
591.610;32084.670;  -11.779;42839.098
592.192;33251.543;   -7.668;42820.402
592.774;32430.295;  -11.949;40724.277
593.356;30452.150;  -12.129;39874.789
593.937;30074.787;  -10.669;39980.648
594.519;32683.779;   -6.509;42069.633
595.101;32877.340;  -10.849;42976.031
595.683;31634.184;  -11.679;44084.441
596.264;30853.893;   -9.049;43478.797
596.846;30481.613;   -8.849;43803.672
597.427;30486.633;   -9.570;42986.934
598.009;32147.160;  -12.620;42832.219
598.591;32191.574;  -10.039;42580.086
599.172;34222.195;  -10.369;43061.805
599.753;36492.605;   -9.140;41691.469
600.335;35889.324;  -11.430;40692.520
600.916;33330.066;   -9.939;39982.422
601.498;30154.756;   -8.479;40318.617
602.079;29742.426;  -10.920;40670.609
602.660;29513.256;  -11.480;41450.898
603.241;30295.023;  -11.699;41137.738
603.823;30557.313;   -9.579;38868.797
604.404;30099.855;  -10.620;38182.785
604.985;33052.324;  -10.450;38078.047
605.566;33959.969;   -9.129;38056.633
606.147;34780.125;   -7.510;37020.418
606.728;33617.387;  -10.660;37883.359
607.309;31879.514;  -11.740;38748.273
607.890;31740.900;   -9.759;38850.230
608.471;30388.486;   -8.250;37457.918
609.051;30413.047;   -9.240;36066.457
609.632;30549.068;  -12.120;35991.074
610.213;30159.609;   -9.110;37402.641
610.794;31182.348;   -8.030;38383.363
611.374;29766.570;   -8.110;40562.387
611.955;29457.281;  -13.560;38533.727
612.536;30601.510;  -11.400;36951.789
613.116;30199.166;   -8.070;37197.891
613.697;31059.088;  -10.830;38411.125
614.277;30829.014;  -11.641;38673.938
614.858;30179.871;  -13.310;37075.863
615.438;30209.338;   -7.460;35092.906
616.019;28250.535;   -7.601;33666.301
616.599;28849.270;  -12.020;34189.023
617.179;28645.754;  -11.780;36952.047
617.760;27681.066;   -8.570;39582.574
618.340;28317.260;  -11.471;38943.977
618.920;29018.580;  -11.170;37594.156
619.500;29812.807;  -11.071;37866.938
620.080;30237.311;   -7.750;37869.043
620.660;30451.555;  -12.711;36868.617
621.241;31254.174;  -10.211;36352.309
621.821;30808.328;  -10.961;35459.520
622.401;30899.994;   -7.720;35207.414
622.980;32831.609;   -8.981;35980.422
623.560;31711.270;   -9.331;37351.328
624.140;27454.787;   -9.850;34388.582
624.720;23396.795;   -7.451;32368.764
625.300;22971.133;   -9.070;32638.629
625.880;27179.037;  -12.601;34599.035
626.459;30180.260;  -11.751;36831.738
627.039;30195.871;   -9.281;38299.098
627.619;29470.227;   -8.801;38289.574
628.198;29651.465;  -12.071;37220.695
628.778;30513.480;   -9.461;37632.563
629.357;31259.547;   -8.491;38003.012
629.937;30736.545;   -9.721;38402.039
630.516;31212.512;   -9.951;37868.801
631.096;32276.822;  -11.731;35760.410
631.675;34567.547;   -8.572;35225.219
632.254;34509.188;  -11.282;35130.289
632.834;33341.109;  -13.322;35794.570
633.413;34074.598;  -10.301;35788.922
633.992;34031.008;   -8.582;34532.863
634.571;34998.215;   -8.352;33590.113
635.151;34270.930;  -11.912;34943.863
635.730;32070.564;  -10.511;35352.523
636.309;31893.045;   -7.731;35366.605
636.888;31387.459;   -9.952;36165.637
637.467;30750.139;  -11.672;37515.902
638.046;29334.881;   -8.901;39288.695
638.625;28687.832;   -7.912;38279.699
639.204;27977.471;  -10.022;37741.598
639.782;29278.471;  -12.252;38364.551
640.361;31444.457;  -10.041;36740.621
640.940;31248.939;  -11.161;34950.082
641.519;30562.510;   -9.701;34137.398
642.097;31709.684;  -11.271;35654.258
642.676;31745.572;   -8.651;35637.957
643.255;30844.182;   -8.711;36567.074
643.833;30444.438;   -9.581;37809.434
644.412;31189.555;  -13.711;37337.293
644.990;32405.730;  -11.811;37018.531
645.569;35156.773;   -9.411;36518.469
646.147;35766.613;  -10.291;36186.430
646.726;33913.992;  -12.401;36267.688
647.304;32356.176;  -10.411;36647.625
647.882;33038.895;   -9.651;39286.742
648.461;33010.031;   -9.631;39157.703
649.039;30590.980;  -11.881;35412.883
649.617;30356.113;   -9.661;34744.918
650.195;30909.803;   -9.301;35403.098
650.773;30208.879;  -10.511;35053.797
651.352;30023.873;  -11.521;33756.816
651.930;28692.305;  -12.211;31868.773
652.508;27712.109;   -9.171;33121.551
653.086;29030.045;   -9.371;33564.793
653.663;31319.266;  -13.161;34054.668
654.241;30363.520;  -13.031;35693.309
654.819;28454.713;   -9.371;36422.906
655.397;29139.404;  -10.511;38213.484
655.975;29409.631;  -10.371;39507.625
656.553;30014.020;  -10.051;39498.223
657.130;30816.313;  -10.061;40395.480
657.708;27879.500;   -9.561;39242.020
658.286;25234.572;  -11.511;38920.020
658.863;25655.865;  -10.261;40202.898
659.441;28441.227;   -7.531;39677.938
660.018;31141.197;   -9.501;40413.355
660.596;31788.367;  -13.301;39931.414
661.173;34443.648;  -11.211;39604.531
661.750;33735.691;   -9.951;39700.070
662.328;30984.236;   -9.390;39292.809
662.905;29631.189;  -11.330;38235.648
663.482;26853.980;   -9.050;36212.305
664.060;24433.766;   -8.240;35944.945
664.637;28333.783;  -10.050;35170.785
665.214;33100.859;  -11.760;34197.523
665.791;32187.621;  -10.530;34549.520
666.368;31903.818;   -9.690;35118.578
666.945;32131.551;   -9.320;36019.418
667.522;32883.652;  -11.860;36048.438
668.099;31881.561;  -10.770;36243.914
668.676;31866.285;   -6.260;35958.875
669.253;34161.957;   -7.000;37384.730
669.830;34595.297;  -10.190;36779.629
670.407;33331.344;   -9.550;35231.289
670.984;32731.510;   -9.260;35544.270
671.560;31254.857;   -9.280;35466.867
672.137;29584.102;  -11.810;34280.863
672.714;29616.686;  -11.490;34632.863
673.290;30292.424;   -7.740;35135.422
673.867;30796.332;  -10.660;36114.480
674.443;30331.947;  -12.230;36152.859
675.020;28833.426;  -10.450;35327.238
675.596;27308.723;   -9.260;35795.176
676.173;28144.320;  -10.780;35430.355
676.749;28875.367;  -13.690;33549.516
677.326;29913.406;  -11.980;32210.012
677.902;28103.771;   -8.630;32068.871
678.478;26280.244;  -10.730;32583.891
679.054;27929.369;  -10.520;32088.928
679.631;29392.381;  -11.920;30978.848
680.207;30509.662;   -7.490;33160.887
680.783;31805.695;   -9.860;35570.363
681.359;32444.789;  -13.380;36125.184
681.935;31078.301;  -12.480;35240.922
682.511;31618.217;   -7.900;34429.961
683.087;32250.318;   -7.710;34463.680
683.663;33018.199;  -11.480;34648.898
684.239;32504.861;  -14.090;34546.457
684.815;33425.883;   -7.560;35586.375
685.390;33541.832;   -9.910;35821.895
685.966;33236.871;  -11.159;35085.871
686.542;33859.930;  -11.169;34198.230
687.118;32276.428;   -5.959;32847.707
687.693;32257.908;  -10.329;32794.027
688.269;31858.996;  -12.059;33072.367
688.844;32453.469;  -10.909;33141.664
689.420;33603.734;   -8.019;33965.742
689.995;30551.510;   -8.399;34655.523
690.571;29902.143;  -10.949;33576.742
691.146;29142.291;   -9.619;32657.219
691.722;26982.158;   -8.999;32526.979
692.297;26073.254;  -11.589;33014.617
692.872;26798.373;  -11.739;34012.254
693.448;27016.701;  -11.059;34237.434
694.023;28883.324;  -10.139;34142.672
694.598;31062.930;   -9.029;34132.031
695.173;30882.762;  -13.319;34205.250
695.748;28345.922;  -10.169;32882.488
696.323;25831.350;   -8.339;32864.906
696.898;25253.373;   -8.169;33170.004
697.473;28564.746;  -12.309;32432.984
698.048;28664.594;  -10.989;31649.303
698.623;27594.531;   -9.329;30778.141
699.198;29235.893;   -9.849;31140.119
699.773;30685.406;  -12.329;31764.299
700.348;30578.348;  -10.389;31780.816
700.922;28625.871;   -9.269;32046.375
701.497;26808.236;   -9.329;32603.574
702.072;28365.953;  -10.789;34799.871
702.646;28221.193;  -10.839;35793.172
703.221;28761.309;   -9.099;35201.590
703.795;29263.104;  -10.939;34764.527
704.370;27899.217;  -12.859;34307.367
704.944;29398.303;  -11.559;33509.887
705.519;30563.471;   -7.939;31388.584
706.093;32418.432;  -10.499;31340.104
706.668;33301.473;  -11.289;32630.281
707.242;32509.930;  -11.509;32728.779
707.816;31112.055;   -9.639;32947.238
708.390;30443.229;  -11.429;33277.855
708.965;31460.426;  -11.869;33834.336
709.539;31467.607;  -11.689;33709.273
710.113;31042.803;  -10.478;33044.313
710.687;28444.010;  -10.228;31953.992
711.261;27638.164;  -13.698;30505.949
711.835;27405.012;  -13.378;30262.369
712.409;27030.748;   -9.698;31254.447
712.983;26550.754;  -11.898;32754.986
713.557;25307.193;  -15.138;34018.824
714.131;26664.365;  -14.098;34579.625
714.704;26873.350;   -9.958;33890.262
715.278;26061.598;  -10.028;33531.102
715.852;25133.229;  -11.148;33601.660
716.425;24631.406;   -9.068;33515.117
716.999;26165.391;  -10.038;33185.555
717.573;26810.496;   -9.798;33905.996
718.146;27822.088;  -12.378;35199.293
718.720;28440.223;  -11.918;35060.551
719.293;27565.836;   -8.088;34973.230
719.867;26561.715;  -10.888;36394.449
720.440;26998.006;  -11.938;36663.008
721.013;28746.869;  -12.818;35102.426
721.587;30321.902;  -10.298;33985.266
722.160;30327.129;  -10.048;33524.965
722.733;28573.500;  -12.108;32987.043
723.306;26469.646;  -10.818;33066.301
723.880;26938.861;   -8.908;33399.500
724.453;25998.123;   -9.878;33468.297
725.026;25602.539;  -11.188;33816.637
725.599;25922.229;  -11.678;32797.996
726.172;25625.240;   -9.618;33187.434
726.745;26516.016;   -8.258;35136.613
727.318;29068.367;  -12.978;35751.730
727.891;31035.570;  -12.148;35890.430
728.463;32396.309;   -8.968;34822.090
729.036;32671.625;  -10.188;32895.086
729.609;30384.490;  -11.788;31823.225
730.182;28404.502;  -11.788;31445.283
730.754;27497.559;  -10.268;32373.223
731.327;27207.549;   -9.998;33676.820
731.900;26286.270;  -12.228;33417.000
732.472;25369.553;  -13.848;31978.498
733.045;25306.855;   -8.698;30368.777
733.617;24723.289;  -10.607;30574.215
734.190;23340.014;  -11.507;31280.975
734.762;23742.508;  -13.647;31674.412
735.334;25225.537;   -9.767;31247.291
735.907;25690.926;   -9.897;29876.211
736.479;23560.883;  -11.637;29808.488
737.051;22623.641;   -9.567;30233.547
737.623;23470.098;   -8.187;31469.086
738.195;25332.227;  -11.187;31784.225
738.768;25776.502;  -12.337;32120.523
739.340;25209.207;  -12.227;32094.342
739.912;24722.828;  -11.057;31312.680
740.484;25540.160;  -10.207;31946.238
741.056;26812.832;  -10.047;32984.059
741.628;26463.787;  -13.627;33897.715
742.199;26835.492;   -7.177;33213.016
742.771;25107.635;  -10.797;31369.113
743.343;23648.104;  -11.997;31865.473
743.915;23892.764;  -12.867;32388.631
744.487;24432.613;   -7.617;31079.568
745.058;25716.572;   -9.557;30570.107
745.630;25731.926;   -9.877;29970.127
746.201;24689.914;  -14.177;29186.766
746.773;24249.084;   -9.237;28805.723
747.344;24233.020;   -9.847;29591.223
747.916;24247.244;  -11.657;31412.201
748.487;23910.973;  -10.587;32194.898
749.059;23868.482;   -8.707;32533.719
749.630;23046.822;  -10.537;32158.518
750.201;23292.043;  -11.687;30855.395
750.773;23430.438;  -11.647;28622.555
751.344;24647.822;   -7.147;28405.732
751.915;24471.797;   -9.757;28461.551
752.486;24115.369;  -12.427;27842.850
753.057;22673.662;  -12.227;27845.008
753.628;22270.938;  -10.417;27728.107
754.199;22390.010;  -11.767;27381.086
754.770;21704.070;  -11.187;25882.203
755.341;20989.869;  -10.507;25886.184
755.912;21206.607;   -9.387;26050.861
756.483;21697.154;  -10.647;26798.779
757.054;21535.125;  -11.837;27048.238
757.625;19898.984;  -12.716;26294.838
758.195;19249.602;   -9.666;26142.076
758.766;20150.764;   -8.656;26392.234
759.337;19985.555;  -12.856;26334.594
759.907;19275.631;  -13.366;27579.652
760.478;18352.963;   -8.576;28352.770
761.048;19070.906;  -10.526;27325.088
761.619;19749.072;  -11.116;26460.428
762.189;19310.676;  -12.136;26029.826
762.760;19357.938;   -9.456;26430.145
763.330;19661.875;   -7.136;26670.902
763.900;19712.320;  -11.786;26603.021
764.471;18921.535;  -11.546;25542.740
765.041;18576.859;   -8.096;24358.459
765.611;18645.994;   -8.876;23991.297
766.181;18660.611;  -12.196;24470.236
766.751;19341.953;  -11.636;24845.975
767.321;19480.912;  -10.156;24533.633
767.891;19273.787;  -11.766;24916.492
768.461;19027.598;  -14.936;24776.771
769.031;18271.939;  -12.356;24757.988
769.601;18081.092;   -7.526;24181.088
770.171;18447.580;  -10.766;23670.387
770.741;18995.393;  -13.176;22960.045
771.311;18579.141;  -10.616;22917.523
771.880;17253.068;   -9.576;23562.941
772.450;16713.967;  -10.336;24216.500
773.020;16966.361;  -13.516;24140.398
773.589;16890.916;  -13.466;24414.857
774.159;16370.437;   -8.686;23858.717
774.729;15740.606;   -9.476;22942.135
775.298;15675.156;  -13.666;22324.033
775.867;15634.098;  -11.716;21140.313
776.437;15088.143;   -9.906;20838.092
777.006;14937.249;  -12.166;20599.510
777.576;16281.837;  -12.356;20508.809
778.145;15727.264;  -11.646;20732.947
778.714;14312.584;   -8.226;21062.465
779.283;13756.509;   -9.556;20949.664
779.853;13516.575;  -14.116;20508.623
780.422;13808.189;  -11.506;20649.082
780.991;14261.226;   -9.556;21527.520
781.560;14966.578;   -9.095;22632.658
782.129;13918.125;  -12.135;23048.277
782.698;12562.270;  -10.865;23438.555
783.267;11898.938;   -9.335;23267.734
783.836;12294.924;  -11.045;22415.133
784.404;13092.054;  -13.865;20443.152
784.973;13326.658;  -13.095;19699.150
785.542;13240.715;  -11.575;19763.828
786.111;13047.355;   -9.705;20341.408
786.679;12899.822;  -12.105;20207.967
787.248;12617.563;  -12.455;19516.465
787.817;12510.194;  -11.535;18900.363
788.385;12341.957;   -9.765;17879.121
788.954;12142.969;  -14.005;17658.301
789.522;11959.188;  -11.955;17788.879
790.090;11096.231;  -10.135;18118.277
790.659;10179.391;  -10.975;18338.736
791.227;10200.614;  -13.375;18508.615
791.795;10561.860;  -12.375;17898.254
792.364;10774.639;  -10.725;17295.133
792.932;11133.868;   -9.715;16822.051
793.500;10890.598;  -12.675;17040.148
794.068;11152.528;  -13.495;17179.787
794.636;11228.334;  -10.885;16664.246
795.204;10885.384;  -11.045;16524.545
795.772;10904.398;  -13.175;17274.564
796.340;10681.063;  -12.445;17891.002
796.908;10871.317;   -9.735;17648.561
797.476;11287.647;   -9.815;17064.080
798.044;11010.479;  -13.985;16672.777
798.612;10536.268;  -13.115;17023.996
799.180; 9741.271;  -10.185;16561.615
799.747; 9369.274;   -9.055;15962.773
800.315; 9545.324;  -12.385;15296.992
800.883; 8923.982;  -15.035;14801.771
801.450; 8194.235;  -10.365;14534.430
802.018; 7888.150;   -9.855;14173.248
802.585; 7784.553;  -11.905;14029.547
803.153; 7932.219;  -11.585;13836.846
803.720; 7715.828;   -9.095;13567.324
804.287; 7616.360;   -9.135;13360.622
804.855; 7813.831;  -11.604;13681.981
805.422; 8159.271;  -11.794;13536.560
805.989; 8361.487;  -10.734;13355.958
806.556; 8276.570;  -10.444;13747.896
807.124; 8530.479;  -12.764;13987.376
807.691; 9011.771;  -12.964;14038.674
808.258; 9073.671;  -11.134;14120.152
808.825; 9067.134;   -9.854;13860.111
809.392; 8702.347;  -10.504;13268.790
809.959; 8010.861;  -13.054;12680.389
810.526; 7270.826;   -8.294;12427.308
811.093; 6571.941;   -8.394;12030.105
811.659; 6306.011;  -12.304;11653.664
812.226; 6461.052;  -13.944;11637.183
812.793; 6835.893;  -10.484;11611.521
813.360; 6965.737;  -10.144;11885.181
813.926; 6985.231;  -11.684;12770.539
814.493; 6887.975;  -13.644;12677.638
815.060; 6728.594;   -9.724;11974.336
815.626; 6885.178;   -9.854;11594.715
816.193; 6961.130;  -13.254;11579.474
816.759; 6366.980;  -13.204;11666.972
817.325; 5939.860;   -9.434;11325.530
817.892; 5809.696;  -10.134;11105.369
818.458; 5949.912;  -13.474;10843.928
819.024; 6412.331;  -11.854;10714.406
819.591; 6537.268;  -10.244;10469.165
820.157; 6290.096;  -10.704;10235.523
820.723; 6233.630;  -12.324;10847.563
821.289; 6135.094;   -9.444;11040.980
821.855; 6185.381;   -8.374;10357.100
822.421; 6488.125;  -10.234; 9978.918
822.987; 6459.740;  -13.294; 9754.177
823.553; 6150.258;  -10.884;10065.755
824.119; 5913.906;   -8.884;10036.294
824.685; 5460.415;   -6.784;10029.192
825.251; 5382.204;  -12.004;10199.230
825.816; 5189.338;  -11.474; 9820.189
826.382; 4996.888;   -9.174; 9297.248
826.948; 5263.383;   -9.214; 9381.347
827.513; 5686.078;  -10.774; 9450.726
828.079; 5816.827;  -11.924; 9472.444
828.645; 5648.749;  -10.543; 9292.643
829.210; 5527.097;  -10.533; 9065.341
829.776; 5421.548;  -10.753; 9132.620
830.341; 5555.481;  -10.173; 9092.878
830.906; 5592.114;  -10.743; 9078.557
831.472; 5361.904;  -11.113; 8534.535
832.037; 5032.244;  -10.603; 8677.874
832.602; 4945.720;  -13.323; 8628.692
833.167; 4743.238;  -10.823; 8879.031
833.733; 4608.344;  -10.113; 9189.790
834.298; 4475.196;  -13.583; 9052.608
834.863; 4674.151;  -12.703; 8895.087
835.428; 4925.363;  -10.523; 8824.266
835.993; 4888.908;   -6.963; 8845.385
836.558; 4859.791;  -10.763; 8888.563
837.123; 4987.740;   -9.903; 8966.582
837.688; 5354.227;   -9.913; 8617.860
838.253; 5418.389;  -10.283; 8590.699
838.817; 5091.493;  -12.963; 8443.797
839.382; 4978.421;  -14.243; 8799.356
839.947; 5129.095;  -10.733; 8810.595
840.511; 5154.681;   -9.383; 8796.394
841.076; 5019.846;  -12.563; 8347.231
841.641; 4854.515;  -12.953; 8224.330
842.205; 4707.936;   -7.043; 8223.349
842.770; 4496.409;   -8.163; 8622.107
843.334; 4640.817;  -12.503; 8410.386
843.898; 4817.983;  -11.693; 8337.465
844.463; 4404.377;  -10.203; 8506.283
845.027; 4076.117;   -9.533; 8280.962
845.591; 4099.564;  -13.443; 8231.141
846.156; 4198.725;  -13.143; 7969.179
846.720; 4033.529;   -9.433; 7768.278
847.284; 3913.547;  -11.033; 7630.957
847.848; 3890.904;  -10.403; 7472.395
848.412; 3743.492;  -11.553; 7437.394
848.976; 3670.353;   -8.393; 7674.592
849.540; 3636.341;   -8.713; 7836.011
850.104; 3615.186;  -12.463; 7913.669
850.668; 3692.733;  -12.973; 7694.508
851.232; 3664.651;  -10.793; 7756.887
851.796; 3677.928;  -10.662; 7926.545
852.359; 3766.420;  -13.082; 7827.844
852.923; 3731.101;  -12.192; 7641.163
853.487; 3731.233;  -11.912; 7342.501
854.050; 3572.568;  -10.892; 7042.820
854.614; 3599.874;  -13.992; 7151.338
855.177; 3663.665;  -11.732; 7105.077
855.741; 3537.289;   -8.962; 6989.675
856.304; 3392.993;   -9.442; 6596.634
856.868; 3259.122;  -14.192; 6356.272
857.431; 3201.257;  -12.702; 6468.571
857.995; 3197.871;   -9.942; 6373.210
858.558; 3284.627;   -9.112; 6324.448
859.121; 3192.750;  -12.932; 6408.327
859.684; 3064.286;  -13.442; 6347.886
860.247; 3021.809;  -10.632; 6321.264
860.810; 2966.993;  -11.272; 6301.903
861.374; 2878.639;   -9.832; 6607.881
861.937; 2783.163;  -11.762; 6408.200
862.500; 2770.871;   -9.722; 6572.639
863.062; 2747.332;  -10.512; 6387.297
863.625; 2736.349;  -11.232; 6190.836
864.188; 2777.297;  -14.112; 5807.254
864.751; 2790.315;  -11.302; 5682.413
865.314; 2675.245;  -10.112; 5547.492
865.876; 2492.469;  -12.182; 5500.150
866.439; 2327.573;  -10.722; 5415.909
867.002; 2217.359;   -9.252; 5501.567
867.564; 2268.539;   -9.572; 5413.946
868.127; 2314.520;  -13.142; 5160.325
868.689; 2402.979;  -12.902; 5133.183
869.252; 2517.504;   -9.732; 5252.382
869.814; 2442.386;   -9.432; 5297.141
870.377; 2327.395;  -11.552; 5390.919
870.939; 2310.782;   -9.052; 5599.898
871.501; 2262.391;  -10.982; 5248.336
872.063; 2163.602;  -12.292; 4854.235
872.626; 2114.369;  -14.912; 4817.074
873.188; 2020.788;  -13.112; 4987.732
873.750; 1993.579;  -13.442; 4868.651
874.312; 1970.933;   -9.402; 4779.330
874.874; 1920.875;  -11.062; 4866.348
875.436; 1793.459;  -13.931; 4718.887
875.998; 1676.429;   -9.561; 4660.005
876.560; 1704.782;  -11.321; 4462.964
877.122; 1880.024;  -12.221; 4145.042
877.683; 2138.226;  -12.191; 4056.481
878.245; 2238.038;  -12.101; 3950.740
878.807; 2143.011;   -8.971; 4058.958
879.369; 1768.290;  -12.071; 3954.677
879.930; 1272.184;  -14.621; 3941.495
880.492;  975.101;  -10.311; 4067.014
881.053;  936.527;  -10.901; 3859.633
881.615; 1000.237;  -14.411; 3776.071
882.176; 1042.816;  -13.761; 3734.750
882.738; 1057.179;   -9.181; 3678.489
883.299; 1102.836;  -11.791; 3405.407
883.860; 1170.676;  -13.121; 3351.106
884.422; 1174.131;  -11.211; 3394.044
884.983; 1133.528;  -10.091; 3166.443
885.544; 1114.356;   -8.461; 3189.802
886.105; 1077.909;  -12.361; 3160.360
886.666; 1032.145;  -14.141; 3093.059
887.227; 1012.829;  -11.361; 2941.957
887.788;  974.971;  -11.401; 2974.836
888.349;  897.992;  -13.791; 2721.214
888.910;  864.655;  -13.191; 2696.493
889.471;  836.638;   -9.881; 2560.172
890.032;  847.169;   -9.881; 2558.190
890.593;  844.340;  -10.371; 2567.669
891.153;  766.839;  -13.301; 2460.307
891.714;  666.737;  -11.431; 2372.046
892.275;  622.478;  -11.291; 2309.505
892.835;  634.454;  -11.471; 2382.543
893.396;  630.204;  -11.541; 2295.502
893.956;  607.817;  -11.181; 2162.420
894.517;  570.720;  -11.741; 2125.439
895.077;  522.160;  -11.671; 2086.978
895.638;  484.264;  -11.311; 2126.316
896.198;  474.273;   -9.831; 1838.275
896.758;  461.564;   -8.421; 1892.813
897.319;  441.693;  -12.351; 1792.232
897.879;  423.996;  -13.511; 1762.751
898.439;  394.449;  -12.001; 1661.149
898.999;  374.739;  -10.180; 1781.468
899.559;  371.107;  -12.030; 1703.347
900.119;  363.145;  -15.710; 1537.525
900.679;  348.837;   -8.900; 1638.384
901.239;  327.942;   -8.340; 1527.902
901.799;  301.143;  -13.910; 1456.441
902.359;  278.730;  -13.460; 1357.140
902.919;  271.237;  -11.490; 1331.118
903.479;  271.965;  -12.110; 1317.257
904.038;  267.413;  -11.720; 1262.595
904.598;  259.912;  -13.610; 1152.034
905.158;  248.208;  -11.040; 1240.893
905.717;  234.415;  -10.900; 1233.691
906.277;  223.658;  -15.080; 1217.330
906.836;  220.705;  -13.380; 1222.408
907.396;  218.318;  -10.780; 1193.047
907.955;  211.670;   -8.500; 1182.526
908.515;  207.341;  -12.760; 1099.364
909.074;  206.631;  -11.900; 1092.863
909.633;  205.863;   -8.950; 1069.121
910.192;  203.977;   -8.770; 1196.460
910.752;  194.949;  -12.390; 1029.960
911.311;  184.718;  -13.680; 1009.780
911.870;  175.224;  -12.370;  971.460
912.429;  169.555;  -10.900; 1094.080
912.988;  166.045;  -11.690; 1081.060
913.547;  162.792;  -13.240;  940.380
914.106;  158.226;  -11.990;  999.420
914.665;  155.479;   -9.990;  984.020
915.224;  151.939;  -12.880; 1035.760
915.782;  150.791;  -12.350;  922.560
916.341;  150.618;   -9.110; 1049.840
916.900;  149.140;   -9.270;  925.260
917.458;  148.617;  -13.240;  884.220
918.017;  146.500;  -13.550;  942.600
918.576;  145.648;  -12.320;  904.440
919.134;  144.320;  -11.490;  837.980
919.693;  142.900;  -13.670;  893.060
920.251;  142.225;  -15.470;  876.500
920.809;  141.454;  -11.290;  839.580
921.368;  142.315;  -10.210;  885.360
921.926;  139.525;  -12.140;  842.940
922.484;  136.915;  -13.080;  903.360
923.042;  135.952;  -11.720;  880.340
923.601;  135.844;   -7.480;  998.680
924.159;  134.853;  -11.570;  935.560
924.717;  132.344;  -13.840;  841.080
925.275;  133.277;  -10.640;  903.240
925.833;  131.980;  -11.540;  779.320
926.391;  133.827;  -12.960;  938.380
926.949;  132.906;  -14.130;  857.680
927.506;  132.833;  -11.750;  903.500
928.064;  132.061;  -10.250;  877.580
928.622;  132.965;  -13.030;  880.100
929.180;  134.989;  -13.400;  814.180
929.737;  137.216;  -10.700;  808.540
930.295;  139.990;  -10.070;  928.480
930.853;  139.718;  -11.960;  849.100
931.410;  140.105;  -13.120;  821.120
931.968;  141.868;  -10.770;  940.660
932.525;  142.447;  -10.680;  909.380
933.082;  141.248;  -13.130;  811.440
933.640;  142.661;  -13.210;  925.900
934.197;  141.884;  -11.060;  886.360
934.754;  142.285;   -9.580;  897.780
935.312;  143.609;  -14.000;  863.340
935.869;  144.969;  -10.710; 1012.980
936.426;  143.722;   -9.860;  872.800
936.983;  143.202;   -9.710;  889.020
937.540;  144.747;  -13.990;  838.280
938.097;  149.647;  -14.040;  940.120
938.654;  152.589;  -10.310;  898.860
939.211;  153.609;  -10.560;  952.480
939.768;  152.811;  -13.900;  915.420
940.324;  156.022;  -14.760;  904.200
940.881;  158.679;  -10.370;  878.500
941.438;  162.694;   -8.260; 1021.200
941.995;  161.657;  -12.540;  992.560
942.551;  161.491;  -14.670;  875.620
943.108;  162.891;  -10.450;  937.920
943.664;  162.999;  -10.750;  869.340
944.221;  166.928;  -11.550; 1088.140
944.777;  166.525;  -14.770;  869.680
945.334;  164.457;  -12.820;  884.840
945.890;  159.595;  -10.130;  946.480
946.446;  155.871;  -13.470;  947.020
947.003;  157.759;  -12.120;  964.940
947.559;  158.660;   -9.980; 1063.040
948.115;  154.781;   -9.080; 1026.540
948.671;  152.275;  -10.830;  967.300
949.227;  151.299;  -12.440;  859.560
949.783;  151.262;  -12.910;  858.900
950.339;  155.879;  -10.270;  991.000
950.895;  156.771;  -13.630; 1023.840
951.451;  155.696;  -15.100;  925.280
952.007;  154.186;  -11.330;  998.540
952.563;  151.235;  -10.580;  937.780
953.118;  148.018;  -13.440;  904.940
953.674;  147.359;  -12.710;  935.780
954.230;  148.651;  -10.350;  949.640
954.785;  152.234;   -9.190;  936.640
955.341;  154.305;  -11.200;  998.160
955.897;  149.516;  -16.560;  834.660
956.452;  147.959;  -12.570;  953.840
957.008;  145.554;   -7.970; 1083.640
957.563;  141.924;  -11.940; 1009.540
958.118;  137.705;  -13.450;  877.700
958.674;  135.780;  -12.030;  946.780
959.229;  136.688;   -9.410; 1013.980
959.784;  136.195;  -12.000;  832.400
960.339;  136.886;  -14.780; 1001.280
960.894;  134.050;   -9.860;  963.760
961.449;  132.067;   -9.970;  859.960
962.004;  131.627;  -10.900; 1212.840
962.559;  127.998;  -13.150;  860.140
963.114;  127.738;  -13.740;  742.480
963.669;  125.434;   -9.820;  915.500
964.224;  124.611;  -13.890;  874.340
964.779;  123.866;  -12.600;  828.420
965.334;  126.186;  -10.950; 1017.860
965.888;  125.417;  -11.170;  875.360
966.443;  125.108;  -12.540;  972.380
966.998;  121.930;  -15.780;  819.460
967.552;  121.202;   -9.760;  908.380
968.107;  118.967;   -9.060;  868.300
968.661;  118.693;  -11.950;  922.440
969.216;  116.439;  -12.800;  856.280
969.770;  114.276;  -11.210;  917.200
970.324;  114.218;  -11.610;  923.140
970.879;  114.940;  -11.370;  947.180
971.433;  116.248;  -12.540;  952.720
971.987;  115.946;  -11.320;  895.340
972.541;  113.136;  -10.720;  917.100
973.095;  112.016;   -9.680; 1009.460
973.649;  108.350;  -11.440;  809.480
974.203;  107.007;  -11.210;  829.040
974.757;  107.276;  -10.240;  855.220
975.311;  106.183;  -13.720;  872.600
975.865;  105.835;  -13.770;  881.820
976.419;  103.755;  -11.690;  857.400
976.973;  100.696;   -9.510;  849.620
977.526;   99.906;  -12.620;  949.920
978.080;   98.648;  -12.010;  796.780
978.634;   97.292;  -10.170;  921.320
979.187;   96.758;   -9.020;  905.400
979.741;   98.383;   -9.820; 1018.380
980.294;   95.859;  -14.870;  789.160
980.848;   94.037;  -12.380;  717.220
981.401;   94.623;  -10.350;  816.540
981.955;   93.501;  -13.720;  844.300
982.508;   89.293;  -11.490;  746.340
983.061;   89.967;  -10.000;  915.260
983.615;   88.210;  -11.480;  798.800
984.168;   85.922;  -13.220;  770.080
984.721;   84.852;  -13.960;  880.760
985.274;   83.038;  -10.870;  867.500
985.827;   81.468;   -9.790;  834.220
986.380;   79.343;  -13.120;  721.340
986.933;   78.910;  -12.450;  864.800
987.486;   77.727;  -10.210;  861.920
988.039;   77.944;   -8.430;  863.100
988.591;   77.823;  -10.520;  893.260
989.144;   74.555;  -14.860;  737.260
989.697;   73.067;  -13.080;  758.740
990.250;   73.047;  -10.150;  858.100
990.802;   71.868;  -13.430;  755.860
991.355;   70.856;  -12.750;  974.880
991.907;   68.947;  -12.040;  864.320
992.460;   67.037;  -11.330;  753.760
993.012;   65.849;  -13.610;  749.540
993.565;   64.620;  -13.460;  711.360
994.117;   65.410;   -9.360;  950.780
994.669;   62.992;  -11.300;  701.320
995.221;   61.306;  -13.540;  791.920
995.774;   60.859;  -13.430;  787.580
996.326;   58.521;  -12.520;  740.220
996.878;   58.259;  -10.950;  838.420
997.430;   56.326;  -14.300;  699.860
997.982;   55.244;  -13.760;  750.140
998.534;   54.769;  -11.530;  739.060
999.086;   54.028;  -10.310;  738.220
999.638;   52.851;  -12.530;  661.380
1000.190;   51.937;  -11.840;  699.320
1000.741;   51.403;  -10.260;  742.700
1001.293;   50.386;   -8.860;  686.020
1001.845;   49.899;  -13.700;  676.640
1002.396;   49.826;  -12.100;  743.400
1002.948;   48.791;  -12.760;  737.400
1003.500;   46.265;  -10.380;  723.780
1004.051;   47.768;  -11.900;  907.580
1004.603;   46.649;  -12.250;  791.820
1005.154;   43.611;  -13.210;  608.980
1005.705;   42.779;  -10.950;  723.960
1006.257;   42.343;  -13.880;  707.220
1006.808;   41.651;  -12.840;  685.460
1007.359;   41.118;  -10.570;  763.240
1007.910;   40.433;   -9.620;  646.640
1008.461;   39.997;  -13.630;  732.940
1009.013;   38.487;  -17.200;  588.340
1009.564;   40.367;  -10.200;  793.520
1010.115;   37.391;  -12.570;  597.040
1010.665;   36.782;  -15.150;  602.160
1011.216;   37.416;  -14.480;  667.920
1011.767;   37.467;  -11.340;  697.920
1012.318;   37.044;   -9.780;  736.980
1012.869;   36.781;  -12.380;  679.000
1013.419;   35.693;  -15.560;  603.120
1013.970;   36.034;  -11.010;  666.640
1014.521;   35.423;  -11.610;  620.620
1015.071;   35.845;  -13.450;  670.380
1015.622;   35.208;  -13.870;  635.460
1016.172;   34.632;  -11.610;  596.820
1016.723;   34.464;  -12.120;  614.380
1017.273;   33.850;  -13.620;  604.160
1017.823;   33.669;  -14.140;  650.340
1018.374;   33.344;  -12.800;  611.760
1018.924;   32.986;  -12.340;  716.880
1019.474;   33.815;  -11.410;  718.880
1020.024;   31.832;  -14.770;  657.580
1020.574;   33.156;   -9.780;  726.160
1021.124;   33.057;   -8.560;  673.580
1021.674;   31.830;  -15.190;  559.120
1022.224;   33.168;  -13.530;  708.940
1022.774;   32.771;  -13.280;  668.820
1023.324;   32.807;  -10.690;  753.520
1023.874;   33.326;  -10.240;  875.760
1024.423;   31.248;  -12.540;  613.700
1024.973;   31.109;  -10.010;  610.760
1025.523;   31.140;  -10.550;  620.960
1026.072;   29.970;  -13.560;  606.420
1026.622;   29.998;  -15.120;  675.740
1027.172;   31.850;  -11.260;  715.660
1027.721;   29.720;  -11.410;  601.220
1028.270;   30.061;  -13.530;  663.400
1028.820;   30.133;  -13.680;  638.080
1029.369;   29.316;  -13.520;  612.700
1029.918;   30.013;  -10.980;  649.840
1030.468;   28.838;  -13.530;  564.780
1031.017;   28.670;  -13.170;  634.800
1031.566;   27.662;  -12.200;  608.900
1032.115;   29.324;   -9.960;  694.500
1032.664;   27.752;  -13.210;  596.480
1033.213;   28.334;  -12.500;  735.420
1033.762;   27.902;  -11.910;  635.620
1034.311;   28.172;   -9.640;  677.220
1034.860;   28.344;  -13.310;  691.000
1035.408;   27.345;  -11.830;  722.720
1035.957;   27.838;  -12.000;  719.540
1036.506;   25.239;  -11.690;  530.800
1037.055;   28.154;  -10.990;  844.320
1037.603;   26.726;  -15.120;  664.000
1038.152;   25.014;  -12.450;  534.760
1038.700;   25.505;  -10.560;  585.740
1039.249;   25.490;  -11.080;  681.220
1039.797;   25.672;  -12.540;  633.360
1040.345;   26.667;  -11.920;  705.420
1040.894;   25.805;  -11.410;  625.300
1041.442;   24.912;  -14.320;  632.200
1041.990;   23.680;  -16.240;  559.160
1042.538;   23.963;  -11.680;  536.180
1043.087;   23.890;  -10.760;  570.860
1043.635;   24.885;  -11.850;  670.500
1044.183;   23.566;  -15.480;  586.400
1044.731;   23.684;  -11.770;  576.000
1045.279;   24.038;  -13.090;  674.920
1045.827;   25.752;  -12.440;  892.400
1046.374;   23.188;  -13.840;  515.420
1046.922;   22.082;  -13.220;  590.580
1047.470;   23.603;  -10.230;  691.300
1048.018;   23.716;  -14.590;  647.960
1048.565;   23.925;  -12.050;  708.600
1049.113;   22.679;  -11.650;  557.000
1049.660;   22.252;  -10.510;  629.660
1050.208;   22.379;  -13.310;  675.640
1050.755;   21.731;  -15.900;  606.580
1051.303;   23.482;  -11.430;  686.820
1051.850;   21.484;   -8.480;  635.120
1052.397;   20.044;  -15.010;  473.960
1052.945;   20.667;  -13.960;  617.760
1053.492;   22.766;  -13.150;  741.840
1054.039;   22.473;   -9.630;  720.180
1054.586;   21.206;  -13.680;  557.240
1055.133;   21.484;  -14.570;  693.140
1055.680;   21.443;  -13.820;  646.620
1056.227;   20.001;  -11.730;  542.780
1056.774;   21.750;  -12.480;  794.980
1057.321;   19.889;  -13.930;  523.260
1057.868;   19.770;  -11.690;  651.320
1058.415;   19.522;   -9.520;  651.980
1058.961;   20.912;  -13.160;  678.940
1059.508;   20.013;  -12.920;  643.820
1060.055;   20.178;  -11.920;  581.780
1060.601;   20.067;  -11.500;  624.300
1061.148;   19.584;  -14.330;  616.820
1061.694;   18.470;  -16.870;  592.580
1062.241;   19.106;  -10.330;  596.320
1062.787;   19.280;  -10.620;  663.140
1063.334;   20.198;  -10.110;  808.560
1063.880;   19.461;  -13.400;  668.360
1064.426;   19.305;  -10.680;  706.820
1064.972;   18.095;   -9.920;  601.340
1065.518;   17.352;  -10.980;  566.640
1066.065;   18.917;  -14.890;  624.460
1066.611;   17.947;  -12.870;  598.800
1067.157;   18.888;  -12.950;  641.860
1067.703;   18.142;  -13.540;  668.480
1068.249;   17.701;  -13.540;  605.220
1068.794;   17.738;  -12.600;  626.880
1069.340;   16.628;  -10.620;  578.960
1069.886;   17.673;  -12.830;  590.700
1070.432;   16.112;  -14.870;  541.720
1070.977;   16.401;  -11.980;  601.080
1071.523;   16.425;   -8.200;  573.060
1072.068;   16.802;  -12.330;  582.000
1072.614;   16.403;  -16.370;  527.760
1073.160;   17.211;  -11.100;  687.040
1073.705;   16.086;  -10.480;  572.520
1074.250;   15.221;  -14.520;  559.900
1074.796;   16.584;  -11.460;  655.160
1075.341;   16.474;  -11.950;  664.100
1075.886;   15.785;  -11.460;  594.240
1076.431;   15.927;  -13.770;  649.880
1076.976;   15.453;  -12.680;  639.220
1077.521;   15.471;  -13.170;  583.080
1078.067;   14.558;  -10.860;  579.400
1078.612;   15.586;  -13.920;  661.620
1079.156;   15.516;  -13.880;  601.540
1079.701;   15.589;  -13.120;  693.260
1080.246;   15.068;   -9.940;  696.300
1080.791;   15.018;  -14.740;  625.020
1081.336;   14.104;  -13.750;  659.320
1081.880;   14.534;  -13.400;  649.680
1082.425;   14.416;  -12.220;  573.480
1082.970;   15.605;  -11.610;  717.040
1083.514;   13.356;  -13.580;  597.000
1084.059;   13.586;  -12.810;  586.720
1084.603;   13.644;  -12.320;  565.840
1085.147;   13.962;  -13.190;  645.220
1085.692;   14.480;  -12.480;  716.800
1086.236;   12.866;  -13.020;  503.140
1086.780;   14.781;   -9.190;  751.440
1087.325;   13.636;  -12.480;  654.620
1087.869;   12.830;  -12.450;  610.700
1088.413;   13.835;  -12.240;  705.040
1088.957;   11.555;   -9.020;  543.400
1089.501;   13.278;  -10.320;  766.640
1090.045;   12.715;  -12.720;  726.480
1090.589;   11.111;  -13.690;  569.920
1091.133;   12.909;  -10.020;  673.340
1091.676;   12.471;  -12.330;  591.940
1092.220;   11.942;  -14.970;  600.920
1092.764;   12.572;  -12.430;  706.960
1093.307;   12.713;   -9.800;  673.780
1093.851;   11.278;  -14.970;  556.540
1094.395;   12.058;  -15.310;  683.140
1094.938;   11.303;  -10.370;  632.520
1095.482;   11.076;  -11.050;  559.800
1096.025;   12.498;  -11.840;  710.880
1096.568;   12.325;  -12.840;  779.280
1097.112;   10.248;  -14.700;  508.180
1097.655;   11.358;   -8.720;  603.000
1098.198;    9.768;  -13.610;  600.180
1098.741;   10.905;  -13.350;  612.860
1099.285;   11.212;  -11.230;  657.300
1099.828;    9.180;  -11.840;  439.400
1100.371;    9.952;  -10.840;  608.160
1100.914;   10.785;  -14.190;  682.660
1101.457;   10.238;  -11.240;  679.900
1101.999;    8.448;  -11.270;  584.680
1102.542;   10.328;  -11.480;  641.440
1103.085;    9.203;  -11.750;  658.500
1103.628;   10.088;  -11.400;  762.060
1104.170;    9.453;  -10.490;  588.280
1104.713;    9.477;  -10.600;  646.700
1105.256;    8.616;  -14.360;  557.440
1105.798;    7.686;  -13.210;  499.980
1106.341;    9.820;  -10.270;  728.900
1106.883;    8.938;  -12.200;  521.340
1107.425;    8.764;  -13.110;  668.180
1107.968;    8.786;  -12.840;  612.380
1108.510;    8.308;   -6.480;  684.960
1109.052;    7.850;  -13.940;  612.620
1109.594;    8.292;  -13.690;  554.440
1110.136;    8.403;  -11.880;  643.220
1110.679;    7.843;   -9.500;  633.080
1111.221;    8.458;  -14.160;  604.460
1111.763;    8.160;  -13.980;  559.220
1112.304;    7.789;  -13.880;  547.140
1112.846;    8.009;  -12.210;  666.240
1113.388;    9.874;  -11.390;  942.180
1113.930;    7.504;  -14.540;  694.200
1114.472;    7.305;  -12.640;  606.540
1115.013;    6.111;  -11.620;  551.280
1115.555;    6.722;  -13.640;  587.100
1116.097;    5.819;  -15.380;  579.480
1116.638;    7.802;  -12.640;  684.600
1117.180;    7.906;   -9.850;  667.740
1117.721;    6.731;  -13.690;  568.580
1118.262;    7.627;  -12.680;  677.960
1118.804;    7.424;  -12.530;  637.340
1119.345;    6.046;  -11.690;  578.400
1119.886;    7.264;  -13.380;  704.040
1120.427;    5.804;  -14.070;  589.020
1120.969;    5.262;  -13.500;  597.920
1121.510;    5.598;  -11.480;  563.060
1122.051;    6.179;  -12.830;  723.580
1122.592;    6.133;  -14.290;  655.420
1123.133;    4.344;  -12.400;  547.940
1123.673;    6.239;  -10.130;  706.480
1124.214;    6.146;  -12.930;  612.460
1124.755;    6.101;  -14.380;  639.460
1125.296;    5.654;  -14.000;  627.320
1125.836;    5.901;  -10.070;  691.500
1126.377;    5.454;  -12.640;  599.660
1126.918;    5.313;  -12.960;  614.980
1127.458;    4.130;  -13.350;  622.220
1127.999;    5.618;  -10.750;  656.980
1128.539;    5.011;  -12.350;  694.240
1129.079;    4.186;  -14.860;  632.720
1129.620;    4.318;  -13.840;  558.100
1130.160;    4.305;  -12.330;  539.480
1130.700;    4.964;  -14.530;  640.840
1131.240;    5.419;  -12.530;  643.700
1131.781;    4.041;  -14.450;  619.680
1132.321;    3.734;   -9.790;  599.120
1132.861;    2.464;  -14.860;  564.200
1133.401;    3.072;  -14.290;  593.940
1133.941;    4.147;  -11.750;  626.280
1134.481;    3.171;   -9.920;  597.580
1135.020;    3.594;  -12.290;  609.160
1135.560;    2.992;  -11.650;  674.940
1136.100;    3.267;  -16.270;  501.160
1136.640;    2.471;  -10.890;  510.480
1137.179;    3.313;  -14.180;  537.960
1137.719;    3.331;  -16.250;  605.400
1138.258;    2.475;  -14.230;  587.360
1138.798;    2.841;   -9.090;  663.780
1139.337;    1.877;  -15.130;  482.840
1139.877;    3.344;  -13.680;  642.360
1140.416;    4.858;  -11.320;  878.060
1140.955;    2.086;  -10.860;  535.380
1141.494;    3.388;  -12.920;  669.280
1142.034;    2.164;  -13.930;  583.520
1142.573;    3.136;  -11.440;  646.280
1143.112;    1.371;  -12.000;  553.480
1143.651;    2.550;  -13.670;  536.480
1144.190;    2.688;  -12.730;  691.640
1144.729;    1.613;  -14.560;  607.420
1145.267;    1.307;  -11.830;  584.900
1145.806;    3.123;  -12.230;  637.040
1146.345;    1.891;  -14.130;  635.020
1146.884;    2.054;  -11.590;  622.500
1147.422;    1.069;  -12.550;  533.060
1147.961;    3.362;  -11.180;  708.460
1148.500;    2.631;  -11.510;  669.720
1149.038;    2.913;  -11.640;  632.500
1149.577;    2.092;  -10.130;  698.640
1150.115;   -0.214;  -13.970;  452.280
1150.653;    1.746;  -14.520;  607.340
1151.192;    1.922;  -12.810;  552.920
1151.730;    1.055;   -9.100;  652.560
1152.268;    1.457;  -12.220;  589.520
1152.806;    0.547;  -14.140;  571.180
1153.344;    0.056;  -12.350;  577.640
1153.882;    0.888;   -8.980;  600.060
1154.421;    0.012;  -15.190;  470.620
1154.958;   -0.371;  -15.210;  595.240
1155.496;    1.486;  -12.850;  645.280
1156.034;    0.604;   -9.940;  721.880
1156.572;    1.244;  -13.570;  667.060
1157.110;   -0.621;  -14.590;  473.940
1157.647;    0.623;  -13.030;  676.960
1158.185;    0.308;  -12.140;  564.320
1158.723;   -1.373;  -14.390;  509.200
1159.260;    0.162;  -14.090;  701.700
1159.798;    0.163;  -11.920;  658.160
1160.335;    0.431;  -11.110;  631.820

