
Integration time [ms]:   3.276
Averaging Nr. [scans]: 1000
Smoothing Nr. [pixels]: 0
Data measured with spectrometer [name]: 7414430SP
Wave   ;Sample   ;Dark     ;Reference
[nm]   ;[counts] ;[counts] ;[counts] 

288.544;  151.071;    7.793;  793.890
289.143;  155.888;    7.462;  681.602
289.742;  156.733;    8.602;  828.814
290.341;  141.555;    1.321;  789.841
290.940;  130.185;   -0.709;  730.702
291.538;  130.612;    0.881;  881.108
292.137;  131.248;    0.122;  792.581
292.736;  135.798;   -1.929;  975.101
293.335;  131.925;   -8.229;  735.086
293.934;  133.665;   -5.279;  781.677
294.532;  130.592;   -1.369; 1031.958
295.131;  116.963;   -7.641;  834.394
295.730;  116.469;   -8.420;  809.588
296.328;  116.011;   -5.611;  783.442
296.927;  117.703;   -5.781;  779.652
297.525;  118.063;   -6.361;  781.236
298.124;  106.949;  -11.382;  654.009
298.722;  111.590;   -7.641;  761.933
299.321;  109.990;   -6.811;  708.597
299.919;  107.334;   -6.991;  751.918
300.518;  104.609;  -10.362;  689.338
301.116;  106.277;   -9.581;  691.381
301.715;  106.296;   -4.891;  730.222
302.313;  105.193;   -8.801;  704.943
302.911;  100.889;   -8.522;  733.830
303.509;  105.507;   -6.171;  925.627
304.108;  103.387;   -7.311;  760.383
304.706;  102.514;   -8.321;  801.664
305.304;   96.617;  -10.222;  796.707
305.902;  102.543;   -6.021;  784.484
306.500;   98.546;   -4.971;  728.200
307.098;   96.431;   -7.061;  746.560
307.696;   94.580;   -8.801;  780.432
308.294;   95.093;   -6.411;  731.359
308.892;   97.571;   -2.901;  759.769
309.490;   92.693;   -5.041;  712.161
310.088;   91.704;   -5.002;  788.444
310.686;   95.775;   -2.041;  821.749
311.284;   91.784;   -2.351;  766.040
311.882;   88.979;   -4.422;  731.225
312.480;   86.509;   -4.192;  697.167
313.078;   87.248;   -1.172;  808.331
313.675;   88.037;   -2.601;  691.600
314.273;   83.679;   -1.312;  797.837
314.871;   83.299;   -3.942;  589.829
315.468;   80.280;   -2.802;  652.090
316.066;   83.627;   -0.701;  694.427
316.664;   76.015;   -4.362;  656.351
317.261;   80.482;   -2.872;  910.128
317.859;   75.443;   -2.022;  768.735
318.456;   76.917;   -0.531;  830.096
319.054;   72.473;   -3.912;  787.828
319.651;   70.907;   -4.752;  759.928
320.249;   70.277;   -2.602;  810.188
320.846;   68.226;   -0.821;  714.286
321.443;   65.334;   -4.642;  832.135
322.041;   62.176;   -5.002;  812.315
322.638;   59.415;   -3.982;  701.456
323.235;   61.457;   -3.411;  665.683
323.833;   59.142;   -7.361;  740.354
324.430;   53.705;   -8.611;  615.900
325.027;   54.380;   -4.061;  876.855
325.624;   53.665;   -4.031;  644.532
326.221;   51.777;   -7.481;  689.717
326.818;   50.666;   -5.281;  818.332
327.415;   54.522;   -7.460;  748.828
328.012;   53.568;   -5.510;  690.585
328.609;   52.349;   -7.880;  731.389
329.206;   50.474;   -8.331;  778.621
329.803;   50.466;   -5.121;  737.841
330.400;   52.499;   -4.510;  704.260
330.997;   54.950;   -6.441;  817.147
331.594;   53.242;   -8.831;  788.185
332.191;   59.146;   -7.621;  728.722
332.787;   61.192;   -4.591;  844.463
333.384;   59.666;   -7.412;  763.093
333.981;   58.393;   -8.293;  815.687
334.578;   61.671;   -7.052;  708.378
335.174;   64.496;   -3.102;  731.469
335.771;   64.010;   -5.943;  836.456
336.367;   60.657;   -7.393;  710.631
336.964;   64.350;   -4.063;  793.266
337.561;   62.317;   -3.813;  731.112
338.157;   58.542;   -4.654;  911.916
338.754;   55.866;   -7.934;  796.589
339.350;   53.665;   -4.414;  722.493
339.946;   55.771;   -4.664;  773.135
340.543;   47.715;   -6.375;  846.136
341.139;   41.838;   -9.815;  720.836
341.735;   39.398;   -4.526;  772.593
342.332;   38.893;   -4.895;  691.472
342.928;   39.123;   -4.295;  795.394
343.524;   33.918;   -5.476;  761.684
344.120;   29.321;   -5.856;  738.562
344.716;   32.201;   -2.155;  723.717
345.313;   30.582;   -6.275;  795.342
345.909;   24.964;   -8.815;  627.336
346.505;   26.962;   -5.305;  740.247
347.101;   27.639;   -2.674;  827.864
347.697;   27.272;   -4.344;  785.398
348.293;   22.303;   -9.975;  627.244
348.889;   23.194;   -5.774;  745.914
349.485;   22.888;   -5.004;  688.205
350.081;   23.099;   -4.704;  772.592
350.676;   17.709;   -6.635;  691.606
351.272;   22.276;   -4.504;  809.530
351.868;   21.906;   -3.914;  780.497
352.464;   19.231;   -9.044;  723.932
353.059;   15.654;   -8.314;  646.017
353.655;   18.740;   -7.024;  777.063
354.251;   20.426;   -5.343;  759.845
354.846;   14.208;   -8.604;  740.646
355.442;   12.162;   -6.945;  753.071
356.038;   14.895;   -7.564;  751.708
356.633;   14.570;   -5.814;  728.594
357.229;   12.216;   -7.364;  724.757
357.824;   10.432;   -8.024;  703.600
358.420;    9.452;   -9.384;  679.726
359.015;   10.455;   -5.104;  695.357
359.610;   11.497;   -6.854;  763.920
360.206;    5.335;  -10.185;  603.240
360.801;    8.297;   -7.054;  646.503
361.396;    9.773;   -5.034;  725.975
361.992;    6.108;   -8.284;  668.220
362.587;    3.150;   -8.625;  670.160
363.182;    4.976;   -7.674;  689.631
363.777;    5.983;   -5.164;  738.242
364.372;    5.391;   -8.604;  737.314
364.967;    1.688;   -9.055;  680.744
365.563;    6.237;   -6.114;  815.567
366.158;    3.323;   -5.814;  685.161
366.753;    3.154;   -7.854;  649.263
367.348;    1.938;   -7.804;  746.056
367.942;    2.006;   -7.954;  697.298
368.537;    0.724;   -4.984;  754.245
369.132;    1.111;   -8.564;  703.428
369.727;   -3.346;   -8.855;  638.079
370.322;   -1.700;   -6.245;  580.186
370.917;   -2.256;   -6.425;  710.646
371.511;    0.825;   -6.294;  861.834
372.106;   -3.152;   -7.685;  776.964
372.701;   -5.821;   -7.335;  585.988
373.296;   -0.542;   -4.564;  863.135
373.890;   -5.289;  -10.235;  647.840
374.485;   -7.732;   -7.885;  691.199
375.079;   -3.844;   -7.324;  738.685
375.674;   -1.982;   -3.494;  812.970
376.268;   -6.000;   -8.525;  691.759
376.863;  -12.090;  -10.086;  580.327
377.457;   -6.653;   -7.025;  662.490
378.052;   -7.647;   -3.585;  764.884
378.646;   -9.127;   -7.595;  741.167
379.240;   -9.225;   -8.335;  721.176
379.835;   -8.733;   -5.785;  636.978
380.429;   -9.976;   -4.335;  562.557
381.023;  -10.744;   -6.805;  779.205
381.617;  -12.735;   -9.195;  680.106
382.212;   -9.528;   -6.905;  685.303
382.806;   -8.398;   -3.745;  760.690
383.400;  -12.244;   -7.745;  672.281
383.994;  -13.403;   -9.765;  664.870
384.588;   -9.424;   -6.564;  697.701
385.182;   -8.609;   -5.344;  726.624
385.776;   -9.663;   -8.514;  706.875
386.370;  -12.977;   -9.555;  681.968
386.964;  -11.939;   -8.715;  684.155
387.558;   -9.914;   -6.174;  598.360
388.152;  -14.095;   -8.725;  681.959
388.745;  -12.066;   -7.965;  814.707
389.339;  -10.465;   -5.924;  747.642
389.933;   -9.238;   -5.524;  695.370
390.527;  -10.567;   -7.114;  859.029
391.120;  -17.241;  -10.725;  595.318
391.714;  -13.684;   -8.035;  711.633
392.308;  -11.063;   -3.574;  780.253
392.901;  -14.047;   -7.245;  642.460
393.495;  -16.076;   -9.285;  595.414
394.089;  -13.594;   -5.895;  760.452
394.682;  -13.419;   -4.295;  697.188
395.275;  -14.642;   -9.875;  719.927
395.869;  -16.572;   -8.485;  667.314
396.462;  -14.744;   -7.455;  616.609
397.056;  -11.193;   -5.424;  776.621
397.649;  -15.154;   -6.605;  731.575
398.242;  -13.495;   -8.224;  712.645
398.836;  -12.269;   -7.474;  766.408
399.429;  -13.486;   -7.094;  631.041
400.022;  -16.949;   -9.475;  665.902
400.615;  -13.984;   -7.145;  805.609
401.208;  -12.840;   -7.174;  691.451
401.802;  -14.492;   -5.515;  699.329
402.395;  -15.549;   -9.875;  683.502
402.988;  -17.391;   -8.845;  696.627
403.581;  -13.661;   -8.874;  646.878
404.174;  -11.267;   -5.324;  686.568
404.767;  -13.937;   -9.575;  638.583
405.360;  -16.428;  -10.965;  621.445
405.953;  -11.583;   -8.764;  759.034
406.545;  -10.940;   -7.514;  725.342
407.138;  -14.703;  -10.025;  618.350
407.731;  -13.786;  -10.034;  613.303
408.324;   -9.878;   -9.374;  660.554
408.917;  -10.728;   -6.534;  681.864
409.509;  -12.411;   -8.004;  740.396
410.102;  -14.547;   -9.875;  643.948
410.695;   -8.353;   -8.604;  665.758
411.287;  -10.246;   -6.794;  599.821
411.880;  -10.827;   -9.334;  585.421
412.472;  -13.851;  -10.254;  613.092
413.065;  -11.459;   -6.714;  629.408
413.657;   -9.210;   -7.234;  576.678
414.250;   -8.398;  -10.544;  646.681
414.842;  -10.832;   -9.744;  676.353
415.434;   -8.427;   -6.994;  570.463
416.027;   -4.233;   -5.893;  652.196
416.619;   -5.976;   -7.264;  713.400
417.211;   -6.968;  -10.374;  599.352
417.804;   -2.898;   -7.993;  628.499
418.396;   -7.388;   -7.234;  607.643
418.988;   -4.280;   -9.443;  659.238
419.580;   -9.136;  -10.724;  568.276
420.172;   -6.348;  -10.323;  536.196
420.764;   -1.570;   -8.793;  672.482
421.356;   -3.060;  -11.143;  636.898
421.948;   -3.820;   -8.293;  677.661
422.540;    1.377;   -7.893;  680.027
423.132;    0.741;   -7.082;  600.641
423.724;   -3.271;   -8.653;  561.267
424.316;   -0.796;  -10.213;  621.345
424.908;    1.968;   -9.762;  591.517
425.500;    3.700;   -5.572;  647.978
426.092;    3.519;   -8.422;  648.268
426.683;    2.595;   -9.283;  684.836
427.275;    4.807;   -7.852;  641.471
427.867;    7.122;   -5.272;  668.948
428.458;    6.877;   -7.682;  732.344
429.050;    5.632;  -10.612;  680.749
429.642;    8.356;   -9.882;  743.124
430.233;    9.104;   -6.962;  569.356
430.825;   10.378;   -6.842;  724.809
431.416;    7.393;   -9.672;  698.241
432.008;   10.788;   -6.552;  651.723
432.599;   11.856;   -6.891;  656.073
433.190;    8.244;  -10.912;  637.670
433.782;    8.455;  -11.172;  590.395
434.373;   15.208;   -6.061;  884.765
434.964;   13.257;   -8.251;  602.920
435.556;   11.983;   -9.722;  634.537
436.147;   14.155;   -9.082;  758.490
436.738;   14.392;   -8.041;  701.099
437.329;   20.094;   -7.341;  721.723
437.920;   13.193;   -8.162;  666.688
438.511;   12.466;  -11.802;  564.526
439.103;   19.239;  -10.191;  623.998
439.694;   20.870;   -7.601;  681.583
440.285;   22.618;   -8.541;  764.432
440.876;   19.378;   -9.751;  845.738
441.466;   19.609;   -9.401;  575.162
442.057;   24.675;   -7.760;  665.814
442.648;   23.142;   -9.971;  746.255
443.239;   21.310;  -11.001;  620.477
443.830;   26.518;   -7.990;  704.958
444.421;   28.442;   -7.910;  655.474
445.011;   24.998;   -8.131;  693.619
445.602;   24.094;   -7.111;  743.126
446.193;   26.762;  -10.920;  488.117
446.783;   30.861;   -6.500;  640.397
447.374;   26.484;   -8.671;  692.759
447.964;   27.416;  -10.781;  713.770
448.555;   35.204;   -9.650;  822.742
449.145;   31.756;   -8.660;  662.853
449.736;   32.883;   -8.990;  803.179
450.326;   32.352;   -9.500;  713.626
450.917;   38.180;   -8.680;  675.324
451.507;   36.970;   -7.520;  600.661
452.097;   37.973;   -8.590;  746.267
452.688;   38.198;  -11.340;  742.160
453.278;   37.313;  -10.100;  566.840
453.868;   43.194;   -6.019;  793.550
454.458;   40.591;   -9.440;  651.141
455.048;   41.514;  -10.560;  711.783
455.639;   42.364;  -11.799;  567.096
456.229;   46.116;   -6.899;  710.694
456.819;   47.352;   -7.389;  751.158
457.409;   47.501;  -11.119;  773.993
457.999;   50.600;   -9.289;  737.505
458.589;   50.845;   -6.139;  686.606
459.179;   50.445;   -8.729;  717.658
459.769;   48.618;   -9.789;  627.099
460.358;   53.244;  -10.259;  797.262
460.948;   53.767;   -7.299;  689.503
461.538;   55.173;  -10.289;  660.677
462.128;   52.745;  -11.269;  664.934
462.717;   58.897;   -9.368;  710.326
463.307;   63.212;   -7.908;  705.846
463.897;   58.273;   -9.599;  656.942
464.486;   57.500;   -9.769;  837.128
465.076;   61.832;   -8.048;  733.776
465.666;   65.588;   -9.358;  652.900
466.255;   63.742;   -7.919;  785.651
466.845;   62.215;  -11.689;  666.749
467.434;   66.662;   -7.818;  725.873
468.023;   66.384;   -7.678;  658.357
468.613;   64.856;  -10.939;  713.946
469.202;   68.694;  -10.118;  646.507
469.791;   72.749;   -9.108;  737.811
470.381;   75.222;   -6.058;  742.813
470.970;   74.361;  -10.428;  711.099
471.559;   74.357;  -10.268;  733.291
472.148;   76.973;   -8.448;  675.737
472.738;   79.693;   -6.917;  765.466
473.327;   78.710;  -11.978;  637.529
473.916;   78.794;  -11.888;  737.446
474.505;   83.050;   -9.437;  751.703
475.094;   86.819;   -6.747;  806.570
475.683;   85.861;   -9.367;  797.699
476.272;   87.193;  -12.637;  730.632
476.861;   89.744;  -10.027;  706.754
477.449;   96.009;   -8.716;  728.487
478.038;   90.520;   -9.577;  692.513
478.627;   91.164;   -9.718;  714.852
479.216;   98.299;   -8.947;  769.441
479.805;  100.808;   -6.256;  783.375
480.393;  100.934;   -7.937; 1008.945
480.982;   99.826;   -7.717;  874.501
481.571;  105.652;   -9.266;  858.333
482.159;  106.423;   -7.636;  705.386
482.748;  106.467;   -9.667;  821.385
483.336;  111.015;  -10.376;  858.209
483.925;  111.338;   -7.147;  774.373
484.513;  118.504;   -7.996;  758.962
485.102;  114.518;  -10.027;  810.965
485.690;  123.613;  -10.446; 1011.050
486.278;  125.298;   -8.446;  979.329
486.867;  126.022;   -6.356;  809.662
487.455;  127.059;   -9.136;  898.229
488.043;  128.883;  -10.646;  748.361
488.631;  138.049;   -7.456; 1005.079
489.220;  142.123;   -6.636;  908.626
489.808;  142.041;  -11.036;  741.415
490.396;  150.087;  -10.246;  914.645
490.984;  156.783;   -8.556;  830.161
491.572;  165.930;   -5.886;  940.315
492.160;  172.366;   -9.486;  919.081
492.748;  184.624;  -10.976;  884.341
493.336;  207.295;   -8.776; 1019.693
493.924;  234.504;   -5.465;  958.077
494.512;  262.988;   -9.986; 1066.638
495.100;  299.606;  -10.636; 1103.280
495.687;  352.907;  -10.885; 1206.373
496.275;  413.960;   -8.126; 1150.796
496.863;  482.410;  -10.586; 1281.171
497.451;  581.672;  -11.926; 1386.805
498.038;  713.726;  -10.885; 1556.729
498.626;  819.048;   -6.315; 1741.407
499.214;  964.525;   -7.326; 2016.609
499.801; 1146.288;  -11.906; 2220.633
500.389; 1388.611;  -10.466; 2312.494
500.976; 1686.521;   -5.236; 2744.849
501.564; 2095.553;   -8.936; 3148.565
502.151; 2446.821;  -13.176; 3515.999
502.738; 2875.020;  -10.646; 3971.274
503.326; 3256.430;   -9.525; 4403.796
503.913; 3632.868;  -10.856; 5161.749
504.500; 3945.630;  -11.586; 5986.420
505.088; 4374.444;  -10.336; 6381.201
505.675; 4872.947;   -6.355; 6925.547
506.262; 5507.796;   -9.046; 7619.060
506.849; 6209.410;  -10.416; 8733.969
507.436; 6709.654;  -10.305; 9790.121
508.023; 7263.779;   -5.496; 9985.472
508.610; 7476.189;   -7.856;10434.618
509.197; 8099.890;  -10.097;11198.435
509.784; 9397.536;  -10.886;12391.194
510.371;10387.316;   -9.315;13603.713
510.958;11142.206;   -9.936;14426.586
511.545;11882.695;   -9.326;15243.775
512.132;12738.290;  -10.075;15945.876
512.719;13275.665;   -7.796;16340.369
513.305;14133.037;  -10.606;18011.766
513.892;14879.709;  -11.486;19754.971
514.479;16167.938;   -9.126;20967.805
515.066;17665.018;   -6.026;22299.793
515.652;18861.936;   -8.466;22908.660
516.239;19908.381;  -10.886;23798.875
516.825;20970.035;  -11.496;25567.275
517.412;21920.439;   -5.796;28154.959
517.998;22720.180;  -10.506;28344.111
518.585;22853.875;  -10.076;27134.219
519.171;23261.137;   -8.315;27268.576
519.758;24567.129;   -8.596;28964.129
520.344;26470.334;   -8.466;30664.494
520.930;26641.301;  -11.006;32550.605
521.516;27730.146;  -10.495;35422.895
522.103;30146.215;   -5.526;38280.004
522.689;30981.318;   -8.746;37835.117
523.275;30784.584;  -11.376;37288.613
523.861;31895.336;  -11.156;37281.395
524.447;32911.637;   -8.135;37846.949
525.033;32191.801;   -7.896;38321.949
525.619;32309.803;  -12.476;38579.285
526.205;33523.684;   -9.516;40622.875
526.791;35569.598;   -6.926;42258.836
527.377;33907.570;   -8.346;42966.902
527.963;32672.645;   -8.717;42018.949
528.549;31401.801;  -11.016;42476.828
529.135;32471.738;   -8.536;41854.852
529.721;34656.121;   -9.666;41237.711
530.306;35661.156;  -10.066;41259.445
530.892;36214.656;  -11.356;41506.047
531.478;37572.148;   -6.596;43559.613
532.063;40148.848;   -8.836;47695.563
532.649;40675.879;  -10.047;50808.324
533.235;41423.520;   -9.746;51787.500
533.820;42264.938;   -6.566;52145.035
534.406;43219.227;  -10.817;51133.488
534.991;42616.387;   -9.416;49996.805
535.576;41057.172;   -9.036;48882.852
536.162;41186.180;   -6.156;46942.285
536.747;41508.531;  -11.607;45711.746
537.333;43206.715;  -11.787;48510.180
537.918;44234.953;  -12.437;50439.891
538.503;40262.320;   -7.196;50863.711
539.088;35701.188;  -10.556;50906.922
539.673;37541.633;   -8.767;52621.965
540.259;41983.813;  -10.026;52368.094
540.844;43000.301;   -7.416;50879.109
541.429;45446.918;   -9.467;52077.777
542.014;49191.551;   -9.527;52716.695
542.599;49178.223;   -9.946;52363.281
543.184;46026.258;   -7.927;53187.137
543.769;46744.465;   -9.297;54697.605
544.354;46567.852;  -10.127;53913.914
544.938;45462.293;   -9.267;49680.164
545.523;47482.555;   -6.506;47386.277
546.108;50019.586;   -9.787;49151.949
546.693;52031.016;  -11.587;51384.637
547.278;51820.242;  -10.986;51853.254
547.862;48652.387;   -8.206;51173.750
548.447;44028.871;  -10.067;51691.395
549.031;43407.906;   -9.637;52456.703
549.616;48124.422;   -9.926;52714.516
550.201;47472.793;   -6.347;52414.598
550.785;48282.246;   -7.917;52355.059
551.370;47688.086;  -10.867;54589.453
551.954;47456.926;   -9.047;58267.348
552.538;48694.625;   -7.827;59062.176
553.123;47040.551;  -10.287;58115.285
553.707;44568.488;  -12.178;56556.285
554.291;45491.711;   -8.717;56201.668
554.876;47793.281;   -7.457;55335.762
555.460;48240.934;  -10.387;54155.703
556.044;49602.172;   -9.618;53721.484
556.628;47859.785;  -11.567;53731.016
557.212;46459.824;   -8.097;54312.531
557.796;44310.203;  -11.077;53797.773
558.380;44532.172;  -11.108;56145.984
558.964;45515.863;   -9.057;57277.930
559.548;46739.844;   -6.977;56459.641
560.132;44625.891;  -11.457;54434.543
560.716;43242.457;  -11.378;54800.617
561.300;44224.430;   -9.577;57606.945
561.884;45322.727;   -7.127;58972.445
562.467;43634.992;   -7.118;57327.570
563.051;42986.426;  -13.358;54962.434
563.635;43787.645;  -10.178;52594.473
564.219;44003.473;   -7.837;50610.410
564.802;44622.258;  -11.398;49551.180
565.386;44736.867;  -12.788;48370.953
565.969;44503.367;   -9.077;48178.871
566.553;43147.695;   -6.207;49957.305
567.136;43496.652;   -8.568;50369.594
567.720;40038.684;  -11.868;49492.004
568.303;38404.027;   -8.268;50616.352
568.887;38301.191;   -8.698;50727.148
569.470;38551.602;   -6.808;51698.379
570.053;37770.730;  -13.188;52122.078
570.637;36067.059;  -12.037;52536.438
571.220;35461.098;   -8.577;51186.098
571.803;35657.887;   -8.498;51032.762
572.386;37476.727;  -10.498;49609.887
572.969;40059.629;   -9.388;48285.926
573.552;38929.023;   -8.338;47624.285
574.135;37890.652;   -8.518;45498.641
574.718;35349.098;  -13.628;41970.434
575.301;34233.738;  -10.893;41447.137
575.884;33118.383;   -8.158;40923.836
576.467;34246.785;  -10.328;45267.723
577.050;36043.336;  -13.058;48175.543
577.633;37839.629;   -9.458;47729.328
578.216;36939.168;   -8.928;47579.793
578.799;35727.711;   -9.358;47820.996
579.381;34469.613;  -11.388;48115.551
579.964;32493.414;  -11.718;47333.766
580.547;34003.320;   -8.588;46668.969
581.129;35051.488;   -8.859;44466.141
581.712;35963.395;  -10.729;44164.922
582.294;36804.664;  -11.118;46477.855
582.877;36806.461;   -5.218;48244.254
583.459;34726.172;   -8.679;47437.895
584.042;32721.301;  -10.709;46943.219
584.624;32853.035;  -11.669;46792.227
585.206;32543.100;   -8.218;46557.250
585.789;32651.982;  -10.569;45793.773
586.371;35249.965;  -11.859;43836.391
586.953;36348.031;  -10.719;42972.492
587.536;37323.281;   -7.198;42487.211
588.118;37708.973;   -8.720;42086.414
588.700;33675.789;  -10.439;43389.930
589.282;32489.477;   -9.198;43646.039
589.864;33370.129;   -9.199;43438.109
590.446;34752.168;  -11.319;43151.926
591.028;34641.906;  -11.159;42781.867
591.610;33452.793;  -11.779;42839.098
592.192;30528.881;   -7.668;42820.402
592.774;28919.578;  -11.949;40724.277
593.356;27911.957;  -12.129;39874.789
593.937;27392.916;  -10.669;39980.648
594.519;29469.395;   -6.509;42069.633
595.101;31648.490;  -10.849;42976.031
595.683;31879.973;  -11.679;44084.441
596.264;32876.688;   -9.049;43478.797
596.846;32266.012;   -8.849;43803.672
597.427;31825.877;   -9.570;42986.934
598.009;33345.750;  -12.620;42832.219
598.591;33712.902;  -10.039;42580.086
599.172;32990.012;  -10.369;43061.805
599.753;33057.176;   -9.140;41691.469
600.335;34777.254;  -11.430;40692.520
600.916;33345.219;   -9.939;39982.422
601.498;30784.717;   -8.479;40318.617
602.079;29343.422;  -10.920;40670.609
602.660;29149.529;  -11.480;41450.898
603.241;30511.857;  -11.699;41137.738
603.823;29413.332;   -9.579;38868.797
604.404;28812.289;  -10.620;38182.785
604.985;30397.992;  -10.450;38078.047
605.566;30058.641;   -9.129;38056.633
606.147;29997.078;   -7.510;37020.418
606.728;31872.773;  -10.660;37883.359
607.309;30794.596;  -11.740;38748.273
607.890;30235.293;   -9.759;38850.230
608.471;29864.400;   -8.250;37457.918
609.051;29218.215;   -9.240;36066.457
609.632;28158.645;  -12.120;35991.074
610.213;28795.715;   -9.110;37402.641
610.794;29570.719;   -8.030;38383.363
611.374;29056.123;   -8.110;40562.387
611.955;29635.113;  -13.560;38533.727
612.536;31278.863;  -11.400;36951.789
613.116;30680.613;   -8.070;37197.891
613.697;30899.996;  -10.830;38411.125
614.277;29187.738;  -11.641;38673.938
614.858;30118.992;  -13.310;37075.863
615.438;29690.855;   -7.460;35092.906
616.019;27089.289;   -7.601;33666.301
616.599;27408.424;  -12.020;34189.023
617.179;29387.854;  -11.780;36952.047
617.760;30319.348;   -8.570;39582.574
618.340;31286.510;  -11.471;38943.977
618.920;32722.541;  -11.170;37594.156
619.500;32590.299;  -11.071;37866.938
620.080;31679.604;   -7.750;37869.043
620.660;32610.320;  -12.711;36868.617
621.241;33855.219;  -10.211;36352.309
621.821;34041.758;  -10.961;35459.520
622.401;33392.258;   -7.720;35207.414
622.980;32454.684;   -8.981;35980.422
623.560;30982.508;   -9.331;37351.328
624.140;29950.783;   -9.850;34388.582
624.720;25168.217;   -7.451;32368.764
625.300;21563.799;   -9.070;32638.629
625.880;24893.541;  -12.601;34599.035
626.459;28730.369;  -11.751;36831.738
627.039;31732.045;   -9.281;38299.098
627.619;31854.666;   -8.801;38289.574
628.198;30170.674;  -12.071;37220.695
628.778;29195.031;   -9.461;37632.563
629.357;29926.617;   -8.491;38003.012
629.937;29941.865;   -9.721;38402.039
630.516;29430.371;   -9.951;37868.801
631.096;29407.645;  -11.731;35760.410
631.675;31739.289;   -8.572;35225.219
632.254;37026.281;  -11.282;35130.289
632.834;36519.777;  -13.322;35794.570
633.413;34656.078;  -10.301;35788.922
633.992;31964.740;   -8.582;34532.863
634.571;33055.746;   -8.352;33590.113
635.151;35985.727;  -11.912;34943.863
635.730;34436.074;  -10.511;35352.523
636.309;30695.443;   -7.731;35366.605
636.888;27911.250;   -9.952;36165.637
637.467;28440.471;  -11.672;37515.902
638.046;30425.191;   -8.901;39288.695
638.625;33505.980;   -7.912;38279.699
639.204;33391.371;  -10.022;37741.598
639.782;31722.662;  -12.252;38364.551
640.361;28159.883;  -10.041;36740.621
640.940;25281.893;  -11.161;34950.082
641.519;25800.508;   -9.701;34137.398
642.097;28261.711;  -11.271;35654.258
642.676;31145.223;   -8.651;35637.957
643.255;32341.184;   -8.711;36567.074
643.833;31547.801;   -9.581;37809.434
644.412;31841.486;  -13.711;37337.293
644.990;31015.564;  -11.811;37018.531
645.569;30565.879;   -9.411;36518.469
646.147;29748.174;  -10.291;36186.430
646.726;29435.633;  -12.401;36267.688
647.304;30632.588;  -10.411;36647.625
647.882;32389.475;   -9.651;39286.742
648.461;33988.020;   -9.631;39157.703
649.039;32440.242;  -11.881;35412.883
649.617;31576.791;   -9.661;34744.918
650.195;31177.066;   -9.301;35403.098
650.773;30126.656;  -10.511;35053.797
651.352;27559.170;  -11.521;33756.816
651.930;25242.852;  -12.211;31868.773
652.508;23780.248;   -9.171;33121.551
653.086;27624.170;   -9.371;33564.793
653.663;30727.314;  -13.161;34054.668
654.241;29411.961;  -13.031;35693.309
654.819;30826.480;   -9.371;36422.906
655.397;30705.912;  -10.511;38213.484
655.975;30408.795;  -10.371;39507.625
656.553;30721.875;  -10.051;39498.223
657.130;29006.270;  -10.061;40395.480
657.708;28091.428;   -9.561;39242.020
658.286;28257.332;  -11.511;38920.020
658.863;29591.201;  -10.261;40202.898
659.441;32457.828;   -7.531;39677.938
660.018;31934.361;   -9.501;40413.355
660.596;30650.322;  -13.301;39931.414
661.173;32384.146;  -11.211;39604.531
661.750;32636.404;   -9.951;39700.070
662.328;31696.041;   -9.390;39292.809
662.905;30999.635;  -11.330;38235.648
663.482;26819.480;   -9.050;36212.305
664.060;24705.289;   -8.240;35944.945
664.637;27414.510;  -10.050;35170.785
665.214;29255.516;  -11.760;34197.523
665.791;31254.449;  -10.530;34549.520
666.368;30064.000;   -9.690;35118.578
666.945;30302.623;   -9.320;36019.418
667.522;31862.721;  -11.860;36048.438
668.099;31983.637;  -10.770;36243.914
668.676;31121.805;   -6.260;35958.875
669.253;29407.354;   -7.000;37384.730
669.830;29758.000;  -10.190;36779.629
670.407;29748.076;   -9.550;35231.289
670.984;29673.277;   -9.260;35544.270
671.560;30236.406;   -9.280;35466.867
672.137;29113.086;  -11.810;34280.863
672.714;29777.117;  -11.490;34632.863
673.290;30270.818;   -7.740;35135.422
673.867;30257.633;  -10.660;36114.480
674.443;30748.883;  -12.230;36152.859
675.020;29075.430;  -10.450;35327.238
675.596;29868.660;   -9.260;35795.176
676.173;30322.576;  -10.780;35430.355
676.749;29939.588;  -13.690;33549.516
677.326;30126.637;  -11.980;32210.012
677.902;30376.551;   -8.630;32068.871
678.478;29649.893;  -10.730;32583.891
679.054;28994.311;  -10.520;32088.928
679.631;29708.617;  -11.920;30978.848
680.207;30934.951;   -7.490;33160.887
680.783;32295.865;   -9.860;35570.363
681.359;31519.727;  -13.380;36125.184
681.935;30903.922;  -12.480;35240.922
682.511;30177.881;   -7.900;34429.961
683.087;30180.906;   -7.710;34463.680
683.663;29749.102;  -11.480;34648.898
684.239;28742.203;  -14.090;34546.457
684.815;28182.771;   -7.560;35586.375
685.390;28453.627;   -9.910;35821.895
685.966;28911.975;  -11.159;35085.871
686.542;31593.656;  -11.169;34198.230
687.118;33941.855;   -5.959;32847.707
687.693;34442.457;  -10.329;32794.027
688.269;33759.914;  -12.059;33072.367
688.844;31607.664;  -10.909;33141.664
689.420;29474.531;   -8.019;33965.742
689.995;27293.617;   -8.399;34655.523
690.571;25898.811;  -10.949;33576.742
691.146;26246.324;   -9.619;32657.219
691.722;25874.918;   -8.999;32526.979
692.297;25624.852;  -11.589;33014.617
692.872;27550.145;  -11.739;34012.254
693.448;27208.037;  -11.059;34237.434
694.023;26347.111;  -10.139;34142.672
694.598;28460.406;   -9.029;34132.031
695.173;28942.004;  -13.319;34205.250
695.748;28143.041;  -10.169;32882.488
696.323;27990.623;   -8.339;32864.906
696.898;28025.141;   -8.169;33170.004
697.473;28039.961;  -12.309;32432.984
698.048;27799.053;  -10.989;31649.303
698.623;27901.250;   -9.329;30778.141
699.198;29660.703;   -9.849;31140.119
699.773;30718.080;  -12.329;31764.299
700.348;29174.246;  -10.389;31780.816
700.922;29155.746;   -9.269;32046.375
701.497;29837.027;   -9.329;32603.574
702.072;30162.779;  -10.789;34799.871
702.646;29108.141;  -10.839;35793.172
703.221;26613.631;   -9.099;35201.590
703.795;28676.602;  -10.939;34764.527
704.370;29388.938;  -12.859;34307.367
704.944;29628.225;  -11.559;33509.887
705.519;30708.920;   -7.939;31388.584
706.093;31783.281;  -10.499;31340.104
706.668;32073.418;  -11.289;32630.281
707.242;30706.430;  -11.509;32728.779
707.816;29117.691;   -9.639;32947.238
708.390;27692.520;  -11.429;33277.855
708.965;28568.250;  -11.869;33834.336
709.539;28924.438;  -11.689;33709.273
710.113;29257.961;  -10.478;33044.313
710.687;28833.129;  -10.228;31953.992
711.261;26777.477;  -13.698;30505.949
711.835;26322.219;  -13.378;30262.369
712.409;27019.170;   -9.698;31254.447
712.983;28990.492;  -11.898;32754.986
713.557;30138.672;  -15.138;34018.824
714.131;29825.189;  -14.098;34579.625
714.704;29120.162;   -9.958;33890.262
715.278;26736.947;  -10.028;33531.102
715.852;25761.918;  -11.148;33601.660
716.425;26495.031;   -9.068;33515.117
716.999;27113.445;  -10.038;33185.555
717.573;28240.262;   -9.798;33905.996
718.146;29591.813;  -12.378;35199.293
718.720;29428.600;  -11.918;35060.551
719.293;28683.316;   -8.088;34973.230
719.867;31534.160;  -10.888;36394.449
720.440;31526.547;  -11.938;36663.008
721.013;29813.848;  -12.818;35102.426
721.587;28478.229;  -10.298;33985.266
722.160;27041.863;  -10.048;33524.965
722.733;26063.053;  -12.108;32987.043
723.306;26763.631;  -10.818;33066.301
723.880;28862.436;   -8.908;33399.500
724.453;30632.475;   -9.878;33468.297
725.026;29495.568;  -11.188;33816.637
725.599;26656.680;  -11.678;32797.996
726.172;26756.500;   -9.618;33187.434
726.745;28106.258;   -8.258;35136.613
727.318;29754.158;  -12.978;35751.730
727.891;30738.791;  -12.148;35890.430
728.463;30543.846;   -8.968;34822.090
729.036;29394.010;  -10.188;32895.086
729.609;29797.570;  -11.788;31823.225
730.182;26609.021;  -11.788;31445.283
730.754;24083.557;  -10.268;32373.223
731.327;24105.994;   -9.998;33676.820
731.900;24110.566;  -12.228;33417.000
732.472;25354.701;  -13.848;31978.498
733.045;27577.088;   -8.698;30368.777
733.617;27580.709;  -10.607;30574.215
734.190;27327.924;  -11.507;31280.975
734.762;24588.037;  -13.647;31674.412
735.334;22748.572;   -9.767;31247.291
735.907;23108.656;   -9.897;29876.211
736.479;23079.693;  -11.637;29808.488
737.051;22762.172;   -9.567;30233.547
737.623;24032.189;   -8.187;31469.086
738.195;24909.316;  -11.187;31784.225
738.768;26586.438;  -12.337;32120.523
739.340;26807.195;  -12.227;32094.342
739.912;25720.197;  -11.057;31312.680
740.484;24528.773;  -10.207;31946.238
741.056;23275.477;  -10.047;32984.059
741.628;24960.133;  -13.627;33897.715
742.199;27305.213;   -7.177;33213.016
742.771;25608.131;  -10.797;31369.113
743.343;23150.762;  -11.997;31865.473
743.915;22011.979;  -12.867;32388.631
744.487;22184.010;   -7.617;31079.568
745.058;22376.908;   -9.557;30570.107
745.630;23009.896;   -9.877;29970.127
746.201;24081.078;  -14.177;29186.766
746.773;24485.254;   -9.237;28805.723
747.344;24368.945;   -9.847;29591.223
747.916;22899.518;  -11.657;31412.201
748.487;22739.297;  -10.587;32194.898
749.059;23914.773;   -8.707;32533.719
749.630;24824.775;  -10.537;32158.518
750.201;23748.334;  -11.687;30855.395
750.773;21803.313;  -11.647;28622.555
751.344;21687.541;   -7.147;28405.732
751.915;22844.221;   -9.757;28461.551
752.486;22641.930;  -12.427;27842.850
753.057;20413.195;  -12.227;27845.008
753.628;19146.625;  -10.417;27728.107
754.199;20272.098;  -11.767;27381.086
754.770;21506.682;  -11.187;25882.203
755.341;21523.955;  -10.507;25886.184
755.912;21797.039;   -9.387;26050.861
756.483;21244.541;  -10.647;26798.779
757.054;19427.650;  -11.837;27048.238
757.625;18095.574;  -12.716;26294.838
758.195;17833.717;   -9.666;26142.076
758.766;17481.160;   -8.656;26392.234
759.337;18277.496;  -12.856;26334.594
759.907;20099.500;  -13.366;27579.652
760.478;20974.457;   -8.576;28352.770
761.048;20297.723;  -10.526;27325.088
761.619;19440.018;  -11.116;26460.428
762.189;19412.186;  -12.136;26029.826
762.760;20310.641;   -9.456;26430.145
763.330;21631.861;   -7.136;26670.902
763.900;21258.492;  -11.786;26603.021
764.471;18538.479;  -11.546;25542.740
765.041;17129.988;   -8.096;24358.459
765.611;17189.590;   -8.876;23991.297
766.181;17665.834;  -12.196;24470.236
766.751;18545.139;  -11.636;24845.975
767.321;18484.115;  -10.156;24533.633
767.891;16581.186;  -11.766;24916.492
768.461;15917.076;  -14.936;24776.771
769.031;16278.078;  -12.356;24757.988
769.601;17917.725;   -7.526;24181.088
770.171;18060.063;  -10.766;23670.387
770.741;17132.260;  -13.176;22960.045
771.311;17316.920;  -10.616;22917.523
771.880;17827.586;   -9.576;23562.941
772.450;17321.434;  -10.336;24216.500
773.020;17117.258;  -13.516;24140.398
773.589;16643.283;  -13.466;24414.857
774.159;16117.098;   -8.686;23858.717
774.729;15668.529;   -9.476;22942.135
775.298;15296.247;  -13.666;22324.033
775.867;14891.284;  -11.716;21140.313
776.437;14914.818;   -9.906;20838.092
777.006;14576.087;  -12.166;20599.510
777.576;14509.787;  -12.356;20508.809
778.145;14668.020;  -11.646;20732.947
778.714;14602.797;   -8.226;21062.465
779.283;13831.642;   -9.556;20949.664
779.853;13332.223;  -14.116;20508.623
780.422;13728.091;  -11.506;20649.082
780.991;13276.812;   -9.556;21527.520
781.560;12158.213;   -9.095;22632.658
782.129;11961.410;  -12.135;23048.277
782.698;11988.070;  -10.865;23438.555
783.267;11680.792;   -9.335;23267.734
783.836;11609.098;  -11.045;22415.133
784.404;12595.026;  -13.865;20443.152
784.973;13129.391;  -13.095;19699.150
785.542;13014.032;  -11.575;19763.828
786.111;12887.109;   -9.705;20341.408
786.679;12498.459;  -12.105;20207.967
787.248;12236.453;  -12.455;19516.465
787.817;12023.699;  -11.535;18900.363
788.385;11647.367;   -9.765;17879.121
788.954;11091.275;  -14.005;17658.301
789.522;10546.133;  -11.955;17788.879
790.090;11066.514;  -10.135;18118.277
790.659;11549.223;  -10.975;18338.736
791.227;10941.305;  -13.375;18508.615
791.795;11353.732;  -12.375;17898.254
792.364;11775.661;  -10.725;17295.133
792.932;12118.704;   -9.715;16822.051
793.500;12349.097;  -12.675;17040.148
794.068;12553.119;  -13.495;17179.787
794.636;12706.488;  -10.885;16664.246
795.204;12123.754;  -11.045;16524.545
795.772;12157.588;  -13.175;17274.564
796.340;11707.563;  -12.445;17891.002
796.908;11517.883;   -9.735;17648.561
797.476;11513.551;   -9.815;17064.080
798.044;11100.931;  -13.985;16672.777
798.612;10237.724;  -13.115;17023.996
799.180; 9860.199;  -10.185;16561.615
799.747; 9764.411;   -9.055;15962.773
800.315; 9427.364;  -12.385;15296.992
800.883; 9140.516;  -15.035;14801.771
801.450; 9203.782;  -10.365;14534.430
802.018; 9257.137;   -9.855;14173.248
802.585; 9275.225;  -11.905;14029.547
803.153; 9299.201;  -11.585;13836.846
803.720; 9234.758;   -9.095;13567.324
804.287; 8951.997;   -9.135;13360.622
804.855; 8511.492;  -11.604;13681.981
805.422; 8343.714;  -11.794;13536.560
805.989; 8354.245;  -10.734;13355.958
806.556; 8516.781;  -10.444;13747.896
807.124; 8804.340;  -12.764;13987.376
807.691; 8719.986;  -12.964;14038.674
808.258; 8522.376;  -11.134;14120.152
808.825; 8217.246;   -9.854;13860.111
809.392; 8302.065;  -10.504;13268.790
809.959; 7811.333;  -13.054;12680.389
810.526; 7376.334;   -8.294;12427.308
811.093; 7420.101;   -8.394;12030.105
811.659; 8053.005;  -12.304;11653.664
812.226; 8531.487;  -13.944;11637.183
812.793; 8196.082;  -10.484;11611.521
813.360; 7532.708;  -10.144;11885.181
813.926; 7134.242;  -11.684;12770.539
814.493; 6872.700;  -13.644;12677.638
815.060; 6516.188;   -9.724;11974.336
815.626; 6531.375;   -9.854;11594.715
816.193; 6946.835;  -13.254;11579.474
816.759; 6986.029;  -13.204;11666.972
817.325; 7062.217;   -9.434;11325.530
817.892; 7404.903;  -10.134;11105.369
818.458; 7822.846;  -13.474;10843.928
819.024; 7520.125;  -11.854;10714.406
819.591; 7191.873;  -10.244;10469.165
820.157; 6940.368;  -10.704;10235.523
820.723; 6387.282;  -12.324;10847.563
821.289; 6065.714;   -9.444;11040.980
821.855; 6002.688;   -8.374;10357.100
822.421; 6024.115;  -10.234; 9978.918
822.987; 5983.626;  -13.294; 9754.177
823.553; 5644.280;  -10.884;10065.755
824.119; 5442.160;   -8.884;10036.294
824.685; 5546.965;   -6.784;10029.192
825.251; 5664.648;  -12.004;10199.230
825.816; 5614.732;  -11.474; 9820.189
826.382; 5358.030;   -9.174; 9297.248
826.948; 5529.955;   -9.214; 9381.347
827.513; 5968.991;  -10.774; 9450.726
828.079; 5799.968;  -11.924; 9472.444
828.645; 5191.683;  -10.543; 9292.643
829.210; 5059.297;  -10.533; 9065.341
829.776; 5048.570;  -10.753; 9132.620
830.341; 4902.983;  -10.173; 9092.878
830.906; 5045.870;  -10.743; 9078.557
831.472; 5430.593;  -11.113; 8534.535
832.037; 5258.979;  -10.603; 8677.874
832.602; 4709.811;  -13.323; 8628.692
833.167; 4379.662;  -10.823; 8879.031
833.733; 4309.134;  -10.113; 9189.790
834.298; 4423.554;  -13.583; 9052.608
834.863; 4476.053;  -12.703; 8895.087
835.428; 4442.479;  -10.523; 8824.266
835.993; 4321.388;   -6.963; 8845.385
836.558; 4180.780;  -10.763; 8888.563
837.123; 4288.614;   -9.903; 8966.582
837.688; 4503.001;   -9.913; 8617.860
838.253; 4724.116;  -10.283; 8590.699
838.817; 4948.899;  -12.963; 8443.797
839.382; 4901.653;  -14.243; 8799.356
839.947; 4585.673;  -10.733; 8810.595
840.511; 4281.134;   -9.383; 8796.394
841.076; 3910.775;  -12.563; 8347.231
841.641; 3941.483;  -12.953; 8224.330
842.205; 4029.678;   -7.043; 8223.349
842.770; 4101.826;   -8.163; 8622.107
843.334; 4305.288;  -12.503; 8410.386
843.898; 4298.494;  -11.693; 8337.465
844.463; 4330.062;  -10.203; 8506.283
845.027; 4105.971;   -9.533; 8280.962
845.591; 3873.123;  -13.443; 8231.141
846.156; 3896.389;  -13.143; 7969.179
846.720; 3783.342;   -9.433; 7768.278
847.284; 3646.778;  -11.033; 7630.957
847.848; 3481.546;  -10.403; 7472.395
848.412; 3395.189;  -11.553; 7437.394
848.976; 3449.428;   -8.393; 7674.592
849.540; 3382.411;   -8.713; 7836.011
850.104; 3439.339;  -12.463; 7913.669
850.668; 3794.750;  -12.973; 7694.508
851.232; 3938.688;  -10.793; 7756.887
851.796; 3767.586;  -10.662; 7926.545
852.359; 3448.497;  -13.082; 7827.844
852.923; 3278.007;  -12.192; 7641.163
853.487; 3112.124;  -11.912; 7342.501
854.050; 3045.766;  -10.892; 7042.820
854.614; 3180.985;  -13.992; 7151.338
855.177; 3283.166;  -11.732; 7105.077
855.741; 3331.356;   -8.962; 6989.675
856.304; 3241.200;   -9.442; 6596.634
856.868; 3178.278;  -14.192; 6356.272
857.431; 3273.411;  -12.702; 6468.571
857.995; 3378.343;   -9.942; 6373.210
858.558; 3391.802;   -9.112; 6324.448
859.121; 3135.596;  -12.932; 6408.327
859.684; 3002.955;  -13.442; 6347.886
860.247; 3136.526;  -10.632; 6321.264
860.810; 3152.578;  -11.272; 6301.903
861.374; 2926.357;   -9.832; 6607.881
861.937; 2668.661;  -11.762; 6408.200
862.500; 2637.933;   -9.722; 6572.639
863.062; 2797.071;  -10.512; 6387.297
863.625; 2983.769;  -11.232; 6190.836
864.188; 3162.131;  -14.112; 5807.254
864.751; 3216.743;  -11.302; 5682.413
865.314; 3102.260;  -10.112; 5547.492
865.876; 2899.211;  -12.182; 5500.150
866.439; 2888.700;  -10.722; 5415.909
867.002; 2867.187;   -9.252; 5501.567
867.564; 2665.830;   -9.572; 5413.946
868.127; 2453.203;  -13.142; 5160.325
868.689; 2353.060;  -12.902; 5133.183
869.252; 2276.306;   -9.732; 5252.382
869.814; 2186.559;   -9.432; 5297.141
870.377; 2201.459;  -11.552; 5390.919
870.939; 2268.991;   -9.052; 5599.898
871.501; 2333.745;  -10.982; 5248.336
872.063; 2347.077;  -12.292; 4854.235
872.626; 2307.969;  -14.912; 4817.074
873.188; 2315.553;  -13.112; 4987.732
873.750; 2283.009;  -13.442; 4868.651
874.312; 2184.990;   -9.402; 4779.330
874.874; 2095.863;  -11.062; 4866.348
875.436; 2021.370;  -13.931; 4718.887
875.998; 2028.220;   -9.561; 4660.005
876.560; 2061.829;  -11.321; 4462.964
877.122; 2014.002;  -12.221; 4145.042
877.683; 1907.849;  -12.191; 4056.481
878.245; 1820.775;  -12.101; 3950.740
878.807; 1855.804;   -8.971; 4058.958
879.369; 1899.644;  -12.071; 3954.677
879.930; 1863.490;  -14.621; 3941.495
880.492; 1893.619;  -10.311; 4067.014
881.053; 1983.105;  -10.901; 3859.633
881.615; 1870.128;  -14.411; 3776.071
882.176; 1616.641;  -13.761; 3734.750
882.738; 1291.177;   -9.181; 3678.489
883.299;  986.711;  -11.791; 3405.407
883.860;  812.543;  -13.121; 3351.106
884.422;  787.935;  -11.211; 3394.044
884.983;  823.855;  -10.091; 3166.443
885.544;  839.656;   -8.461; 3189.802
886.105;  840.796;  -12.361; 3160.360
886.666;  835.947;  -14.141; 3093.059
887.227;  825.878;  -11.361; 2941.957
887.788;  799.390;  -11.401; 2974.836
888.349;  766.073;  -13.791; 2721.214
888.910;  777.424;  -13.191; 2696.493
889.471;  795.577;   -9.881; 2560.172
890.032;  794.684;   -9.881; 2558.190
890.593;  779.097;  -10.371; 2567.669
891.153;  757.254;  -13.301; 2460.307
891.714;  716.338;  -11.431; 2372.046
892.275;  686.765;  -11.291; 2309.505
892.835;  656.291;  -11.471; 2382.543
893.396;  606.427;  -11.541; 2295.502
893.956;  553.089;  -11.181; 2162.420
894.517;  517.964;  -11.741; 2125.439
895.077;  510.395;  -11.671; 2086.978
895.638;  512.000;  -11.311; 2126.316
896.198;  483.993;   -9.831; 1838.275
896.758;  443.204;   -8.421; 1892.813
897.319;  413.613;  -12.351; 1792.232
897.879;  396.728;  -13.511; 1762.751
898.439;  373.131;  -12.001; 1661.149
898.999;  348.450;  -10.180; 1781.468
899.559;  339.490;  -12.030; 1703.347
900.119;  336.318;  -15.710; 1537.525
900.679;  334.218;   -8.900; 1638.384
901.239;  321.021;   -8.340; 1527.902
901.799;  310.540;  -13.910; 1456.441
902.359;  304.070;  -13.460; 1357.140
902.919;  297.697;  -11.490; 1331.118
903.479;  285.240;  -12.110; 1317.257
904.038;  264.406;  -11.720; 1262.595
904.598;  248.152;  -13.610; 1152.034
905.158;  242.723;  -11.040; 1240.893
905.717;  237.320;  -10.900; 1233.691
906.277;  225.552;  -15.080; 1217.330
906.836;  217.058;  -13.380; 1222.408
907.396;  208.237;  -10.780; 1193.047
907.955;  201.988;   -8.500; 1182.526
908.515;  195.915;  -12.760; 1099.364
909.074;  189.238;  -11.900; 1092.863
909.633;  183.431;   -8.950; 1069.121
910.192;  175.853;   -8.770; 1196.460
910.752;  169.859;  -12.390; 1029.960
911.311;  164.000;  -13.680; 1009.780
911.870;  160.329;  -12.370;  971.460
912.429;  162.109;  -10.900; 1094.080
912.988;  161.616;  -11.690; 1081.060
913.547;  157.165;  -13.240;  940.380
914.106;  153.337;  -11.990;  999.420
914.665;  150.743;   -9.990;  984.020
915.224;  149.785;  -12.880; 1035.760
915.782;  150.874;  -12.350;  922.560
916.341;  151.018;   -9.110; 1049.840
916.900;  146.419;   -9.270;  925.260
917.458;  144.444;  -13.240;  884.220
918.017;  144.281;  -13.550;  942.600
918.576;  144.378;  -12.320;  904.440
919.134;  142.303;  -11.490;  837.980
919.693;  139.471;  -13.670;  893.060
920.251;  138.153;  -15.470;  876.500
920.809;  137.758;  -11.290;  839.580
921.368;  137.087;  -10.210;  885.360
921.926;  135.897;  -12.140;  842.940
922.484;  134.032;  -13.080;  903.360
923.042;  133.878;  -11.720;  880.340
923.601;  136.292;   -7.480;  998.680
924.159;  135.881;  -11.570;  935.560
924.717;  133.005;  -13.840;  841.080
925.275;  132.295;  -10.640;  903.240
925.833;  132.427;  -11.540;  779.320
926.391;  132.915;  -12.960;  938.380
926.949;  131.094;  -14.130;  857.680
927.506;  131.265;  -11.750;  903.500
928.064;  131.998;  -10.250;  877.580
928.622;  131.408;  -13.030;  880.100
929.180;  129.783;  -13.400;  814.180
929.737;  131.259;  -10.700;  808.540
930.295;  135.046;  -10.070;  928.480
930.853;  136.612;  -11.960;  849.100
931.410;  136.510;  -13.120;  821.120
931.968;  136.299;  -10.770;  940.660
932.525;  135.614;  -10.680;  909.380
933.082;  136.918;  -13.130;  811.440
933.640;  137.993;  -13.210;  925.900
934.197;  135.769;  -11.060;  886.360
934.754;  136.941;   -9.580;  897.780
935.312;  138.872;  -14.000;  863.340
935.869;  143.258;  -10.710; 1012.980
936.426;  143.776;   -9.860;  872.800
936.983;  144.900;   -9.710;  889.020
937.540;  145.094;  -13.990;  838.280
938.097;  143.573;  -14.040;  940.120
938.654;  143.503;  -10.310;  898.860
939.211;  146.916;  -10.560;  952.480
939.768;  150.509;  -13.900;  915.420
940.324;  152.566;  -14.760;  904.200
940.881;  152.859;  -10.370;  878.500
941.438;  154.595;   -8.260; 1021.200
941.995;  150.872;  -12.540;  992.560
942.551;  147.735;  -14.670;  875.620
943.108;  148.634;  -10.450;  937.920
943.664;  150.962;  -10.750;  869.340
944.221;  154.134;  -11.550; 1088.140
944.777;  150.973;  -14.770;  869.680
945.334;  151.541;  -12.820;  884.840
945.890;  155.161;  -10.130;  946.480
946.446;  155.002;  -13.470;  947.020
947.003;  156.802;  -12.120;  964.940
947.559;  158.716;   -9.980; 1063.040
948.115;  157.382;   -9.080; 1026.540
948.671;  155.102;  -10.830;  967.300
949.227;  152.735;  -12.440;  859.560
949.783;  150.051;  -12.910;  858.900
950.339;  151.172;  -10.270;  991.000
950.895;  151.900;  -13.630; 1023.840
951.451;  151.343;  -15.100;  925.280
952.007;  151.893;  -11.330;  998.540
952.563;  152.870;  -10.580;  937.780
953.118;  152.824;  -13.440;  904.940
953.674;  152.755;  -12.710;  935.780
954.230;  151.715;  -10.350;  949.640
954.785;  149.877;   -9.190;  936.640
955.341;  147.490;  -11.200;  998.160
955.897;  144.735;  -16.560;  834.660
956.452;  145.992;  -12.570;  953.840
957.008;  146.306;   -7.970; 1083.640
957.563;  143.258;  -11.940; 1009.540
958.118;  137.992;  -13.450;  877.700
958.674;  137.672;  -12.030;  946.780
959.229;  139.270;   -9.410; 1013.980
959.784;  137.954;  -12.000;  832.400
960.339;  136.131;  -14.780; 1001.280
960.894;  133.221;   -9.860;  963.760
961.449;  129.800;   -9.970;  859.960
962.004;  130.176;  -10.900; 1212.840
962.559;  125.057;  -13.150;  860.140
963.114;  121.990;  -13.740;  742.480
963.669;  122.125;   -9.820;  915.500
964.224;  119.924;  -13.890;  874.340
964.779;  119.209;  -12.600;  828.420
965.334;  120.980;  -10.950; 1017.860
965.888;  120.433;  -11.170;  875.360
966.443;  123.226;  -12.540;  972.380
966.998;  121.734;  -15.780;  819.460
967.552;  122.120;   -9.760;  908.380
968.107;  117.411;   -9.060;  868.300
968.661;  119.280;  -11.950;  922.440
969.216;  118.559;  -12.800;  856.280
969.770;  119.728;  -11.210;  917.200
970.324;  118.437;  -11.610;  923.140
970.879;  115.213;  -11.370;  947.180
971.433;  111.629;  -12.540;  952.720
971.987;  106.733;  -11.320;  895.340
972.541;  103.832;  -10.720;  917.100
973.095;  103.572;   -9.680; 1009.460
973.649;  101.967;  -11.440;  809.480
974.203;  101.308;  -11.210;  829.040
974.757;  101.819;  -10.240;  855.220
975.311;  101.597;  -13.720;  872.600
975.865;  100.368;  -13.770;  881.820
976.419;   98.716;  -11.690;  857.400
976.973;   98.888;   -9.510;  849.620
977.526;  101.292;  -12.620;  949.920
978.080;  100.388;  -12.010;  796.780
978.634;  101.954;  -10.170;  921.320
979.187;   99.015;   -9.020;  905.400
979.741;   96.510;   -9.820; 1018.380
980.294;   91.480;  -14.870;  789.160
980.848;   89.493;  -12.380;  717.220
981.401;   91.416;  -10.350;  816.540
981.955;   93.834;  -13.720;  844.300
982.508;   92.174;  -11.490;  746.340
983.061;   93.111;  -10.000;  915.260
983.615;   88.986;  -11.480;  798.800
984.168;   86.001;  -13.220;  770.080
984.721;   85.152;  -13.960;  880.760
985.274;   83.670;  -10.870;  867.500
985.827;   83.553;   -9.790;  834.220
986.380;   81.097;  -13.120;  721.340
986.933;   79.718;  -12.450;  864.800
987.486;   77.879;  -10.210;  861.920
988.039;   77.533;   -8.430;  863.100
988.591;   74.756;  -10.520;  893.260
989.144;   72.586;  -14.860;  737.260
989.697;   72.657;  -13.080;  758.740
990.250;   72.997;  -10.150;  858.100
990.802;   71.911;  -13.430;  755.860
991.355;   72.668;  -12.750;  974.880
991.907;   70.337;  -12.040;  864.320
992.460;   68.005;  -11.330;  753.760
993.012;   67.455;  -13.610;  749.540
993.565;   65.841;  -13.460;  711.360
994.117;   67.477;   -9.360;  950.780
994.669;   64.486;  -11.300;  701.320
995.221;   62.914;  -13.540;  791.920
995.774;   60.735;  -13.430;  787.580
996.326;   58.736;  -12.520;  740.220
996.878;   58.592;  -10.950;  838.420
997.430;   56.609;  -14.300;  699.860
997.982;   55.647;  -13.760;  750.140
998.534;   55.078;  -11.530;  739.060
999.086;   54.187;  -10.310;  738.220
999.638;   53.349;  -12.530;  661.380
1000.190;   52.189;  -11.840;  699.320
1000.741;   52.075;  -10.260;  742.700
1001.293;   51.096;   -8.860;  686.020
1001.845;   49.623;  -13.700;  676.640
1002.396;   49.720;  -12.100;  743.400
1002.948;   49.660;  -12.760;  737.400
1003.500;   48.158;  -10.380;  723.780
1004.051;   48.095;  -11.900;  907.580
1004.603;   47.155;  -12.250;  791.820
1005.154;   43.390;  -13.210;  608.980
1005.705;   41.819;  -10.950;  723.960
1006.257;   41.657;  -13.880;  707.220
1006.808;   40.716;  -12.840;  685.460
1007.359;   41.380;  -10.570;  763.240
1007.910;   39.685;   -9.620;  646.640
1008.461;   39.129;  -13.630;  732.940
1009.013;   38.431;  -17.200;  588.340
1009.564;   39.285;  -10.200;  793.520
1010.115;   37.836;  -12.570;  597.040
1010.665;   37.543;  -15.150;  602.160
1011.216;   37.185;  -14.480;  667.920
1011.767;   36.091;  -11.340;  697.920
1012.318;   37.052;   -9.780;  736.980
1012.869;   36.025;  -12.380;  679.000
1013.419;   35.260;  -15.560;  603.120
1013.970;   35.691;  -11.010;  666.640
1014.521;   34.906;  -11.610;  620.620
1015.071;   35.367;  -13.450;  670.380
1015.622;   34.394;  -13.870;  635.460
1016.172;   33.912;  -11.610;  596.820
1016.723;   33.946;  -12.120;  614.380
1017.273;   34.169;  -13.620;  604.160
1017.823;   33.839;  -14.140;  650.340
1018.374;   32.891;  -12.800;  611.760
1018.924;   33.327;  -12.340;  716.880
1019.474;   33.204;  -11.410;  718.880
1020.024;   32.465;  -14.770;  657.580
1020.574;   32.492;   -9.780;  726.160
1021.124;   32.976;   -8.560;  673.580
1021.674;   31.443;  -15.190;  559.120
1022.224;   32.566;  -13.530;  708.940
1022.774;   32.223;  -13.280;  668.820
1023.324;   32.325;  -10.690;  753.520
1023.874;   33.544;  -10.240;  875.760
1024.423;   30.970;  -12.540;  613.700
1024.973;   30.373;  -10.010;  610.760
1025.523;   30.030;  -10.550;  620.960
1026.072;   29.514;  -13.560;  606.420
1026.622;   29.494;  -15.120;  675.740
1027.172;   30.114;  -11.260;  715.660
1027.721;   29.330;  -11.410;  601.220
1028.270;   29.419;  -13.530;  663.400
1028.820;   29.432;  -13.680;  638.080
1029.369;   28.544;  -13.520;  612.700
1029.918;   29.170;  -10.980;  649.840
1030.468;   28.588;  -13.530;  564.780
1031.017;   29.259;  -13.170;  634.800
1031.566;   27.458;  -12.200;  608.900
1032.115;   27.681;   -9.960;  694.500
1032.664;   27.180;  -13.210;  596.480
1033.213;   28.115;  -12.500;  735.420
1033.762;   27.535;  -11.910;  635.620
1034.311;   27.217;   -9.640;  677.220
1034.860;   26.942;  -13.310;  691.000
1035.408;   27.997;  -11.830;  722.720
1035.957;   27.199;  -12.000;  719.540
1036.506;   25.548;  -11.690;  530.800
1037.055;   28.133;  -10.990;  844.320
1037.603;   26.485;  -15.120;  664.000
1038.152;   24.513;  -12.450;  534.760
1038.700;   26.042;  -10.560;  585.740
1039.249;   25.661;  -11.080;  681.220
1039.797;   25.865;  -12.540;  633.360
1040.345;   25.662;  -11.920;  705.420
1040.894;   25.193;  -11.410;  625.300
1041.442;   24.495;  -14.320;  632.200
1041.990;   23.684;  -16.240;  559.160
1042.538;   23.239;  -11.680;  536.180
1043.087;   23.708;  -10.760;  570.860
1043.635;   25.029;  -11.850;  670.500
1044.183;   24.294;  -15.480;  586.400
1044.731;   23.372;  -11.770;  576.000
1045.279;   23.666;  -13.090;  674.920
1045.827;   25.583;  -12.440;  892.400
1046.374;   22.364;  -13.840;  515.420
1046.922;   22.108;  -13.220;  590.580
1047.470;   23.267;  -10.230;  691.300
1048.018;   23.225;  -14.590;  647.960
1048.565;   23.815;  -12.050;  708.600
1049.113;   21.965;  -11.650;  557.000
1049.660;   22.367;  -10.510;  629.660
1050.208;   22.954;  -13.310;  675.640
1050.755;   21.496;  -15.900;  606.580
1051.303;   22.235;  -11.430;  686.820
1051.850;   21.763;   -8.480;  635.120
1052.397;   20.539;  -15.010;  473.960
1052.945;   20.507;  -13.960;  617.760
1053.492;   21.857;  -13.150;  741.840
1054.039;   22.025;   -9.630;  720.180
1054.586;   20.889;  -13.680;  557.240
1055.133;   21.258;  -14.570;  693.140
1055.680;   21.186;  -13.820;  646.620
1056.227;   20.770;  -11.730;  542.780
1056.774;   21.277;  -12.480;  794.980
1057.321;   19.276;  -13.930;  523.260
1057.868;   20.232;  -11.690;  651.320
1058.415;   19.829;   -9.520;  651.980
1058.961;   20.387;  -13.160;  678.940
1059.508;   19.507;  -12.920;  643.820
1060.055;   19.356;  -11.920;  581.780
1060.601;   20.234;  -11.500;  624.300
1061.148;   19.489;  -14.330;  616.820
1061.694;   18.449;  -16.870;  592.580
1062.241;   18.848;  -10.330;  596.320
1062.787;   19.126;  -10.620;  663.140
1063.334;   21.371;  -10.110;  808.560
1063.880;   18.196;  -13.400;  668.360
1064.426;   18.770;  -10.680;  706.820
1064.972;   17.591;   -9.920;  601.340
1065.518;   17.027;  -10.980;  566.640
1066.065;   18.837;  -14.890;  624.460
1066.611;   17.233;  -12.870;  598.800
1067.157;   18.602;  -12.950;  641.860
1067.703;   18.384;  -13.540;  668.480
1068.249;   17.378;  -13.540;  605.220
1068.794;   17.926;  -12.600;  626.880
1069.340;   16.033;  -10.620;  578.960
1069.886;   17.111;  -12.830;  590.700
1070.432;   15.737;  -14.870;  541.720
1070.977;   16.532;  -11.980;  601.080
1071.523;   16.162;   -8.200;  573.060
1072.068;   16.356;  -12.330;  582.000
1072.614;   16.068;  -16.370;  527.760
1073.160;   16.891;  -11.100;  687.040
1073.705;   15.672;  -10.480;  572.520
1074.250;   15.935;  -14.520;  559.900
1074.796;   16.430;  -11.460;  655.160
1075.341;   16.177;  -11.950;  664.100
1075.886;   15.523;  -11.460;  594.240
1076.431;   15.237;  -13.770;  649.880
1076.976;   14.875;  -12.680;  639.220
1077.521;   14.616;  -13.170;  583.080
1078.067;   14.542;  -10.860;  579.400
1078.612;   15.449;  -13.920;  661.620
1079.156;   15.008;  -13.880;  601.540
1079.701;   15.592;  -13.120;  693.260
1080.246;   15.664;   -9.940;  696.300
1080.791;   15.109;  -14.740;  625.020
1081.336;   14.792;  -13.750;  659.320
1081.880;   14.640;  -13.400;  649.680
1082.425;   13.962;  -12.220;  573.480
1082.970;   15.478;  -11.610;  717.040
1083.514;   14.446;  -13.580;  597.000
1084.059;   13.422;  -12.810;  586.720
1084.603;   13.215;  -12.320;  565.840
1085.147;   13.836;  -13.190;  645.220
1085.692;   14.357;  -12.480;  716.800
1086.236;   12.160;  -13.020;  503.140
1086.780;   14.616;   -9.190;  751.440
1087.325;   13.612;  -12.480;  654.620
1087.869;   13.247;  -12.450;  610.700
1088.413;   13.464;  -12.240;  705.040
1088.957;   12.267;   -9.020;  543.400
1089.501;   14.266;  -10.320;  766.640
1090.045;   12.862;  -12.720;  726.480
1090.589;   11.379;  -13.690;  569.920
1091.133;   12.579;  -10.020;  673.340
1091.676;   13.023;  -12.330;  591.940
1092.220;   11.982;  -14.970;  600.920
1092.764;   12.276;  -12.430;  706.960
1093.307;   13.203;   -9.800;  673.780
1093.851;   10.993;  -14.970;  556.540
1094.395;   12.062;  -15.310;  683.140
1094.938;   11.297;  -10.370;  632.520
1095.482;   11.367;  -11.050;  559.800
1096.025;   12.225;  -11.840;  710.880
1096.568;   12.098;  -12.840;  779.280
1097.112;    9.657;  -14.700;  508.180
1097.655;   11.726;   -8.720;  603.000
1098.198;   10.354;  -13.610;  600.180
1098.741;   10.459;  -13.350;  612.860
1099.285;   10.972;  -11.230;  657.300
1099.828;    8.948;  -11.840;  439.400
1100.371;   10.431;  -10.840;  608.160
1100.914;    9.920;  -14.190;  682.660
1101.457;   10.536;  -11.240;  679.900
1101.999;    9.197;  -11.270;  584.680
1102.542;   10.597;  -11.480;  641.440
1103.085;    9.264;  -11.750;  658.500
1103.628;   10.670;  -11.400;  762.060
1104.170;    9.194;  -10.490;  588.280
1104.713;   10.240;  -10.600;  646.700
1105.256;    9.359;  -14.360;  557.440
1105.798;    8.086;  -13.210;  499.980
1106.341;    9.881;  -10.270;  728.900
1106.883;    8.511;  -12.200;  521.340
1107.425;    9.233;  -13.110;  668.180
1107.968;    8.898;  -12.840;  612.380
1108.510;   10.070;   -6.480;  684.960
1109.052;    7.037;  -13.940;  612.620
1109.594;    7.944;  -13.690;  554.440
1110.136;    8.895;  -11.880;  643.220
1110.679;    8.291;   -9.500;  633.080
1111.221;    9.085;  -14.160;  604.460
1111.763;    7.779;  -13.980;  559.220
1112.304;    7.163;  -13.880;  547.140
1112.846;    7.663;  -12.210;  666.240
1113.388;   10.729;  -11.390;  942.180
1113.930;    8.371;  -14.540;  694.200
1114.472;    6.998;  -12.640;  606.540
1115.013;    6.161;  -11.620;  551.280
1115.555;    6.524;  -13.640;  587.100
1116.097;    6.532;  -15.380;  579.480
1116.638;    7.297;  -12.640;  684.600
1117.180;    7.410;   -9.850;  667.740
1117.721;    6.977;  -13.690;  568.580
1118.262;    7.938;  -12.680;  677.960
1118.804;    7.177;  -12.530;  637.340
1119.345;    6.428;  -11.690;  578.400
1119.886;    6.978;  -13.380;  704.040
1120.427;    5.808;  -14.070;  589.020
1120.969;    5.721;  -13.500;  597.920
1121.510;    5.301;  -11.480;  563.060
1122.051;    6.156;  -12.830;  723.580
1122.592;    5.623;  -14.290;  655.420
1123.133;    5.160;  -12.400;  547.940
1123.673;    6.935;  -10.130;  706.480
1124.214;    6.101;  -12.930;  612.460
1124.755;    6.499;  -14.380;  639.460
1125.296;    5.865;  -14.000;  627.320
1125.836;    6.241;  -10.070;  691.500
1126.377;    5.820;  -12.640;  599.660
1126.918;    5.745;  -12.960;  614.980
1127.458;    4.968;  -13.350;  622.220
1127.999;    5.395;  -10.750;  656.980
1128.539;    5.467;  -12.350;  694.240
1129.079;    4.643;  -14.860;  632.720
1129.620;    4.310;  -13.840;  558.100
1130.160;    4.834;  -12.330;  539.480
1130.700;    5.672;  -14.530;  640.840
1131.240;    5.418;  -12.530;  643.700
1131.781;    4.215;  -14.450;  619.680
1132.321;    4.110;   -9.790;  599.120
1132.861;    3.060;  -14.860;  564.200
1133.401;    3.508;  -14.290;  593.940
1133.941;    3.735;  -11.750;  626.280
1134.481;    3.321;   -9.920;  597.580
1135.020;    3.462;  -12.290;  609.160
1135.560;    4.242;  -11.650;  674.940
1136.100;    2.621;  -16.270;  501.160
1136.640;    2.460;  -10.890;  510.480
1137.179;    3.117;  -14.180;  537.960
1137.719;    2.899;  -16.250;  605.400
1138.258;    3.510;  -14.230;  587.360
1138.798;    3.501;   -9.090;  663.780
1139.337;    2.476;  -15.130;  482.840
1139.877;    2.998;  -13.680;  642.360
1140.416;    5.255;  -11.320;  878.060
1140.955;    2.334;  -10.860;  535.380
1141.494;    2.932;  -12.920;  669.280
1142.034;    2.264;  -13.930;  583.520
1142.573;    3.268;  -11.440;  646.280
1143.112;    2.857;  -12.000;  553.480
1143.651;    2.068;  -13.670;  536.480
1144.190;    3.771;  -12.730;  691.640
1144.729;    2.283;  -14.560;  607.420
1145.267;    2.652;  -11.830;  584.900
1145.806;    3.668;  -12.230;  637.040
1146.345;    2.256;  -14.130;  635.020
1146.884;    1.503;  -11.590;  622.500
1147.422;    2.202;  -12.550;  533.060
1147.961;    3.229;  -11.180;  708.460
1148.500;    2.551;  -11.510;  669.720
1149.038;    2.478;  -11.640;  632.500
1149.577;    2.527;  -10.130;  698.640
1150.115;    0.687;  -13.970;  452.280
1150.653;    2.069;  -14.520;  607.340
1151.192;    1.124;  -12.810;  552.920
1151.730;    2.459;   -9.100;  652.560
1152.268;    0.897;  -12.220;  589.520
1152.806;    1.099;  -14.140;  571.180
1153.344;   -0.157;  -12.350;  577.640
1153.882;    1.578;   -8.980;  600.060
1154.421;    0.279;  -15.190;  470.620
1154.958;    0.256;  -15.210;  595.240
1155.496;    1.883;  -12.850;  645.280
1156.034;    1.090;   -9.940;  721.880
1156.572;    2.001;  -13.570;  667.060
1157.110;    0.029;  -14.590;  473.940
1157.647;    1.568;  -13.030;  676.960
1158.185;    0.768;  -12.140;  564.320
1158.723;   -0.940;  -14.390;  509.200
1159.260;    0.621;  -14.090;  701.700
1159.798;    0.270;  -11.920;  658.160
1160.335;    0.531;  -11.110;  631.820

