
Integration time [ms]:   3.882
Averaging Nr. [scans]: 1000
Smoothing Nr. [pixels]: 0
Data measured with spectrometer [name]: 7414430SP
Wave   ;Sample   ;Dark     ;Reference
[nm]   ;[counts] ;[counts] ;[counts] 

288.544;  122.211;   10.292;  793.890
289.143;  123.791;    4.564;  681.602
289.742;  125.994;    6.144;  828.814
290.341;  115.364;    4.396;  789.841
290.940;  106.000;    0.938;  730.702
291.538;  107.257;   -0.684;  881.108
292.137;  105.332;   -2.845;  792.581
292.736;  110.421;   -0.144;  975.101
293.335;  106.608;   -6.352;  735.086
293.934;  107.641;   -7.642;  781.677
294.532;  108.930;   -4.992; 1031.958
295.131;   95.623;   -5.478;  834.394
295.730;   94.575;   -6.549;  809.588
296.328;   91.958;   -9.558;  783.442
296.927;   92.398;   -8.118;  779.652
297.525;   94.353;   -6.908;  781.236
298.124;   85.006;   -9.195;  654.009
298.722;   89.676;   -8.198;  761.933
299.321;   86.539;   -8.817;  708.597
299.919;   84.510;   -7.716;  751.918
300.518;   81.935;  -10.745;  689.338
301.116;   83.207;   -9.647;  691.381
301.715;   83.388;  -10.828;  730.222
302.313;   83.097;   -6.087;  704.943
302.911;   78.435;   -6.824;  733.830
303.509;   83.867;   -8.807;  925.627
304.108;   80.340;   -8.198;  760.383
304.706;   80.737;   -6.218;  801.664
305.304;   76.244;   -7.185;  796.707
305.902;   81.507;   -8.568;  784.484
306.500;   77.569;   -7.737;  728.200
307.098;   76.430;   -6.026;  746.560
307.696;   75.141;   -7.176;  780.432
308.294;   74.756;   -8.656;  731.359
308.892;   76.795;   -6.838;  759.769
309.490;   72.130;   -2.596;  712.161
310.088;   70.704;   -4.485;  788.444
310.686;   75.453;   -3.907;  821.749
311.284;   71.160;   -2.806;  766.040
311.882;   68.830;   -2.845;  731.225
312.480;   66.415;   -3.274;  697.167
313.078;   68.112;   -3.645;  808.331
313.675;   69.824;   -4.997;  691.600
314.273;   64.578;   -0.894;  797.837
314.871;   64.415;   -2.854;  589.829
315.468;   61.840;   -3.644;  652.090
316.066;   65.020;   -3.947;  694.427
316.664;   58.144;   -1.824;  656.351
317.261;   63.397;    1.565;  910.128
317.859;   58.933;   -3.955;  768.735
318.456;   59.218;   -2.886;  830.096
319.054;   56.240;   -0.995;  787.828
319.651;   55.276;   -1.765;  759.928
320.249;   54.221;   -3.685;  810.188
320.846;   53.003;   -3.736;  714.286
321.443;   49.925;   -2.065;  832.135
322.041;   48.426;   -5.635;  812.315
322.638;   45.413;   -5.985;  701.456
323.235;   48.431;   -6.677;  665.683
323.833;   45.934;   -3.497;  740.354
324.430;   41.987;   -6.756;  615.900
325.027;   43.643;   -7.647;  876.855
325.624;   43.192;   -7.598;  644.532
326.221;   40.947;   -5.848;  689.717
326.818;   40.492;   -5.777;  818.332
327.415;   42.683;   -8.769;  748.828
328.012;   41.912;   -6.299;  690.585
328.609;   40.899;   -6.639;  731.389
329.206;   38.956;   -6.358;  778.621
329.803;   38.747;   -8.698;  737.841
330.400;   39.194;   -8.379;  704.260
330.997;   39.797;   -6.178;  817.147
331.594;   37.867;   -5.646;  788.185
332.191;   42.899;   -6.928;  728.722
332.787;   44.638;   -6.057;  844.463
333.384;   41.559;   -6.445;  763.093
333.981;   38.648;   -8.002;  815.687
334.578;   41.245;   -8.443;  708.378
335.174;   44.221;   -6.053;  731.469
335.771;   44.182;   -5.791;  836.456
336.367;   40.554;   -6.570;  710.631
336.964;   43.664;   -6.741;  793.266
337.561;   44.391;   -5.710;  731.112
338.157;   40.803;   -3.928;  911.916
338.754;   36.210;   -5.577;  796.589
339.350;   35.846;   -9.667;  722.493
339.946;   40.325;   -5.269;  773.135
340.543;   31.876;   -4.485;  846.136
341.139;   25.961;   -7.584;  720.836
341.735;   24.576;   -8.553;  772.593
342.332;   23.548;   -4.984;  691.472
342.928;   24.652;   -3.475;  795.394
343.524;   19.392;   -6.653;  761.684
344.120;   15.652;   -7.173;  738.562
344.716;   18.920;   -4.385;  723.717
345.313;   17.648;   -3.565;  795.342
345.909;   12.885;   -7.495;  627.336
346.505;   14.660;   -8.276;  740.247
347.101;   15.217;   -5.697;  827.864
347.697;   15.708;   -4.767;  785.398
348.293;   10.712;   -7.226;  627.244
348.889;   10.922;   -7.547;  745.914
349.485;   11.611;   -9.147;  688.205
350.081;   11.931;   -6.568;  772.592
350.676;    7.673;   -6.516;  691.606
351.272;   11.679;   -7.378;  809.530
351.868;   11.395;   -6.759;  780.497
352.464;    9.038;   -4.798;  723.932
353.059;    5.277;   -7.977;  646.017
353.655;    9.141;   -8.769;  777.063
354.251;   10.285;   -5.920;  759.845
354.846;    4.632;   -7.647;  740.646
355.442;    3.058;   -6.956;  753.071
356.038;    4.511;   -9.928;  751.708
356.633;    4.283;   -7.698;  728.594
357.229;    2.529;   -6.307;  724.757
357.824;    1.496;   -7.647;  703.600
358.420;    0.808;  -10.047;  679.726
359.015;    0.928;   -7.458;  695.357
359.610;    1.644;   -5.748;  763.920
360.206;   -4.249;   -9.346;  603.240
360.801;   -0.691;  -11.268;  646.503
361.396;    1.563;   -8.789;  725.975
361.992;   -2.515;   -6.347;  668.220
362.587;   -4.797;   -6.476;  670.160
363.182;   -3.339;   -9.457;  689.631
363.777;   -3.232;   -7.147;  738.242
364.372;   -1.681;   -5.507;  737.314
364.967;   -6.419;   -6.386;  680.744
365.563;   -2.019;   -7.858;  815.567
366.158;   -4.819;   -8.517;  685.161
366.753;   -3.848;   -8.728;  649.263
367.348;   -5.380;   -7.677;  746.056
367.942;   -5.487;  -10.387;  697.298
368.537;   -6.934;   -7.187;  754.245
369.132;   -6.551;   -8.587;  703.428
369.727;  -10.437;   -8.606;  638.079
370.322;   -9.668;  -10.426;  580.186
370.917;   -8.968;   -5.776;  710.646
371.511;   -6.217;   -6.007;  861.834
372.106;   -9.449;   -6.686;  776.964
372.701;  -12.655;   -9.335;  585.988
373.296;   -6.699;   -6.777;  863.135
373.890;  -12.050;   -7.546;  647.840
374.485;  -13.235;   -8.755;  691.199
375.079;   -9.068;   -9.797;  738.685
375.674;   -8.268;   -6.327;  812.970
376.268;  -12.868;   -9.046;  691.759
376.863;  -17.646;   -7.993;  580.327
377.457;  -11.546;   -9.206;  662.490
378.052;  -13.584;   -5.345;  764.884
378.646;  -13.903;   -5.605;  741.167
379.240;  -14.046;   -6.825;  721.176
379.835;  -14.142;  -10.476;  636.978
380.429;  -16.172;   -8.676;  562.557
381.023;  -15.398;   -4.945;  779.205
381.617;  -17.328;   -8.094;  680.106
382.212;  -14.383;  -10.646;  685.303
382.806;  -13.284;   -8.136;  760.690
383.400;  -17.148;   -7.855;  672.281
383.994;  -17.760;   -8.125;  664.870
384.588;  -14.145;   -7.637;  697.701
385.182;  -13.425;   -7.458;  726.624
385.776;  -14.500;   -6.277;  706.875
386.370;  -17.034;   -7.485;  681.968
386.964;  -15.936;   -9.416;  684.155
387.558;  -14.817;   -8.518;  598.360
388.152;  -17.788;   -7.096;  681.959
388.745;  -15.850;   -7.656;  814.707
389.339;  -14.220;   -8.927;  747.642
389.933;  -13.983;   -9.538;  695.370
390.527;  -14.240;   -5.857;  859.029
391.120;  -20.348;   -9.455;  595.318
391.714;  -17.381;   -9.746;  711.633
392.308;  -14.481;   -7.857;  780.253
392.901;  -18.075;   -9.106;  642.460
393.495;  -19.245;  -10.365;  595.414
394.089;  -17.793;   -9.696;  760.452
394.682;  -18.098;   -7.016;  697.188
395.275;  -18.391;   -8.466;  719.927
395.869;  -19.401;   -8.985;  667.314
396.462;  -17.906;  -11.496;  616.609
397.056;  -13.505;   -7.838;  776.621
397.649;  -18.418;   -6.895;  731.575
398.242;  -15.667;   -5.017;  712.645
398.836;  -14.686;   -8.787;  766.408
399.429;  -16.497;   -8.967;  631.041
400.022;  -19.633;   -8.815;  665.902
400.615;  -16.159;   -6.276;  805.609
401.208;  -14.805;   -8.407;  691.451
401.802;  -17.628;   -7.296;  699.329
402.395;  -18.639;   -7.585;  683.502
402.988;  -19.036;   -8.015;  696.627
403.581;  -16.006;   -9.577;  646.878
404.174;  -14.048;   -7.588;  686.568
404.767;  -17.096;   -7.906;  638.583
405.360;  -18.677;   -7.875;  621.445
405.953;  -12.939;   -8.127;  759.034
406.545;  -12.866;   -7.198;  725.342
407.138;  -17.376;   -8.916;  618.350
407.731;  -15.026;   -9.767;  613.303
408.324;  -11.615;  -10.659;  660.554
408.917;  -13.369;   -8.068;  681.864
409.509;  -14.799;   -9.837;  740.396
410.102;  -16.598;   -8.146;  643.948
410.695;  -10.113;   -7.969;  665.758
411.287;  -11.059;   -8.579;  599.821
411.880;  -12.559;   -6.968;  585.421
412.472;  -15.019;   -9.487;  613.092
413.065;  -12.583;  -10.338;  629.408
413.657;  -10.468;   -9.169;  576.678
414.250;   -9.881;  -10.119;  646.681
414.842;  -11.403;   -9.938;  676.353
415.434;   -8.957;  -10.409;  570.463
416.027;   -5.865;   -9.591;  652.196
416.619;   -7.124;   -7.379;  713.400
417.211;   -8.091;   -9.159;  599.352
417.804;   -4.323;   -9.191;  628.499
418.396;   -8.625;   -8.159;  607.643
418.988;   -5.362;   -6.960;  659.238
419.580;   -9.393;  -11.389;  568.276
420.172;   -6.903;  -13.460;  536.196
420.764;   -2.745;  -10.701;  672.482
421.356;   -4.211;   -8.961;  636.898
421.948;   -4.514;   -9.770;  677.661
422.540;    0.691;   -8.832;  680.027
423.132;   -0.590;   -8.153;  600.641
423.724;   -3.807;   -8.481;  561.267
424.316;   -1.467;   -9.261;  621.345
424.908;    1.802;   -9.643;  591.517
425.500;    2.363;   -8.663;  647.978
426.092;    3.448;   -8.503;  648.268
426.683;    1.838;  -10.522;  684.836
427.275;    4.860;  -11.734;  641.471
427.867;    6.065;  -10.264;  668.948
428.458;    7.741;   -7.644;  732.344
429.050;    5.793;   -7.853;  680.749
429.642;    8.418;   -8.904;  743.124
430.233;    7.262;  -10.795;  569.356
430.825;   10.309;   -7.665;  724.809
431.416;    7.978;   -8.843;  698.241
432.008;   10.972;   -9.885;  651.723
432.599;   11.229;   -9.966;  656.073
433.190;    8.679;   -9.164;  637.670
433.782;    8.178;   -8.584;  590.395
434.373;   15.680;   -8.296;  884.765
434.964;   13.478;   -9.896;  602.920
435.556;   11.402;   -8.255;  634.537
436.147;   14.548;   -8.075;  758.490
436.738;   14.123;   -9.716;  701.099
437.329;   18.982;   -7.318;  721.723
437.920;   12.318;   -6.694;  666.688
438.511;   12.873;   -9.644;  564.526
439.103;   19.227;   -9.427;  623.998
439.694;   20.763;  -10.748;  681.583
440.285;   22.169;   -7.997;  764.432
440.876;   20.754;  -10.046;  845.738
441.466;   19.587;  -13.467;  575.162
442.057;   24.942;   -9.329;  665.814
442.648;   23.870;   -7.707;  746.255
443.239;   22.275;   -9.017;  620.477
443.830;   27.059;  -10.279;  704.958
444.421;   27.600;  -12.630;  655.474
445.011;   25.116;   -8.697;  693.619
445.602;   25.514;   -7.787;  743.126
446.193;   27.829;  -13.329;  488.117
446.783;   31.500;   -9.171;  640.397
447.374;   26.943;   -7.457;  692.759
447.964;   27.735;   -9.277;  713.770
448.555;   35.630;   -9.041;  822.742
449.145;   32.416;   -8.969;  662.853
449.736;   33.353;   -6.809;  803.179
450.326;   33.180;   -7.229;  713.626
450.917;   37.808;  -11.391;  675.324
451.507;   36.305;   -9.501;  600.661
452.097;   37.952;   -8.460;  746.267
452.688;   39.426;  -10.080;  742.160
453.278;   39.041;  -12.861;  566.840
453.868;   43.260;   -8.372;  793.550
454.458;   41.326;   -8.131;  651.141
455.048;   42.486;   -8.520;  711.783
455.639;   43.212;  -13.632;  567.096
456.229;   45.936;  -10.143;  710.694
456.819;   49.309;   -9.163;  751.158
457.409;   48.856;   -8.652;  773.993
457.999;   51.417;   -9.933;  737.505
458.589;   50.926;  -10.363;  686.606
459.179;   51.126;  -10.633;  717.658
459.769;   50.677;  -12.442;  627.099
460.358;   54.615;   -9.844;  797.262
460.948;   54.195;   -9.924;  689.503
461.538;   55.101;  -10.484;  660.677
462.128;   54.472;  -10.703;  664.934
462.717;   60.998;  -11.486;  710.326
463.307;   63.317;  -10.767;  705.846
463.897;   59.116;   -8.814;  656.942
464.486;   59.432;   -8.182;  837.128
465.076;   63.545;   -9.985;  733.776
465.666;   66.768;  -10.447;  652.900
466.255;   65.013;   -7.754;  785.651
466.845;   63.791;  -10.884;  666.749
467.434;   66.771;  -12.525;  725.873
468.023;   67.206;  -11.456;  658.357
468.613;   64.856;   -9.173;  713.946
469.202;   69.838;   -9.306;  646.507
469.791;   74.137;   -8.917;  737.811
470.381;   75.303;   -9.657;  742.813
470.970;   74.859;   -9.947;  711.099
471.559;   75.119;   -9.256;  733.291
472.148;   78.250;  -13.397;  675.737
472.738;   80.966;   -9.928;  765.466
473.327;   79.900;  -10.897;  637.529
473.916;   80.013;   -8.526;  737.446
474.505;   84.067;  -11.078;  751.703
475.094;   87.277;   -9.559;  806.570
475.683;   86.847;   -8.838;  797.699
476.272;   88.950;  -10.198;  730.632
476.861;   90.783;  -11.489;  706.754
477.449;   96.939;  -10.721;  728.487
478.038;   91.335;   -9.818;  692.513
478.627;   92.601;   -9.887;  714.852
479.216;   98.749;  -10.030;  769.441
479.805;  101.754;   -9.401;  783.375
480.393;  101.922;   -5.739; 1008.945
480.982;  100.595;   -7.838;  874.501
481.571;  106.688;   -9.111;  858.333
482.159;  107.252;  -10.601;  705.386
482.748;  107.100;   -8.500;  821.385
483.336;  112.649;   -9.241;  858.209
483.925;  112.507;  -10.440;  774.373
484.513;  118.414;  -11.063;  758.962
485.102;  115.709;   -9.540;  810.965
485.690;  125.863;   -6.742; 1011.050
486.278;  127.059;   -8.442;  979.329
486.867;  126.011;  -10.472;  809.662
487.455;  128.446;   -8.811;  898.229
488.043;  130.293;  -10.721;  748.361
488.631;  140.429;  -10.393; 1005.079
489.220;  142.584;  -10.843;  908.626
489.808;  142.986;  -10.572;  741.415
490.396;  151.072;  -10.482;  914.645
490.984;  158.373;  -11.542;  830.161
491.572;  167.631;   -8.463;  940.315
492.160;  172.703;   -8.491;  919.081
492.748;  181.521;   -9.681;  884.341
493.336;  201.454;  -10.493; 1019.693
493.924;  229.073;   -9.354;  958.077
494.512;  260.760;   -9.132; 1066.638
495.100;  296.148;   -9.001; 1103.280
495.687;  345.311;  -11.924; 1206.373
496.275;  410.840;  -11.193; 1150.796
496.863;  509.548;   -9.241; 1281.171
497.451;  614.295;  -11.341; 1386.805
498.038;  702.144;  -11.364; 1556.729
498.626;  812.411;   -8.104; 1741.407
499.214;  986.897;   -8.842; 2016.609
499.801; 1169.911;  -10.112; 2220.633
500.389; 1354.213;  -11.953; 2312.494
500.976; 1573.501;  -10.023; 2744.849
501.564; 1874.906;   -8.662; 3148.565
502.151; 2239.834;  -10.531; 3515.999
502.738; 2634.429;  -13.853; 3971.274
503.326; 3149.773;  -10.794; 4403.796
503.913; 3640.438;   -8.663; 5161.749
504.500; 3989.457;  -10.172; 5986.420
505.088; 4354.386;  -13.472; 6381.201
505.675; 5089.237;  -10.924; 6925.547
506.262; 5896.936;   -8.551; 7619.060
506.849; 6771.811;  -10.523; 8733.969
507.436; 7514.738;  -10.834; 9790.121
508.023; 7800.533;   -9.093; 9985.472
508.610; 8175.180;  -10.073;10434.618
509.197; 8797.803;   -9.500;11198.435
509.784;10319.130;  -13.242;12391.194
510.371;11073.320;  -10.964;13603.713
510.958;11056.503;   -9.772;14426.586
511.545;12198.349;   -7.842;15243.775
512.132;12211.083;  -12.184;15945.876
512.719;12358.858;   -9.733;16340.369
513.305;14265.348;   -9.172;18011.766
513.892;15619.842;   -9.581;19754.971
514.479;17332.258;  -10.253;20967.805
515.066;19325.775;   -8.183;22299.793
515.652;20241.350;   -9.253;22908.660
516.239;21138.313;   -9.412;23798.875
516.825;23293.865;  -11.153;25567.275
517.412;22827.133;  -10.263;28154.959
517.998;22795.768;   -8.802;28344.111
518.585;22660.527;  -10.401;27134.219
519.171;23020.488;  -12.744;27268.576
519.758;25727.236;  -11.793;28964.129
520.344;27428.729;   -8.912;30664.494
520.930;26632.285;  -10.901;32550.605
521.516;27695.145;  -12.034;35422.895
522.103;29036.564;  -10.473;38280.004
522.689;30890.025;   -8.311;37835.117
523.275;33761.656;  -10.691;37288.613
523.861;34243.742;  -11.193;37281.395
524.447;34945.637;  -11.484;37846.949
525.033;34941.578;   -7.702;38321.949
525.619;34527.754;  -11.241;38579.285
526.205;35354.508;  -12.152;40622.875
526.791;34651.414;  -11.423;42258.836
527.377;32492.326;   -7.981;42966.902
527.963;33115.273;   -9.450;42018.949
528.549;36116.184;  -11.351;42476.828
529.135;37287.977;  -10.202;41854.852
529.721;36014.230;   -8.672;41237.711
530.306;34053.586;   -9.111;41259.445
530.892;34187.723;  -11.252;41506.047
531.478;36016.297;  -10.432;43559.613
532.063;38792.508;  -10.721;47695.563
532.649;40550.199;   -7.450;50808.324
533.235;40853.879;  -11.811;51787.500
533.820;41174.840;   -9.383;52145.035
534.406;40358.633;   -9.400;51133.488
534.991;38200.965;   -8.861;49996.805
535.576;33591.340;  -10.612;48882.852
536.162;30742.027;   -7.322;46942.285
536.747;34737.844;   -9.360;45711.746
537.333;42175.105;  -10.450;48510.180
537.918;47482.082;  -12.610;50439.891
538.503;49625.941;  -12.132;50863.711
539.088;47003.133;  -10.831;50906.922
539.673;44965.852;  -11.220;52621.965
540.259;47222.305;  -11.481;52368.094
540.844;49591.883;  -11.462;50879.109
541.429;51065.750;   -7.869;52077.777
542.014;51719.848;  -11.859;52716.695
542.599;51060.125;  -11.061;52363.281
543.184;50194.473;  -12.300;53187.137
543.769;49038.422;   -9.369;54697.605
544.354;49091.164;  -12.020;53913.914
544.938;46573.297;  -10.350;49680.164
545.523;44517.367;  -10.841;47386.277
546.108;46209.738;   -8.579;49151.949
546.693;49000.305;   -8.818;51384.637
547.278;50103.559;  -11.331;51853.254
547.862;46683.512;  -10.292;51173.750
548.447;43204.957;   -8.349;51691.395
549.031;44888.391;  -10.838;52456.703
549.616;50107.520;  -11.681;52714.516
550.201;52524.898;  -11.140;52414.598
550.785;51139.996;   -8.649;52355.059
551.370;51550.273;  -11.889;54589.453
551.954;50730.250;  -11.239;58267.348
552.538;51054.539;   -8.850;59062.176
553.123;51554.410;  -10.829;58115.285
553.707;50758.992;   -8.887;56556.285
554.291;49777.449;  -10.430;56201.668
554.876;48301.109;   -9.799;55335.762
555.460;49916.266;  -10.018;54155.703
556.044;50795.199;   -7.307;53721.484
556.628;47904.727;  -12.229;53731.016
557.212;45789.906;   -9.820;54312.531
557.796;45573.164;   -9.109;53797.773
558.380;47606.922;   -9.707;56145.984
558.964;46344.980;  -10.980;57277.930
559.548;46740.184;  -12.010;56459.641
560.132;50715.074;   -7.928;54434.543
560.716;52358.148;  -10.247;54800.617
561.300;51551.609;  -11.250;57606.945
561.884;51902.531;  -10.568;58972.445
562.467;49867.227;   -9.727;57327.570
563.051;48888.348;  -11.847;54962.434
563.635;47943.059;  -10.747;52594.473
564.219;44856.492;  -13.108;50610.410
564.802;42423.273;  -11.417;49551.180
565.386;43746.895;  -10.457;48370.953
565.969;45074.129;   -8.959;48178.871
566.553;44352.426;  -10.328;49957.305
567.136;43482.848;  -10.257;50369.594
567.720;43529.605;  -10.186;49492.004
568.303;44011.492;  -10.027;50616.352
568.887;44964.508;  -10.397;50727.148
569.470;43397.344;   -8.185;51698.379
570.053;42321.652;  -11.596;52122.078
570.637;41266.605;  -11.378;52536.438
571.220;40336.281;   -9.138;51186.098
571.803;39210.234;   -7.675;51032.762
572.386;38136.336;   -8.976;49609.887
572.969;36326.910;  -12.477;48285.926
573.552;37275.855;   -9.767;47624.285
574.135;37752.316;   -8.175;45498.641
574.718;34377.145;  -11.096;41970.434
575.301;32538.877;  -11.966;41447.137
575.884;30700.607;  -12.836;40923.836
576.467;35068.438;   -9.116;45267.723
577.050;35583.348;  -10.536;48175.543
577.633;36216.746;  -11.027;47729.328
578.216;37164.688;   -9.946;47579.793
578.799;37955.516;   -9.645;47820.996
579.381;38962.957;   -9.446;48115.551
579.964;40042.566;  -12.217;47333.766
580.547;40511.582;  -10.586;46668.969
581.129;40603.477;   -8.374;44466.141
581.712;38365.945;  -10.434;44164.922
582.294;36901.641;  -10.896;46477.855
582.877;37058.383;   -8.906;48244.254
583.459;36801.375;   -9.994;47437.895
584.042;36979.594;  -10.084;46943.219
584.624;37510.875;  -13.534;46792.227
585.206;36319.719;  -12.716;46557.250
585.789;36568.176;  -11.614;45793.773
586.371;33990.324;  -10.203;43836.391
586.953;30890.896;  -10.314;42972.492
587.536;30691.578;   -9.776;42487.211
588.118;32347.760;   -9.821;42086.414
588.700;34190.734;  -10.073;43389.930
589.282;33264.004;  -12.395;43646.039
589.864;33395.332;  -11.514;43438.109
590.446;33245.254;  -10.803;43151.926
591.028;32425.316;  -11.043;42781.867
591.610;32688.990;  -13.244;42839.098
592.192;32826.531;  -11.095;42820.402
592.774;31739.383;  -10.823;40724.277
593.356;30823.045;  -11.052;39874.789
593.937;31551.248;  -11.664;39980.648
594.519;35147.805;  -10.454;42069.633
595.101;37997.887;  -10.322;42976.031
595.683;35913.148;  -10.042;44084.441
596.264;32171.961;  -14.334;43478.797
596.846;33293.074;  -10.863;43803.672
597.427;32452.893;   -9.901;42986.934
598.009;31062.520;  -10.911;42832.219
598.591;32076.602;  -10.483;42580.086
599.172;33578.574;   -9.663;43061.805
599.753;34499.344;  -10.631;41691.469
600.335;34641.379;   -9.371;40692.520
600.916;32455.244;  -13.992;39982.422
601.498;32016.008;   -8.352;40318.617
602.079;32352.313;   -8.411;40670.609
602.660;31784.387;  -10.841;41450.898
603.241;31839.773;  -12.963;41137.738
603.823;32422.783;  -11.523;38868.797
604.404;32569.623;  -11.881;38182.785
604.985;33137.430;  -11.721;38078.047
605.566;31692.293;   -9.293;38056.633
606.147;30378.258;  -10.940;37020.418
606.728;32286.229;  -11.840;37883.359
607.309;33483.012;  -11.781;38748.273
607.890;33805.336;  -11.262;38850.230
608.471;32516.256;  -10.111;37457.918
609.051;32250.514;   -7.709;36066.457
609.632;29373.783;  -12.409;35991.074
610.213;29714.645;  -10.811;37402.641
610.794;31535.316;  -11.630;38383.363
611.374;35014.691;   -8.030;40562.387
611.955;33932.406;  -10.809;38533.727
612.536;32751.756;  -10.531;36951.789
613.116;32139.107;  -12.820;37197.891
613.697;33059.266;  -11.419;38411.125
614.277;33305.844;   -9.768;38673.938
614.858;30554.193;  -10.251;37075.863
615.438;27609.232;  -11.981;35092.906
616.019;25962.029;   -8.978;33666.301
616.599;27835.805;  -12.219;34189.023
617.179;30029.561;  -14.170;36952.047
617.760;30832.939;   -9.211;39582.574
618.340;31022.955;   -9.018;38943.977
618.920;31017.020;   -9.249;37594.156
619.500;30974.156;  -12.728;37866.938
620.080;32100.732;  -12.939;37869.043
620.660;33429.289;  -11.586;36868.617
621.241;32704.648;  -11.538;36352.309
621.821;31118.629;  -11.398;35459.520
622.401;29616.650;  -10.179;35207.414
622.980;30233.031;  -11.587;35980.422
623.560;31369.807;  -12.888;37351.328
624.140;29137.250;  -13.149;34388.582
624.720;24928.227;   -9.928;32368.764
625.300;25020.650;  -10.869;32638.629
625.880;27527.787;   -8.617;34599.035
626.459;29026.572;  -12.138;36831.738
627.039;31846.367;  -12.267;38299.098
627.619;34334.891;   -7.476;38289.574
628.198;35308.953;  -11.347;37220.695
628.778;32783.934;  -11.678;37632.563
629.357;30532.973;  -12.438;38003.012
629.937;30253.883;   -9.576;38402.039
630.516;30321.572;  -11.096;37868.801
631.096;31149.980;  -11.828;35760.410
631.675;32210.771;  -11.565;35225.219
632.254;33336.004;  -11.845;35130.289
632.834;34798.559;  -11.545;35794.570
633.413;33990.629;  -10.887;35788.922
633.992;34323.383;  -10.175;34532.863
634.571;34553.836;   -9.704;33590.113
635.151;32762.355;  -10.815;34943.863
635.730;31553.854;  -11.617;35352.523
636.309;31911.736;  -10.836;35366.605
636.888;32530.760;   -9.755;36165.637
637.467;33217.586;  -11.684;37515.902
638.046;33382.461;  -11.987;39288.695
638.625;32602.824;  -10.455;38279.699
639.204;32336.256;  -11.234;37741.598
639.782;33168.844;  -12.023;38364.551
640.361;31447.291;  -11.506;36740.621
640.940;28210.488;  -12.316;34950.082
641.519;26068.342;  -11.616;34137.398
642.097;29272.070;   -9.266;35654.258
642.676;32824.223;  -12.936;35637.957
643.255;33113.785;   -9.966;36567.074
643.833;32773.762;   -8.916;37809.434
644.412;30177.912;  -10.936;37337.293
644.990;29828.434;  -12.176;37018.531
645.569;31268.576;  -12.246;36518.469
646.147;34840.141;  -12.107;36186.430
646.726;37240.008;  -12.937;36267.688
647.304;34269.055;  -12.547;36647.625
647.882;33782.641;  -12.597;39286.742
648.461;32941.816;   -9.427;39157.703
649.039;32967.445;   -8.937;35412.883
649.617;33157.156;  -11.067;34744.918
650.195;31335.643;  -10.657;35403.098
650.773;29007.617;  -10.097;35053.797
651.352;29302.791;  -11.887;33756.816
651.930;29120.967;  -13.557;31868.773
652.508;28765.602;  -11.767;33121.551
653.086;30401.463;  -10.777;33564.793
653.663;33122.824;  -12.067;34054.668
654.241;36394.465;  -14.918;35693.309
654.819;36013.109;  -11.788;36422.906
655.397;34319.543;  -11.268;38213.484
655.975;32670.207;  -11.738;39507.625
656.553;30838.906;  -11.018;39498.223
657.130;29578.146;  -12.848;40395.480
657.708;28688.873;  -10.098;39242.020
658.286;29412.152;  -11.678;38920.020
658.863;30702.303;  -11.498;40202.898
659.441;32776.695;  -11.008;39677.938
660.018;34353.684;  -11.048;40413.355
660.596;35518.375;  -12.058;39931.414
661.173;36357.641;  -14.158;39604.531
661.750;36073.785;  -12.298;39700.070
662.328;35909.000;  -10.699;39292.809
662.905;35497.465;  -12.119;38235.648
663.482;31566.773;  -11.829;36212.305
664.060;28284.805;  -11.009;35944.945
664.637;31640.703;  -10.369;35170.785
665.214;33612.473;  -10.459;34197.523
665.791;32045.535;  -12.599;34549.520
666.368;29131.561;  -12.919;35118.578
666.945;27930.486;  -10.699;36019.418
667.522;29652.047;  -11.359;36048.438
668.099;30363.127;  -13.529;36243.914
668.676;29477.463;  -10.229;35958.875
669.253;29162.867;   -9.279;37384.730
669.830;28875.719;  -11.370;36779.629
670.407;29075.178;  -10.950;35231.289
670.984;30023.287;  -12.850;35544.270
671.560;29339.133;   -8.440;35466.867
672.137;30396.459;  -13.520;34280.863
672.714;30857.869;  -13.620;34632.863
673.290;30340.664;  -10.450;35135.422
673.867;29792.781;  -10.960;36114.480
674.443;30620.514;  -13.300;36152.859
675.020;28476.174;  -12.370;35327.238
675.596;27708.758;  -11.250;35795.176
676.173;28097.594;  -11.080;35430.355
676.749;28109.920;  -13.220;33549.516
677.326;29491.434;  -13.000;32210.012
677.902;29253.998;  -12.701;32068.871
678.478;27606.328;  -12.801;32583.891
679.054;28450.590;   -8.601;32088.928
679.631;29671.113;  -12.631;30978.848
680.207;30485.770;   -9.451;33160.887
680.783;30073.465;  -11.701;35570.363
681.359;30568.055;  -12.701;36125.184
681.935;32158.031;  -13.271;35240.922
682.511;33203.879;  -10.791;34429.961
683.087;31206.645;  -10.791;34463.680
683.663;28269.721;   -8.121;34648.898
684.239;26782.545;  -13.261;34546.457
684.815;28049.744;  -10.581;35586.375
685.390;29520.244;   -9.961;35821.895
685.966;28931.426;  -11.182;35085.871
686.542;28465.758;  -13.512;34198.230
687.118;26688.000;  -11.472;32847.707
687.693;25883.174;  -10.152;32794.027
688.269;25904.932;  -14.442;33072.367
688.844;24612.568;  -11.852;33141.664
689.420;23574.307;  -13.942;33965.742
689.995;25217.303;   -9.702;34655.523
690.571;27080.928;  -11.312;33576.742
691.146;27068.064;  -14.332;32657.219
691.722;27034.156;  -11.192;32526.979
692.297;27658.160;  -10.962;33014.617
692.872;29069.258;  -11.082;34012.254
693.448;30236.129;  -14.732;34237.434
694.023;29591.039;  -12.363;34142.672
694.598;27560.039;  -12.393;34132.031
695.173;28544.881;  -11.023;34205.250
695.748;29778.469;  -12.743;32882.488
696.323;28714.400;  -11.103;32864.906
696.898;27877.650;   -8.123;33170.004
697.473;27639.057;  -12.603;32432.984
698.048;28033.479;  -12.553;31649.303
698.623;28880.867;  -12.573;30778.141
699.198;28546.887;  -12.743;31140.119
699.773;28312.635;  -12.843;31764.299
700.348;28558.053;  -16.683;31780.816
700.922;29523.832;  -11.403;32046.375
701.497;30644.186;  -11.253;32603.574
702.072;29737.789;  -10.044;34799.871
702.646;28952.889;  -13.054;35793.172
703.221;29542.688;  -11.414;35201.590
703.795;28766.875;  -10.644;34764.527
704.370;27147.408;  -13.484;34307.367
704.944;26090.764;  -12.144;33509.887
705.519;25698.271;  -12.024;31388.584
706.093;27796.639;  -11.234;31340.104
706.668;28338.066;   -9.874;32630.281
707.242;27095.896;  -12.404;32728.779
707.816;25799.518;  -10.644;32947.238
708.390;25495.266;  -11.174;33277.855
708.965;25371.693;  -10.324;33834.336
709.539;26081.490;  -12.014;33709.273
710.113;26121.713;  -12.295;33044.313
710.687;27854.893;  -10.965;31953.992
711.261;29441.082;  -13.685;30505.949
711.835;27633.242;  -15.335;30262.369
712.409;26610.406;  -13.785;31254.447
712.983;26800.033;  -10.525;32754.986
713.557;25076.334;  -13.175;34018.824
714.131;25082.131;  -13.245;34579.625
714.704;27745.727;  -13.175;33890.262
715.278;29210.740;  -11.545;33531.102
715.852;27656.771;  -10.975;33601.660
716.425;26710.779;  -10.075;33515.117
716.999;27894.924;  -12.185;33185.555
717.573;30324.965;   -9.685;33905.996
718.146;30514.898;  -10.516;35199.293
718.720;29158.941;  -12.106;35060.551
719.293;27848.113;  -12.386;34973.230
719.867;28138.156;  -12.456;36394.449
720.440;27774.273;  -10.686;36663.008
721.013;27748.365;  -12.596;35102.426
721.587;29653.361;  -13.956;33985.266
722.160;31913.109;   -9.806;33524.965
722.733;32499.543;  -11.676;32987.043
723.306;31651.160;  -14.276;33066.301
723.880;29556.334;  -12.126;33399.500
724.453;27150.109;  -10.156;33468.297
725.026;26823.484;  -12.956;33816.637
725.599;26927.395;  -11.676;32797.996
726.172;27594.592;  -12.337;33187.434
726.745;28028.018;  -11.277;35136.613
727.318;28423.365;  -11.927;35751.730
727.891;27596.068;  -13.607;35890.430
728.463;25293.955;  -11.327;34822.090
729.036;25229.029;  -11.917;32895.086
729.609;26256.959;  -12.697;31823.225
730.182;26383.635;  -11.787;31445.283
730.754;26230.777;  -12.957;32373.223
731.327;26771.906;  -11.017;33676.820
731.900;26772.121;  -12.797;33417.000
732.472;25826.986;  -10.677;31978.498
733.045;25460.281;  -12.797;30368.777
733.617;25647.568;  -13.908;30574.215
734.190;24650.883;  -12.258;31280.975
734.762;24900.512;  -13.438;31674.412
735.334;26197.318;  -11.758;31247.291
735.907;28850.174;  -11.158;29876.211
736.479;31310.246;  -11.258;29808.488
737.051;31005.734;  -10.918;30233.547
737.623;29469.824;  -11.038;31469.086
738.195;30823.205;  -12.188;31784.225
738.768;28786.674;  -11.378;32120.523
739.340;23793.430;  -12.598;32094.342
739.912;22561.545;  -11.568;31312.680
740.484;23985.205;   -9.348;31946.238
741.056;26121.115;  -12.628;32984.059
741.628;27445.178;  -13.349;33897.715
742.199;26451.834;  -11.309;33213.016
742.771;26859.006;  -12.699;31369.113
743.343;27835.916;  -11.919;31865.473
743.915;28341.445;  -11.679;32388.631
744.487;27220.070;  -12.249;31079.568
745.058;24609.486;  -11.119;30570.107
745.630;23024.854;   -9.439;29970.127
746.201;22429.025;  -11.949;29186.766
746.773;22387.574;  -12.639;28805.723
747.344;23498.252;  -11.039;29591.223
747.916;25225.162;  -12.549;31412.201
748.487;24009.648;  -12.659;32194.898
749.059;22749.434;  -13.059;32533.719
749.630;22019.846;  -12.080;32158.518
750.201;20951.721;  -13.100;30855.395
750.773;20314.082;  -15.310;28622.555
751.344;19689.570;  -12.240;28405.732
751.915;19754.998;  -11.960;28461.551
752.486;19139.020;  -13.200;27842.850
753.057;18344.840;  -15.230;27845.008
753.628;19874.922;  -13.130;27728.107
754.199;22134.539;  -12.720;27381.086
754.770;21978.057;  -10.680;25882.203
755.341;20792.346;  -11.010;25886.184
755.912;20654.070;  -12.990;26050.861
756.483;19858.893;  -11.110;26798.779
757.054;19516.299;  -12.190;27048.238
757.625;19455.689;  -13.981;26294.838
758.195;19660.773;  -11.041;26142.076
758.766;20397.775;  -11.861;26392.234
759.337;20517.088;  -11.461;26334.594
759.907;19922.139;  -15.001;27579.652
760.478;18710.582;   -9.681;28352.770
761.048;18025.330;  -12.421;27325.088
761.619;18885.609;  -11.761;26460.428
762.189;19153.203;  -12.391;26029.826
762.760;18741.869;  -10.201;26430.145
763.330;19588.406;  -10.811;26670.902
763.900;20143.244;  -10.261;26603.021
764.471;19040.445;  -13.061;25542.740
765.041;17737.258;  -11.051;24358.459
765.611;17668.326;  -11.032;23991.297
766.181;17700.955;  -10.532;24470.236
766.751;18213.275;  -13.502;24845.975
767.321;19548.838;  -11.392;24533.633
767.891;21583.650;  -11.522;24916.492
768.461;22631.004;  -13.672;24776.771
769.031;19833.770;  -14.652;24757.988
769.601;17223.660;  -10.182;24181.088
770.171;16140.822;  -11.752;23670.387
770.741;15279.522;  -12.272;22960.045
771.311;15350.852;  -13.112;22917.523
771.880;16479.295;  -14.122;23562.941
772.450;16987.855;  -11.782;24216.500
773.020;16656.537;  -12.642;24140.398
773.589;15413.551;  -13.043;24414.857
774.159;14903.097;  -11.783;23858.717
774.729;16029.806;  -13.473;22942.135
775.298;16860.537;  -14.523;22324.033
775.867;16513.002;  -12.013;21140.313
776.437;15792.620;  -12.113;20838.092
777.006;15398.570;  -13.543;20599.510
777.576;15996.963;  -12.523;20508.809
778.145;16156.293;  -12.173;20732.947
778.714;15437.559;  -12.153;21062.465
779.283;14771.973;  -11.833;20949.664
779.853;14987.338;  -13.483;20508.623
780.422;15042.988;  -12.933;20649.082
780.991;14627.669;  -13.173;21527.520
781.560;14498.877;  -10.224;22632.658
782.129;14917.648;  -12.684;23048.277
782.698;14914.197;  -11.284;23438.555
783.267;14903.033;  -11.684;23267.734
783.836;14608.072;  -10.974;22415.133
784.404;14014.606;  -13.534;20443.152
784.973;13292.311;  -16.734;19699.150
785.542;12284.938;  -12.594;19763.828
786.111;12274.414;  -11.644;20341.408
786.679;13389.090;  -11.384;20207.967
787.248;13674.354;  -12.014;19516.465
787.817;12663.236;  -12.804;18900.363
788.385;11478.372;  -11.994;17879.121
788.954;11489.188;  -12.564;17658.301
789.522;12167.492;  -12.225;17788.879
790.090;12218.052;  -13.775;18118.277
790.659;12255.234;  -12.485;18338.736
791.227;12832.963;  -12.295;18508.615
791.795;13350.947;  -13.415;17898.254
792.364;13709.874;  -12.995;17295.133
792.932;13305.280;   -8.365;16822.051
793.500;12418.868;  -11.925;17040.148
794.068;12772.996;  -13.245;17179.787
794.636;13265.823;  -13.815;16664.246
795.204;13174.690;  -13.375;16524.545
795.772;12964.804;  -12.125;17274.564
796.340;12116.892;  -13.855;17891.002
796.908;10584.595;  -13.456;17648.561
797.476;10091.528;  -13.116;17064.080
798.044;10446.793;  -13.226;16672.777
798.612;10600.147;  -11.236;17023.996
799.180;10380.165;  -10.476;16561.615
799.747;10186.622;  -11.746;15962.773
800.315;10009.456;  -12.366;15296.992
800.883; 9431.684;  -14.616;14801.771
801.450; 9585.296;  -11.996;14534.430
802.018;10497.791;  -11.206;14173.248
802.585;10847.720;  -12.466;14029.547
803.153;10116.377;  -12.846;13836.846
803.720; 9575.923;  -12.136;13567.324
804.287; 9842.301;  -10.966;13360.622
804.855; 9806.609;   -9.797;13681.981
805.422; 8936.661;  -13.037;13536.560
805.989; 8413.624;  -12.697;13355.958
806.556; 8881.464;  -11.737;13747.896
807.124; 9550.710;  -11.997;13987.376
807.691; 9137.384;  -13.997;14038.674
808.258; 8678.106;  -10.927;14120.152
808.825; 8980.435;  -13.727;13860.111
809.392; 8913.009;  -11.847;13268.790
809.959; 8888.342;  -14.217;12680.389
810.526; 8893.114;   -8.277;12427.308
811.093; 9204.863;   -9.647;12030.105
811.659; 9173.092;  -10.987;11653.664
812.226; 8342.624;  -13.447;11637.183
812.793; 7739.742;  -14.418;11611.521
813.360; 7897.167;  -13.908;11885.181
813.926; 8468.605;  -12.918;12770.539
814.493; 8539.572;  -14.888;12677.638
815.060; 8022.610;  -12.758;11974.336
815.626; 7786.592;  -13.478;11594.715
816.193; 7755.117;  -13.898;11579.474
816.759; 7906.054;  -13.588;11666.972
817.325; 7902.638;  -12.018;11325.530
817.892; 7592.943;  -14.068;11105.369
818.458; 7698.253;  -13.458;10843.928
819.024; 7459.377;  -11.968;10714.406
819.591; 7153.426;  -11.028;10469.165
820.157; 7200.958;  -12.088;10235.523
820.723; 7196.525;  -12.599;10847.563
821.289; 6911.768;  -10.419;11040.980
821.855; 6786.992;  -10.939;10357.100
822.421; 6782.757;  -12.539; 9978.918
822.987; 6695.223;  -13.259; 9754.177
823.553; 6489.728;  -15.369;10065.755
824.119; 6464.227;  -10.779;10036.294
824.685; 6442.899;   -9.999;10029.192
825.251; 6181.855;  -11.819;10199.230
825.816; 6111.917;  -13.369; 9820.189
826.382; 5909.968;  -12.679; 9297.248
826.948; 5503.435;  -11.199; 9381.347
827.513; 5391.509;  -11.179; 9450.726
828.079; 5453.033;  -13.489; 9472.444
828.645; 5562.227;  -12.500; 9292.643
829.210; 5604.025;  -15.120; 9065.341
829.776; 5568.578;  -12.590; 9132.620
830.341; 5714.481;  -11.540; 9092.878
830.906; 6125.591;  -12.400; 9078.557
831.472; 6001.448;  -12.720; 8534.535
832.037; 5161.311;  -11.490; 8677.874
832.602; 4561.538;  -14.380; 8628.692
833.167; 4475.919;  -12.780; 8879.031
833.733; 4845.470;  -11.100; 9189.790
834.298; 5129.861;  -12.080; 9052.608
834.863; 4882.308;  -13.910; 8895.087
835.428; 4502.342;  -13.470; 8824.266
835.993; 4348.812;  -11.760; 8845.385
836.558; 4546.735;  -12.731; 8888.563
837.123; 4600.884;  -12.431; 8966.582
837.688; 4375.880;  -11.241; 8617.860
838.253; 4263.458;  -13.681; 8590.699
838.817; 4436.721;  -12.531; 8443.797
839.382; 4572.659;  -12.671; 8799.356
839.947; 4664.141;  -11.541; 8810.595
840.511; 4808.040;  -12.021; 8796.394
841.076; 4908.861;  -13.071; 8347.231
841.641; 5136.091;  -11.411; 8224.330
842.205; 5306.369;  -13.671; 8223.349
842.770; 5098.647;  -11.291; 8622.107
843.334; 4803.714;  -12.951; 8410.386
843.898; 4590.267;  -11.221; 8337.465
844.463; 4622.071;  -11.322; 8506.283
845.027; 4537.355;  -11.412; 8280.962
845.591; 4295.453;  -11.512; 8231.141
846.156; 4188.046;  -14.042; 7969.179
846.720; 4214.315;  -12.152; 7768.278
847.284; 4090.073;  -10.922; 7630.957
847.848; 3962.573;  -10.962; 7472.395
848.412; 3769.483;  -14.612; 7437.394
848.976; 3847.378;  -11.492; 7674.592
849.540; 4200.686;   -9.172; 7836.011
850.104; 4387.025;  -11.232; 7913.669
850.668; 4262.379;  -15.182; 7694.508
851.232; 4100.272;  -15.332; 7756.887
851.796; 4005.059;  -13.703; 7926.545
852.359; 3998.451;  -11.113; 7827.844
852.923; 4038.822;  -11.843; 7641.163
853.487; 4019.305;  -11.173; 7342.501
854.050; 3937.138;  -13.443; 7042.820
854.614; 3920.532;  -13.823; 7151.338
855.177; 3856.555;  -16.393; 7105.077
855.741; 3803.621;  -11.693; 6989.675
856.304; 3766.063;  -10.843; 6596.634
856.868; 3621.720;  -13.783; 6356.272
857.431; 3351.342;  -11.953; 6468.571
857.995; 3103.396;  -13.683; 6373.210
858.558; 3095.298;  -11.433; 6324.448
859.121; 3137.162;  -12.493; 6408.327
859.684; 2967.353;  -12.384; 6347.886
860.247; 2635.400;  -14.774; 6321.264
860.810; 2443.520;  -13.154; 6301.903
861.374; 2486.040;  -11.264; 6607.881
861.937; 2570.650;  -15.424; 6408.200
862.500; 2562.061;  -12.854; 6572.639
863.062; 2556.116;  -12.344; 6387.297
863.625; 2601.717;  -13.314; 6190.836
864.188; 2708.200;  -14.724; 5807.254
864.751; 2930.765;  -13.464; 5682.413
865.314; 3279.224;  -11.684; 5547.492
865.876; 3451.383;  -11.104; 5500.150
866.439; 3389.231;  -12.344; 5415.909
867.002; 3178.103;  -13.494; 5501.567
867.564; 2933.100;  -10.935; 5413.946
868.127; 2828.049;  -12.665; 5160.325
868.689; 2812.182;  -14.515; 5133.183
869.252; 2878.699;  -13.425; 5252.382
869.814; 3076.174;  -11.595; 5297.141
870.377; 3115.911;  -12.175; 5390.919
870.939; 2971.949;  -10.265; 5599.898
871.501; 2837.026;  -12.375; 5248.336
872.063; 2741.764;  -14.355; 4854.235
872.626; 2654.628;  -14.435; 4817.074
873.188; 2572.059;  -12.415; 4987.732
873.750; 2573.061;  -14.555; 4868.651
874.312; 2477.021;  -11.185; 4779.330
874.874; 2312.724;  -12.715; 4866.348
875.436; 2259.013;  -13.196; 4718.887
875.998; 2222.914;  -11.426; 4660.005
876.560; 2146.160;   -9.786; 4462.964
877.122; 2112.385;  -12.796; 4145.042
877.683; 2107.188;  -13.226; 4056.481
878.245; 2060.278;  -12.036; 3950.740
878.807; 2036.114;  -11.536; 4058.958
879.369; 2037.948;  -10.806; 3954.677
879.930; 1944.159;  -13.946; 3941.495
880.492; 1793.889;  -11.876; 4067.014
881.053; 1772.455;  -13.216; 3859.633
881.615; 1840.748;  -12.226; 3776.071
882.176; 1852.572;  -12.946; 3734.750
882.738; 1778.607;  -10.736; 3678.489
883.299; 1713.955;  -12.057; 3405.407
883.860; 1677.439;  -12.677; 3351.106
884.422; 1618.309;  -14.097; 3394.044
884.983; 1472.151;  -13.667; 3166.443
885.544; 1263.072;  -10.717; 3189.802
886.105; 1094.711;  -14.357; 3160.360
886.666; 1001.330;  -14.287; 3093.059
887.227;  929.921;  -14.297; 2941.957
887.788;  857.561;  -13.137; 2974.836
888.349;  760.233;  -14.637; 2721.214
888.910;  688.707;  -12.247; 2696.493
889.471;  662.275;  -10.577; 2560.172
890.032;  649.667;  -12.937; 2558.190
890.593;  631.233;  -12.487; 2567.669
891.153;  623.756;  -11.898; 2460.307
891.714;  655.103;  -14.278; 2372.046
892.275;  674.397;  -13.308; 2309.505
892.835;  638.380;  -12.058; 2382.543
893.396;  592.499;  -15.268; 2295.502
893.956;  561.222;  -13.278; 2162.420
894.517;  543.973;  -11.968; 2125.439
895.077;  542.253;  -12.798; 2086.978
895.638;  520.687;  -11.908; 2126.316
896.198;  491.064;  -13.288; 1838.275
896.758;  470.760;  -12.198; 1892.813
897.319;  448.882;  -13.048; 1792.232
897.879;  409.186;  -13.718; 1762.751
898.439;  374.330;  -14.138; 1661.149
898.999;  366.085;  -13.659; 1781.468
899.559;  355.921;  -14.699; 1703.347
900.119;  338.523;  -14.339; 1537.525
900.679;  319.481;  -11.789; 1638.384
901.239;  298.911;  -13.629; 1527.902
901.799;  281.076;  -13.679; 1456.441
902.359;  271.297;  -13.679; 1357.140
902.919;  258.720;  -14.159; 1331.118
903.479;  249.912;  -13.419; 1317.257
904.038;  237.324;  -14.899; 1262.595
904.598;  225.212;  -14.339; 1152.034
905.158;  219.077;  -13.959; 1240.893
905.717;  215.950;  -12.749; 1233.691
906.277;  206.889;  -11.889; 1217.330
906.836;  198.269;  -12.870; 1222.408
907.396;  194.795;  -11.790; 1193.047
907.955;  191.723;  -13.750; 1182.526
908.515;  186.618;  -14.760; 1099.364
909.074;  181.403;  -12.540; 1092.863
909.633;  176.176;  -12.120; 1069.121
910.192;  174.396;  -12.550; 1196.460
910.752;  172.968;  -12.760; 1029.960
911.311;  170.551;  -14.750; 1009.780
911.870;  166.212;  -13.860;  971.460
912.429;  164.774;  -13.480; 1094.080
912.988;  160.339;  -12.370; 1081.060
913.547;  155.804;  -14.670;  940.380
914.106;  152.575;  -12.800;  999.420
914.665;  151.020;  -11.370;  984.020
915.224;  150.009;  -11.430; 1035.760
915.782;  149.144;  -12.260;  922.560
916.341;  149.455;  -12.540; 1049.840
916.900;  146.016;  -12.540;  925.260
917.458;  145.125;  -13.480;  884.220
918.017;  145.552;  -12.470;  942.600
918.576;  143.495;  -13.450;  904.440
919.134;  142.653;  -12.890;  837.980
919.693;  140.422;  -15.480;  893.060
920.251;  139.339;  -14.420;  876.500
920.809;  137.915;  -12.170;  839.580
921.368;  137.228;  -13.650;  885.360
921.926;  137.211;  -12.750;  842.940
922.484;  137.326;  -14.150;  903.360
923.042;  138.068;  -15.100;  880.340
923.601;  140.513;  -10.990;  998.680
924.159;  141.851;  -12.470;  935.560
924.717;  141.147;  -15.640;  841.080
925.275;  141.649;  -12.380;  903.240
925.833;  141.737;  -12.710;  779.320
926.391;  143.264;  -11.200;  938.380
926.949;  144.396;  -16.000;  857.680
927.506;  146.056;  -12.260;  903.500
928.064;  146.786;  -11.300;  877.580
928.622;  147.198;  -13.750;  880.100
929.180;  146.348;  -15.290;  814.180
929.737;  145.678;  -14.500;  808.540
930.295;  147.934;  -10.630;  928.480
930.853;  150.646;  -14.590;  849.100
931.410;  153.635;  -14.450;  821.120
931.968;  155.171;  -14.390;  940.660
932.525;  153.299;  -13.050;  909.380
933.082;  151.745;  -15.620;  811.440
933.640;  156.219;  -15.650;  925.900
934.197;  158.393;  -13.610;  886.360
934.754;  162.864;  -13.320;  897.780
935.312;  167.251;  -13.370;  863.340
935.869;  170.467;  -12.780; 1012.980
936.426;  169.056;  -14.480;  872.800
936.983;  170.362;  -13.180;  889.020
937.540;  171.343;  -15.710;  838.280
938.097;  172.499;  -14.980;  940.120
938.654;  175.138;  -13.060;  898.860
939.211;  175.388;  -12.760;  952.480
939.768;  173.570;  -16.230;  915.420
940.324;  172.847;  -10.940;  904.200
940.881;  170.617;  -12.570;  878.500
941.438;  171.063;  -13.650; 1021.200
941.995;  171.027;  -13.300;  992.560
942.551;  172.183;  -15.800;  875.620
943.108;  172.375;  -14.180;  937.920
943.664;  171.562;  -13.890;  869.340
944.221;  176.670;  -12.640; 1088.140
944.777;  174.920;  -14.700;  869.680
945.334;  174.511;  -13.010;  884.840
945.890;  176.333;  -13.480;  946.480
946.446;  175.539;  -14.920;  947.020
947.003;  173.426;  -13.860;  964.940
947.559;  172.319;  -12.000; 1063.040
948.115;  172.577;  -10.510; 1026.540
948.671;  172.197;  -12.760;  967.300
949.227;  168.542;  -15.390;  859.560
949.783;  163.449;  -15.570;  858.900
950.339;  162.506;  -12.800;  991.000
950.895;  162.225;  -13.780; 1023.840
951.451;  161.044;  -13.810;  925.280
952.007;  161.378;  -12.390;  998.540
952.563;  160.716;  -11.980;  937.780
953.118;  159.242;  -14.070;  904.940
953.674;  161.788;  -14.140;  935.780
954.230;  165.047;  -12.680;  949.640
954.785;  168.181;  -12.770;  936.640
955.341;  164.505;  -11.450;  998.160
955.897;  156.216;  -15.350;  834.660
956.452;  152.260;  -14.200;  953.840
957.008;  148.238;  -10.820; 1083.640
957.563;  147.336;  -13.200; 1009.540
958.118;  146.824;  -14.460;  877.700
958.674;  147.670;  -13.840;  946.780
959.229;  147.704;  -10.670; 1013.980
959.784;  145.361;  -17.040;  832.400
960.339;  148.675;  -12.970; 1001.280
960.894;  152.708;  -12.700;  963.760
961.449;  155.272;  -13.790;  859.960
962.004;  160.911;  -11.760; 1212.840
962.559;  156.440;  -14.840;  860.140
963.114;  151.798;  -14.530;  742.480
963.669;  148.920;  -12.780;  915.500
964.224;  144.359;  -14.330;  874.340
964.779;  141.160;  -14.380;  828.420
965.334;  138.363;  -12.460; 1017.860
965.888;  134.637;  -13.490;  875.360
966.443;  134.520;  -14.140;  972.380
966.998;  131.488;  -16.240;  819.460
967.552;  130.536;  -12.730;  908.380
968.107;  127.490;  -14.510;  868.300
968.661;  128.750;  -11.850;  922.440
969.216;  127.294;  -14.370;  856.280
969.770;  122.577;  -13.010;  917.200
970.324;  121.165;  -12.460;  923.140
970.879;  122.717;  -11.580;  947.180
971.433;  124.567;  -13.130;  952.720
971.987;  120.956;  -12.360;  895.340
972.541;  118.144;  -14.330;  917.100
973.095;  116.031;  -13.310; 1009.460
973.649;  112.714;  -15.830;  809.480
974.203;  112.589;  -15.830;  829.040
974.757;  115.299;  -13.480;  855.220
975.311;  118.339;  -13.720;  872.600
975.865;  120.082;  -15.780;  881.820
976.419;  116.838;  -14.290;  857.400
976.973;  113.267;  -13.210;  849.620
977.526;  112.028;  -12.300;  949.920
978.080;  106.621;  -14.840;  796.780
978.634;  105.313;  -13.100;  921.320
979.187;  101.062;  -12.300;  905.400
979.741;  101.424;  -12.020; 1018.380
980.294;   98.467;  -14.590;  789.160
980.848;   95.867;  -14.390;  717.220
981.401;   96.723;  -14.280;  816.540
981.955;   97.182;  -11.920;  844.300
982.508;   93.908;  -15.790;  746.340
983.061;   93.052;  -12.070;  915.260
983.615;   90.141;  -13.260;  798.800
984.168;   88.362;  -15.540;  770.080
984.721;   87.782;  -13.230;  880.760
985.274;   84.415;  -11.820;  867.500
985.827;   82.899;  -13.510;  834.220
986.380;   81.640;  -14.840;  721.340
986.933;   82.999;  -13.970;  864.800
987.486;   80.352;  -12.450;  861.920
988.039;   78.570;  -11.170;  863.100
988.591;   76.532;  -13.070;  893.260
989.144;   73.315;  -15.530;  737.260
989.697;   72.239;  -14.300;  758.740
990.250;   70.602;  -13.310;  858.100
990.802;   69.327;  -14.490;  755.860
991.355;   70.993;  -12.980;  974.880
991.907;   68.329;  -13.715;  864.320
992.460;   65.665;  -14.450;  753.760
993.012;   64.582;  -12.590;  749.540
993.565;   63.420;  -15.180;  711.360
994.117;   64.456;  -11.630;  950.780
994.669;   60.584;  -13.760;  701.320
995.221;   60.202;  -12.710;  791.920
995.774;   60.310;  -14.620;  787.580
996.326;   58.791;  -13.150;  740.220
996.878;   59.175;  -12.880;  838.420
997.430;   57.449;  -14.580;  699.860
997.982;   56.450;  -14.030;  750.140
998.534;   56.141;  -12.190;  739.060
999.086;   54.159;  -12.990;  738.220
999.638;   53.042;  -13.180;  661.380
1000.190;   52.809;  -14.970;  699.320
1000.741;   52.322;  -12.200;  742.700
1001.293;   51.458;  -13.400;  686.020
1001.845;   50.758;  -14.490;  676.640
1002.396;   51.769;  -15.280;  743.400
1002.948;   50.897;  -12.380;  737.400
1003.500;   49.227;  -13.260;  723.780
1004.051;   50.997;  -13.730;  907.580
1004.603;   50.433;  -12.300;  791.820
1005.154;   46.316;  -15.330;  608.980
1005.705;   45.151;  -12.800;  723.960
1006.257;   44.154;  -13.900;  707.220
1006.808;   43.871;  -14.430;  685.460
1007.359;   43.047;  -12.010;  763.240
1007.910;   41.137;  -12.690;  646.640
1008.461;   41.522;  -13.610;  732.940
1009.013;   40.506;  -14.990;  588.340
1009.564;   40.962;  -11.860;  793.520
1010.115;   38.756;  -12.640;  597.040
1010.665;   39.159;  -14.570;  602.160
1011.216;   39.285;  -15.190;  667.920
1011.767;   38.913;  -13.470;  697.920
1012.318;   38.963;  -13.760;  736.980
1012.869;   37.816;  -15.950;  679.000
1013.419;   38.407;  -15.880;  603.120
1013.970;   37.624;  -14.540;  666.640
1014.521;   36.854;  -13.220;  620.620
1015.071;   37.468;  -15.020;  670.380
1015.622;   36.478;  -17.510;  635.460
1016.172;   35.753;  -14.130;  596.820
1016.723;   34.903;  -14.220;  614.380
1017.273;   35.156;  -15.370;  604.160
1017.823;   35.835;  -15.290;  650.340
1018.374;   35.158;  -13.420;  611.760
1018.924;   34.758;  -11.740;  716.880
1019.474;   35.273;  -12.250;  718.880
1020.024;   33.740;  -15.850;  657.580
1020.574;   34.860;  -13.280;  726.160
1021.124;   34.422;  -13.560;  673.580
1021.674;   33.006;  -13.790;  559.120
1022.224;   34.993;  -14.610;  708.940
1022.774;   33.432;  -13.100;  668.820
1023.324;   34.066;  -11.470;  753.520
1023.874;   35.694;  -11.990;  875.760
1024.423;   33.151;  -14.550;  613.700
1024.973;   31.866;  -14.440;  610.760
1025.523;   31.783;  -13.250;  620.960
1026.072;   30.998;  -15.200;  606.420
1026.622;   31.473;  -14.590;  675.740
1027.172;   32.634;  -11.080;  715.660
1027.721;   30.253;  -14.010;  601.220
1028.270;   31.464;  -13.690;  663.400
1028.820;   31.262;  -15.380;  638.080
1029.369;   30.615;  -14.980;  612.700
1029.918;   30.399;  -13.100;  649.840
1030.468;   29.398;  -13.680;  564.780
1031.017;   30.479;  -13.770;  634.800
1031.566;   29.461;  -14.100;  608.900
1032.115;   29.647;  -11.770;  694.500
1032.664;   28.819;  -14.940;  596.480
1033.213;   30.688;  -13.370;  735.420
1033.762;   29.285;  -13.660;  635.620
1034.311;   28.360;  -13.650;  677.220
1034.860;   28.885;  -13.820;  691.000
1035.408;   30.365;  -12.860;  722.720
1035.957;   29.556;  -13.060;  719.540
1036.506;   26.538;  -14.510;  530.800
1037.055;   30.005;  -13.470;  844.320
1037.603;   28.260;  -14.800;  664.000
1038.152;   26.194;  -14.190;  534.760
1038.700;   26.318;  -11.810;  585.740
1039.249;   26.820;  -12.850;  681.220
1039.797;   27.150;  -14.610;  633.360
1040.345;   26.886;  -15.220;  705.420
1040.894;   25.923;  -13.480;  625.300
1041.442;   25.857;  -13.310;  632.200
1041.990;   25.746;  -14.510;  559.160
1042.538;   24.933;  -15.700;  536.180
1043.087;   24.579;  -13.910;  570.860
1043.635;   26.339;  -13.620;  670.500
1044.183;   25.558;  -14.230;  586.400
1044.731;   25.785;  -13.730;  576.000
1045.279;   24.554;  -13.970;  674.920
1045.827;   27.287;  -10.750;  892.400
1046.374;   24.098;  -15.230;  515.420
1046.922;   23.220;  -15.390;  590.580
1047.470;   25.027;  -12.320;  691.300
1048.018;   23.921;  -13.230;  647.960
1048.565;   25.752;  -13.390;  708.600
1049.113;   23.273;  -15.030;  557.000
1049.660;   22.989;  -12.540;  629.660
1050.208;   23.765;  -15.040;  675.640
1050.755;   23.680;  -14.680;  606.580
1051.303;   23.753;  -13.610;  686.820
1051.850;   22.353;  -14.340;  635.120
1052.397;   21.039;  -16.330;  473.960
1052.945;   22.216;  -15.710;  617.760
1053.492;   23.456;  -12.320;  741.840
1054.039;   22.731;  -13.730;  720.180
1054.586;   21.281;  -16.140;  557.240
1055.133;   23.415;  -14.020;  693.140
1055.680;   22.808;  -13.430;  646.620
1056.227;   21.036;  -14.570;  542.780
1056.774;   23.441;  -14.400;  794.980
1057.321;   21.370;  -14.230;  523.260
1057.868;   21.308;  -14.220;  651.320
1058.415;   21.296;  -14.060;  651.980
1058.961;   21.551;  -14.640;  678.940
1059.508;   21.437;  -13.970;  643.820
1060.055;   20.216;  -15.100;  581.780
1060.601;   20.959;  -12.180;  624.300
1061.148;   20.437;  -15.010;  616.820
1061.694;   20.069;  -14.750;  592.580
1062.241;   20.036;  -14.130;  596.320
1062.787;   19.940;  -14.770;  663.140
1063.334;   22.075;  -13.130;  808.560
1063.880;   20.263;  -14.420;  668.360
1064.426;   20.214;  -13.130;  706.820
1064.972;   18.546;  -13.960;  601.340
1065.518;   17.900;  -13.680;  566.640
1066.065;   19.633;  -15.720;  624.460
1066.611;   18.464;  -13.970;  598.800
1067.157;   18.936;  -13.920;  641.860
1067.703;   18.778;  -14.760;  668.480
1068.249;   19.380;  -14.490;  605.220
1068.794;   18.707;  -14.740;  626.880
1069.340;   17.481;  -13.220;  578.960
1069.886;   17.941;  -14.930;  590.700
1070.432;   17.818;  -14.700;  541.720
1070.977;   17.466;  -14.470;  601.080
1071.523;   16.900;  -14.330;  573.060
1072.068;   17.615;  -14.960;  582.000
1072.614;   16.907;  -16.220;  527.760
1073.160;   18.169;  -11.280;  687.040
1073.705;   15.818;  -15.990;  572.520
1074.250;   16.434;  -16.550;  559.900
1074.796;   18.394;  -14.600;  655.160
1075.341;   18.641;  -13.440;  664.100
1075.886;   16.908;  -14.450;  594.240
1076.431;   16.793;  -13.160;  649.880
1076.976;   16.714;  -14.710;  639.220
1077.521;   16.136;  -14.000;  583.080
1078.067;   15.782;  -14.470;  579.400
1078.612;   15.549;  -14.530;  661.620
1079.156;   16.079;  -15.660;  601.540
1079.701;   15.846;  -16.120;  693.260
1080.246;   16.089;  -12.960;  696.300
1080.791;   15.528;  -13.700;  625.020
1081.336;   16.036;  -15.540;  659.320
1081.880;   15.198;  -14.640;  649.680
1082.425;   13.850;  -14.220;  573.480
1082.970;   16.704;  -11.890;  717.040
1083.514;   14.722;  -13.820;  597.000
1084.059;   14.272;  -14.280;  586.720
1084.603;   13.868;  -12.890;  565.840
1085.147;   14.600;  -13.590;  645.220
1085.692;   16.296;  -14.050;  716.800
1086.236;   13.466;  -14.990;  503.140
1086.780;   15.630;  -12.640;  751.440
1087.325;   14.250;  -15.550;  654.620
1087.869;   14.523;  -14.980;  610.700
1088.413;   14.838;  -13.440;  705.040
1088.957;   12.396;  -12.170;  543.400
1089.501;   15.201;  -12.730;  766.640
1090.045;   15.066;  -14.650;  726.480
1090.589;   12.486;  -14.500;  569.920
1091.133;   13.242;  -12.320;  673.340
1091.676;   13.185;  -16.130;  591.940
1092.220;   12.979;  -13.930;  600.920
1092.764;   14.446;  -12.820;  706.960
1093.307;   12.591;  -11.700;  673.780
1093.851;   12.130;  -15.600;  556.540
1094.395;   13.551;  -13.920;  683.140
1094.938;   12.793;  -16.090;  632.520
1095.482;   11.773;  -13.820;  559.800
1096.025;   13.309;  -12.720;  710.880
1096.568;   14.291;  -12.100;  779.280
1097.112;   10.209;  -15.450;  508.180
1097.655;   11.541;  -14.310;  603.000
1098.198;   10.593;  -14.740;  600.180
1098.741;   11.483;  -15.550;  612.860
1099.285;   12.383;  -12.600;  657.300
1099.828;    9.606;  -15.050;  439.400
1100.371;   11.371;  -14.800;  608.160
1100.914;   11.885;  -16.480;  682.660
1101.457;   12.001;  -12.990;  679.900
1101.999;    9.485;  -14.110;  584.680
1102.542;   11.123;  -11.450;  641.440
1103.085;   10.958;  -13.350;  658.500
1103.628;   11.902;  -13.200;  762.060
1104.170;   10.180;  -12.310;  588.280
1104.713;   10.257;  -14.320;  646.700
1105.256;    9.921;  -16.110;  557.440
1105.798;    8.556;  -15.910;  499.980
1106.341;   10.222;  -12.200;  728.900
1106.883;   10.171;  -14.910;  521.340
1107.425;   10.718;  -14.960;  668.180
1107.968;    9.487;  -13.440;  612.380
1108.510;   10.067;  -14.010;  684.960
1109.052;    8.841;  -15.430;  612.620
1109.594;    9.119;  -15.290;  554.440
1110.136;   10.019;  -13.360;  643.220
1110.679;    8.877;  -13.820;  633.080
1111.221;    9.295;  -13.690;  604.460
1111.763;    9.116;  -14.890;  559.220
1112.304;    8.293;  -14.550;  547.140
1112.846;    8.733;  -12.760;  666.240
1113.388;   12.138;  -10.780;  942.180
1113.930;    9.031;  -12.690;  694.200
1114.472;    8.851;  -15.730;  606.540
1115.013;    6.518;  -14.620;  551.280
1115.555;    6.998;  -14.950;  587.100
1116.097;    7.864;  -16.460;  579.480
1116.638;    8.040;  -13.730;  684.600
1117.180;    8.416;  -13.810;  667.740
1117.721;    7.829;  -13.280;  568.580
1118.262;    8.382;  -15.080;  677.960
1118.804;    8.979;  -14.040;  637.340
1119.345;    6.455;  -15.430;  578.400
1119.886;    8.226;  -15.240;  704.040
1120.427;    7.707;  -15.820;  589.020
1120.969;    6.446;  -14.550;  597.920
1121.510;    6.345;  -14.030;  563.060
1122.051;    7.511;  -11.990;  723.580
1122.592;    7.237;  -16.490;  655.420
1123.133;    4.979;  -15.580;  547.940
1123.673;    7.134;  -12.850;  706.480
1124.214;    6.205;  -13.630;  612.460
1124.755;    7.681;  -14.830;  639.460
1125.296;    6.737;  -13.110;  627.320
1125.836;    7.203;  -11.320;  691.500
1126.377;    5.849;  -14.330;  599.660
1126.918;    7.301;  -12.800;  614.980
1127.458;    5.450;  -13.580;  622.220
1127.999;    6.524;  -10.330;  656.980
1128.539;    6.669;  -13.390;  694.240
1129.079;    5.697;  -16.420;  632.720
1129.620;    4.682;  -15.700;  558.100
1130.160;    4.045;  -14.790;  539.480
1130.700;    5.978;  -12.910;  640.840
1131.240;    6.625;  -15.610;  643.700
1131.781;    5.071;  -12.920;  619.680
1132.321;    5.021;  -15.300;  599.120
1132.861;    5.140;  -14.760;  564.200
1133.401;    4.584;  -15.470;  593.940
1133.941;    5.299;  -13.710;  626.280
1134.481;    4.288;  -11.820;  597.580
1135.020;    3.611;  -14.810;  609.160
1135.560;    5.852;  -13.660;  674.940
1136.100;    3.483;  -13.940;  501.160
1136.640;    3.195;  -15.410;  510.480
1137.179;    3.426;  -16.920;  537.960
1137.719;    4.025;  -16.430;  605.400
1138.258;    4.277;  -16.300;  587.360
1138.798;    4.679;  -13.710;  663.780
1139.337;    3.140;  -13.840;  482.840
1139.877;    4.402;  -16.140;  642.360
1140.416;    6.553;  -11.410;  878.060
1140.955;    2.890;  -12.820;  535.380
1141.494;    4.185;  -12.310;  669.280
1142.034;    3.497;  -16.280;  583.520
1142.573;    4.158;  -13.090;  646.280
1143.112;    2.662;  -13.770;  553.480
1143.651;    3.011;  -15.830;  536.480
1144.190;    4.448;  -15.010;  691.640
1144.729;    3.642;  -13.650;  607.420
1145.267;    2.966;  -13.670;  584.900
1145.806;    3.509;  -13.630;  637.040
1146.345;    2.731;  -14.160;  635.020
1146.884;    3.388;  -11.180;  622.500
1147.422;    2.482;  -15.890;  533.060
1147.961;    4.472;  -12.760;  708.460
1148.500;    3.187;  -15.220;  669.720
1149.038;    3.193;  -13.720;  632.500
1149.577;    2.061;  -13.250;  698.640
1150.115;    0.771;  -16.790;  452.280
1150.653;    3.098;  -15.810;  607.340
1151.192;    2.282;  -14.730;  552.920
1151.730;    2.660;  -13.660;  652.560
1152.268;    2.175;  -15.120;  589.520
1152.806;    1.733;  -15.580;  571.180
1153.344;    0.764;  -16.210;  577.640
1153.882;    1.755;  -12.810;  600.060
1154.421;    0.603;  -14.150;  470.620
1154.958;    1.956;  -15.360;  595.240
1155.496;    2.729;  -14.710;  645.280
1156.034;    1.737;  -13.640;  721.880
1156.572;    2.637;  -13.740;  667.060
1157.110;    0.386;  -16.960;  473.940
1157.647;    2.140;  -11.940;  676.960
1158.185;    0.212;  -14.090;  564.320
1158.723;   -0.075;  -13.610;  509.200
1159.260;    2.212;  -14.760;  701.700
1159.798;    2.062;  -13.700;  658.160
1160.335;    0.708;  -13.820;  631.820

