
Integration time [ms]:   3.882
Averaging Nr. [scans]: 1000
Smoothing Nr. [pixels]: 0
Data measured with spectrometer [name]: 7414430SP
Wave   ;Sample   ;Dark     ;Reference
[nm]   ;[counts] ;[counts] ;[counts] 

288.544;  123.351;   10.292;  793.890
289.143;  126.355;    4.564;  681.602
289.742;  128.028;    6.144;  828.814
290.341;  116.271;    4.396;  789.841
290.940;  107.470;    0.938;  730.702
291.538;  108.904;   -0.684;  881.108
292.137;  107.088;   -2.845;  792.581
292.736;  110.130;   -0.144;  975.101
293.335;  106.853;   -6.352;  735.086
293.934;  109.082;   -7.642;  781.677
294.532;  109.432;   -4.992; 1031.958
295.131;   95.507;   -5.478;  834.394
295.730;   95.997;   -6.549;  809.588
296.328;   93.281;   -9.558;  783.442
296.927;   93.179;   -8.118;  779.652
297.525;   93.991;   -6.908;  781.236
298.124;   85.388;   -9.195;  654.009
298.722;   90.678;   -8.198;  761.933
299.321;   88.038;   -8.817;  708.597
299.919;   85.565;   -7.716;  751.918
300.518;   82.972;  -10.745;  689.338
301.116;   83.851;   -9.647;  691.381
301.715;   84.022;  -10.828;  730.222
302.313;   83.002;   -6.087;  704.943
302.911;   78.748;   -6.824;  733.830
303.509;   85.318;   -8.807;  925.627
304.108;   81.277;   -8.198;  760.383
304.706;   81.341;   -6.218;  801.664
305.304;   76.743;   -7.185;  796.707
305.902;   82.892;   -8.568;  784.484
306.500;   77.581;   -7.737;  728.200
307.098;   75.897;   -6.026;  746.560
307.696;   75.836;   -7.176;  780.432
308.294;   75.854;   -8.656;  731.359
308.892;   77.429;   -6.838;  759.769
309.490;   73.590;   -2.596;  712.161
310.088;   71.578;   -4.485;  788.444
310.686;   76.785;   -3.907;  821.749
311.284;   72.397;   -2.806;  766.040
311.882;   70.776;   -2.845;  731.225
312.480;   67.519;   -3.274;  697.167
313.078;   70.134;   -3.645;  808.331
313.675;   70.565;   -4.997;  691.600
314.273;   65.525;   -0.894;  797.837
314.871;   65.713;   -2.854;  589.829
315.468;   63.689;   -3.644;  652.090
316.066;   66.681;   -3.947;  694.427
316.664;   58.605;   -1.824;  656.351
317.261;   64.241;    1.565;  910.128
317.859;   60.384;   -3.955;  768.735
318.456;   61.244;   -2.886;  830.096
319.054;   56.836;   -0.995;  787.828
319.651;   56.590;   -1.765;  759.928
320.249;   55.856;   -3.685;  810.188
320.846;   54.595;   -3.736;  714.286
321.443;   52.016;   -2.065;  832.135
322.041;   49.931;   -5.635;  812.315
322.638;   47.826;   -5.985;  701.456
323.235;   49.300;   -6.677;  665.683
323.833;   47.625;   -3.497;  740.354
324.430;   42.909;   -6.756;  615.900
325.027;   45.323;   -7.647;  876.855
325.624;   45.648;   -7.598;  644.532
326.221;   41.898;   -5.848;  689.717
326.818;   42.107;   -5.777;  818.332
327.415;   44.609;   -8.769;  748.828
328.012;   44.054;   -6.299;  690.585
328.609;   42.112;   -6.639;  731.389
329.206;   40.540;   -6.358;  778.621
329.803;   40.269;   -8.698;  737.841
330.400;   40.891;   -8.379;  704.260
330.997;   41.770;   -6.178;  817.147
331.594;   39.621;   -5.646;  788.185
332.191;   44.417;   -6.928;  728.722
332.787;   46.300;   -6.057;  844.463
333.384;   43.896;   -6.445;  763.093
333.981;   40.546;   -8.002;  815.687
334.578;   43.298;   -8.443;  708.378
335.174;   45.364;   -6.053;  731.469
335.771;   45.411;   -5.791;  836.456
336.367;   42.682;   -6.570;  710.631
336.964;   45.141;   -6.741;  793.266
337.561;   46.688;   -5.710;  731.112
338.157;   41.794;   -3.928;  911.916
338.754;   37.733;   -5.577;  796.589
339.350;   37.765;   -9.667;  722.493
339.946;   41.534;   -5.269;  773.135
340.543;   32.941;   -4.485;  846.136
341.139;   28.185;   -7.584;  720.836
341.735;   26.469;   -8.553;  772.593
342.332;   25.220;   -4.984;  691.472
342.928;   26.575;   -3.475;  795.394
343.524;   21.042;   -6.653;  761.684
344.120;   17.338;   -7.173;  738.562
344.716;   21.510;   -4.385;  723.717
345.313;   19.283;   -3.565;  795.342
345.909;   14.038;   -7.495;  627.336
346.505;   17.358;   -8.276;  740.247
347.101;   18.165;   -5.697;  827.864
347.697;   17.744;   -4.767;  785.398
348.293;   12.686;   -7.226;  627.244
348.889;   13.717;   -7.547;  745.914
349.485;   13.104;   -9.147;  688.205
350.081;   14.170;   -6.568;  772.592
350.676;   10.161;   -6.516;  691.606
351.272;   14.243;   -7.378;  809.530
351.868;   13.662;   -6.759;  780.497
352.464;   10.780;   -4.798;  723.932
353.059;    7.861;   -7.977;  646.017
353.655;   11.684;   -8.769;  777.063
354.251;   12.543;   -5.920;  759.845
354.846;    6.785;   -7.647;  740.646
355.442;    4.615;   -6.956;  753.071
356.038;    7.461;   -9.928;  751.708
356.633;    7.875;   -7.698;  728.594
357.229;    5.415;   -6.307;  724.757
357.824;    3.644;   -7.647;  703.600
358.420;    2.915;  -10.047;  679.726
359.015;    2.994;   -7.458;  695.357
359.610;    4.801;   -5.748;  763.920
360.206;   -1.633;   -9.346;  603.240
360.801;    1.986;  -11.268;  646.503
361.396;    3.837;   -8.789;  725.975
361.992;   -0.328;   -6.347;  668.220
362.587;   -3.398;   -6.476;  670.160
363.182;   -0.478;   -9.457;  689.631
363.777;   -0.649;   -7.147;  738.242
364.372;   -0.437;   -5.507;  737.314
364.967;   -3.454;   -6.386;  680.744
365.563;    0.420;   -7.858;  815.567
366.158;   -2.045;   -8.517;  685.161
366.753;   -1.778;   -8.728;  649.263
367.348;   -2.895;   -7.677;  746.056
367.942;   -2.683;  -10.387;  697.298
368.537;   -3.840;   -7.187;  754.245
369.132;   -3.745;   -8.587;  703.428
369.727;   -7.831;   -8.606;  638.079
370.322;   -6.473;  -10.426;  580.186
370.917;   -5.964;   -5.776;  710.646
371.511;   -4.243;   -6.007;  861.834
372.106;   -7.226;   -6.686;  776.964
372.701;   -9.529;   -9.335;  585.988
373.296;   -4.215;   -6.777;  863.135
373.890;   -9.082;   -7.546;  647.840
374.485;  -11.224;   -8.755;  691.199
375.079;   -6.111;   -9.797;  738.685
375.674;   -4.979;   -6.327;  812.970
376.268;   -9.563;   -9.046;  691.759
376.863;  -15.563;   -7.993;  580.327
377.457;   -8.210;   -9.206;  662.490
378.052;  -10.690;   -5.345;  764.884
378.646;  -11.138;   -5.605;  741.167
379.240;  -11.616;   -6.825;  721.176
379.835;  -10.839;  -10.476;  636.978
380.429;  -13.612;   -8.676;  562.557
381.023;  -13.571;   -4.945;  779.205
381.617;  -14.841;   -8.094;  680.106
382.212;  -10.950;  -10.646;  685.303
382.806;  -10.322;   -8.136;  760.690
383.400;  -15.017;   -7.855;  672.281
383.994;  -15.446;   -8.125;  664.870
384.588;  -11.181;   -7.637;  697.701
385.182;  -10.148;   -7.458;  726.624
385.776;  -11.243;   -6.277;  706.875
386.370;  -14.479;   -7.485;  681.968
386.964;  -12.550;   -9.416;  684.155
387.558;  -10.801;   -8.518;  598.360
388.152;  -15.419;   -7.096;  681.959
388.745;  -13.058;   -7.656;  814.707
389.339;  -11.254;   -8.927;  747.642
389.933;   -9.806;   -9.538;  695.370
390.527;  -11.139;   -5.857;  859.029
391.120;  -17.010;   -9.455;  595.318
391.714;  -14.328;   -9.746;  711.633
392.308;  -10.841;   -7.857;  780.253
392.901;  -14.825;   -9.106;  642.460
393.495;  -16.375;  -10.365;  595.414
394.089;  -13.758;   -9.696;  760.452
394.682;  -15.028;   -7.016;  697.188
395.275;  -15.516;   -8.466;  719.927
395.869;  -16.095;   -8.985;  667.314
396.462;  -14.196;  -11.496;  616.609
397.056;  -10.511;   -7.838;  776.621
397.649;  -15.905;   -6.895;  731.575
398.242;  -12.975;   -5.017;  712.645
398.836;  -11.090;   -8.787;  766.408
399.429;  -13.173;   -8.967;  631.041
400.022;  -16.498;   -8.815;  665.902
400.615;  -12.782;   -6.276;  805.609
401.208;  -11.047;   -8.407;  691.451
401.802;  -13.223;   -7.296;  699.329
402.395;  -15.240;   -7.585;  683.502
402.988;  -16.040;   -8.015;  696.627
403.581;  -12.616;   -9.577;  646.878
404.174;  -10.239;   -7.588;  686.568
404.767;  -13.419;   -7.906;  638.583
405.360;  -15.605;   -7.875;  621.445
405.953;   -9.489;   -8.127;  759.034
406.545;   -8.881;   -7.198;  725.342
407.138;  -13.970;   -8.916;  618.350
407.731;  -11.851;   -9.767;  613.303
408.324;   -7.430;  -10.659;  660.554
408.917;   -9.353;   -8.068;  681.864
409.509;  -11.085;   -9.837;  740.396
410.102;  -12.980;   -8.146;  643.948
410.695;   -6.375;   -7.969;  665.758
411.287;   -7.201;   -8.579;  599.821
411.880;   -8.885;   -6.968;  585.421
412.472;  -11.793;   -9.487;  613.092
413.065;   -8.421;  -10.338;  629.408
413.657;   -6.778;   -9.169;  576.678
414.250;   -5.980;  -10.119;  646.681
414.842;   -8.005;   -9.938;  676.353
415.434;   -5.450;  -10.409;  570.463
416.027;   -1.352;   -9.591;  652.196
416.619;   -3.622;   -7.379;  713.400
417.211;   -4.293;   -9.159;  599.352
417.804;    0.285;   -9.191;  628.499
418.396;   -4.555;   -8.159;  607.643
418.988;   -2.081;   -6.960;  659.238
419.580;   -5.456;  -11.389;  568.276
420.172;   -2.998;  -13.460;  536.196
420.764;    1.236;  -10.701;  672.482
421.356;   -0.398;   -8.961;  636.898
421.948;   -0.493;   -9.770;  677.661
422.540;    4.863;   -8.832;  680.027
423.132;    3.549;   -8.153;  600.641
423.724;    0.076;   -8.481;  561.267
424.316;    2.738;   -9.261;  621.345
424.908;    6.793;   -9.643;  591.517
425.500;    7.440;   -8.663;  647.978
426.092;    7.600;   -8.503;  648.268
426.683;    6.503;  -10.522;  684.836
427.275;    9.205;  -11.734;  641.471
427.867;   11.163;  -10.264;  668.948
428.458;   11.678;   -7.644;  732.344
429.050;    9.723;   -7.853;  680.749
429.642;   13.115;   -8.904;  743.124
430.233;   12.793;  -10.795;  569.356
430.825;   13.699;   -7.665;  724.809
431.416;   12.073;   -8.843;  698.241
432.008;   15.734;   -9.885;  651.723
432.599;   15.955;   -9.966;  656.073
433.190;   12.565;   -9.164;  637.670
433.782;   12.221;   -8.584;  590.395
434.373;   21.060;   -8.296;  884.765
434.964;   18.443;   -9.896;  602.920
435.556;   15.810;   -8.255;  634.537
436.147;   18.814;   -8.075;  758.490
436.738;   20.172;   -9.716;  701.099
437.329;   24.494;   -7.318;  721.723
437.920;   17.287;   -6.694;  666.688
438.511;   17.346;   -9.644;  564.526
439.103;   25.472;   -9.427;  623.998
439.694;   26.216;  -10.748;  681.583
440.285;   28.007;   -7.997;  764.432
440.876;   26.090;  -10.046;  845.738
441.466;   25.299;  -13.467;  575.162
442.057;   30.811;   -9.329;  665.814
442.648;   28.532;   -7.707;  746.255
443.239;   27.334;   -9.017;  620.477
443.830;   32.597;  -10.279;  704.958
444.421;   33.995;  -12.630;  655.474
445.011;   30.252;   -8.697;  693.619
445.602;   30.967;   -7.787;  743.126
446.193;   33.006;  -13.329;  488.117
446.783;   37.297;   -9.171;  640.397
447.374;   32.315;   -7.457;  692.759
447.964;   33.593;   -9.277;  713.770
448.555;   42.621;   -9.041;  822.742
449.145;   38.717;   -8.969;  662.853
449.736;   39.267;   -6.809;  803.179
450.326;   38.945;   -7.229;  713.626
450.917;   43.767;  -11.391;  675.324
451.507;   43.112;   -9.501;  600.661
452.097;   44.037;   -8.460;  746.267
452.688;   44.949;  -10.080;  742.160
453.278;   45.047;  -12.861;  566.840
453.868;   50.069;   -8.372;  793.550
454.458;   47.207;   -8.131;  651.141
455.048;   48.188;   -8.520;  711.783
455.639;   49.712;  -13.632;  567.096
456.229;   53.055;  -10.143;  710.694
456.819;   54.849;   -9.163;  751.158
457.409;   55.553;   -8.652;  773.993
457.999;   58.990;   -9.933;  737.505
458.589;   58.253;  -10.363;  686.606
459.179;   57.492;  -10.633;  717.658
459.769;   56.690;  -12.442;  627.099
460.358;   62.282;   -9.844;  797.262
460.948;   60.737;   -9.924;  689.503
461.538;   62.501;  -10.484;  660.677
462.128;   61.269;  -10.703;  664.934
462.717;   68.454;  -11.486;  710.326
463.307;   70.832;  -10.767;  705.846
463.897;   66.615;   -8.814;  656.942
464.486;   66.045;   -8.182;  837.128
465.076;   71.155;   -9.985;  733.776
465.666;   74.650;  -10.447;  652.900
466.255;   71.848;   -7.754;  785.651
466.845;   71.035;  -10.884;  666.749
467.434;   75.072;  -12.525;  725.873
468.023;   75.321;  -11.456;  658.357
468.613;   72.849;   -9.173;  713.946
469.202;   77.470;   -9.306;  646.507
469.791;   81.973;   -8.917;  737.811
470.381;   83.273;   -9.657;  742.813
470.970;   83.169;   -9.947;  711.099
471.559;   83.325;   -9.256;  733.291
472.148;   86.858;  -13.397;  675.737
472.738;   88.425;   -9.928;  765.466
473.327;   89.070;  -10.897;  637.529
473.916;   88.377;   -8.526;  737.446
474.505;   92.265;  -11.078;  751.703
475.094;   95.964;   -9.559;  806.570
475.683;   94.865;   -8.838;  797.699
476.272;   96.535;  -10.198;  730.632
476.861;   99.442;  -11.489;  706.754
477.449;  106.250;  -10.721;  728.487
478.038;   99.805;   -9.818;  692.513
478.627;  101.327;   -9.887;  714.852
479.216;  108.129;  -10.030;  769.441
479.805;  111.767;   -9.401;  783.375
480.393;  110.446;   -5.739; 1008.945
480.982;  109.910;   -7.838;  874.501
481.571;  117.129;   -9.111;  858.333
482.159;  117.000;  -10.601;  705.386
482.748;  116.762;   -8.500;  821.385
483.336;  122.012;   -9.241;  858.209
483.925;  122.980;  -10.440;  774.373
484.513;  129.741;  -11.063;  758.962
485.102;  126.370;   -9.540;  810.965
485.690;  136.313;   -6.742; 1011.050
486.278;  138.238;   -8.442;  979.329
486.867;  137.841;  -10.472;  809.662
487.455;  140.730;   -8.811;  898.229
488.043;  142.035;  -10.721;  748.361
488.631;  152.205;  -10.393; 1005.079
489.220;  155.514;  -10.843;  908.626
489.808;  155.575;  -10.572;  741.415
490.396;  163.813;  -10.482;  914.645
490.984;  171.515;  -11.542;  830.161
491.572;  183.439;   -8.463;  940.315
492.160;  188.523;   -8.491;  919.081
492.748;  198.007;   -9.681;  884.341
493.336;  220.177;  -10.493; 1019.693
493.924;  250.859;   -9.354;  958.077
494.512;  286.571;   -9.132; 1066.638
495.100;  326.948;   -9.001; 1103.280
495.687;  378.277;  -11.924; 1206.373
496.275;  454.444;  -11.193; 1150.796
496.863;  561.992;   -9.241; 1281.171
497.451;  674.021;  -11.341; 1386.805
498.038;  770.380;  -11.364; 1556.729
498.626;  894.454;   -8.104; 1741.407
499.214; 1089.189;   -8.842; 2016.609
499.801; 1286.893;  -10.112; 2220.633
500.389; 1498.091;  -11.953; 2312.494
500.976; 1749.744;  -10.023; 2744.849
501.564; 2090.265;   -8.662; 3148.565
502.151; 2495.287;  -10.531; 3515.999
502.738; 2925.494;  -13.853; 3971.274
503.326; 3498.834;  -10.794; 4403.796
503.913; 4044.159;   -8.663; 5161.749
504.500; 4445.856;  -10.172; 5986.420
505.088; 4875.262;  -13.472; 6381.201
505.675; 5708.972;  -10.924; 6925.547
506.262; 6607.560;   -8.551; 7619.060
506.849; 7592.995;  -10.523; 8733.969
507.436; 8419.599;  -10.834; 9790.121
508.023; 8712.412;   -9.093; 9985.472
508.610; 9137.338;  -10.073;10434.618
509.197; 9853.443;   -9.500;11198.435
509.784;11527.704;  -13.242;12391.194
510.371;12316.080;  -10.964;13603.713
510.958;12339.189;   -9.772;14426.586
511.545;13628.674;   -7.842;15243.775
512.132;13603.288;  -12.184;15945.876
512.719;13756.517;   -9.733;16340.369
513.305;15867.847;   -9.172;18011.766
513.892;17328.555;   -9.581;19754.971
514.479;19212.381;  -10.253;20967.805
515.066;21440.006;   -8.183;22299.793
515.652;22354.578;   -9.253;22908.660
516.239;23368.412;   -9.412;23798.875
516.825;25685.250;  -11.153;25567.275
517.412;25062.916;  -10.263;28154.959
517.998;24962.334;   -8.802;28344.111
518.585;24863.355;  -10.401;27134.219
519.171;25323.846;  -12.744;27268.576
519.758;28364.738;  -11.793;28964.129
520.344;30186.670;   -8.912;30664.494
520.930;29355.740;  -10.901;32550.605
521.516;30633.359;  -12.034;35422.895
522.103;32274.197;  -10.473;38280.004
522.689;34473.980;   -8.311;37835.117
523.275;37601.344;  -10.691;37288.613
523.861;37910.352;  -11.193;37281.395
524.447;38624.059;  -11.484;37846.949
525.033;38628.633;   -7.702;38321.949
525.619;38269.797;  -11.241;38579.285
526.205;39174.293;  -12.152;40622.875
526.791;38464.711;  -11.423;42258.836
527.377;36194.371;   -7.981;42966.902
527.963;37085.398;   -9.450;42018.949
528.549;40716.828;  -11.351;42476.828
529.135;42377.059;  -10.202;41854.852
529.721;41481.980;   -8.672;41237.711
530.306;40474.070;   -9.111;41259.445
530.892;41597.547;  -11.252;41506.047
531.478;44068.957;  -10.432;43559.613
532.063;46542.813;  -10.721;47695.563
532.649;47250.969;   -7.450;50808.324
533.235;46712.781;  -11.811;51787.500
533.820;47367.086;   -9.383;52145.035
534.406;47567.512;   -9.400;51133.488
534.991;47014.695;   -8.861;49996.805
535.576;44714.566;  -10.612;48882.852
536.162;43106.984;   -7.322;46942.285
536.747;45425.754;   -9.360;45711.746
537.333;49147.352;  -10.450;48510.180
537.918;51336.355;  -12.610;50439.891
538.503;52097.684;  -12.132;50863.711
539.088;48986.348;  -10.831;50906.922
539.673;46764.453;  -11.220;52621.965
540.259;49007.684;  -11.481;52368.094
540.844;51498.586;  -11.462;50879.109
541.429;53154.555;   -7.869;52077.777
542.014;53923.504;  -11.859;52716.695
542.599;53219.035;  -11.061;52363.281
543.184;52192.719;  -12.300;53187.137
543.769;50895.660;   -9.369;54697.605
544.354;50934.621;  -12.020;53913.914
544.938;48343.066;  -10.350;49680.164
545.523;46252.605;  -10.841;47386.277
546.108;47969.586;   -8.579;49151.949
546.693;51040.344;   -8.818;51384.637
547.278;52327.117;  -11.331;51853.254
547.862;48815.539;  -10.292;51173.750
548.447;45222.016;   -8.349;51691.395
549.031;46990.992;  -10.838;52456.703
549.616;52229.957;  -11.681;52714.516
550.201;54764.598;  -11.140;52414.598
550.785;53687.383;   -8.649;52355.059
551.370;54236.887;  -11.889;54589.453
551.954;53275.828;  -11.239;58267.348
552.538;53781.520;   -8.850;59062.176
553.123;54139.848;  -10.829;58115.285
553.707;53084.695;   -8.887;56556.285
554.291;51994.980;  -10.430;56201.668
554.876;50562.523;   -9.799;55335.762
555.460;52219.363;  -10.018;54155.703
556.044;52962.465;   -7.307;53721.484
556.628;49986.438;  -12.229;53731.016
557.212;47934.922;   -9.820;54312.531
557.796;47808.824;   -9.109;53797.773
558.380;49919.813;   -9.707;56145.984
558.964;48701.457;  -10.980;57277.930
559.548;49273.348;  -12.010;56459.641
560.132;53481.945;   -7.928;54434.543
560.716;55182.938;  -10.247;54800.617
561.300;54266.891;  -11.250;57606.945
561.884;54366.750;  -10.568;58972.445
562.467;52138.539;   -9.727;57327.570
563.051;51221.746;  -11.847;54962.434
563.635;50259.148;  -10.747;52594.473
564.219;47027.063;  -13.108;50610.410
564.802;44654.371;  -11.417;49551.180
565.386;46047.949;  -10.457;48370.953
565.969;47356.914;   -8.959;48178.871
566.553;46572.848;  -10.328;49957.305
567.136;45778.164;  -10.257;50369.594
567.720;45942.754;  -10.186;49492.004
568.303;46497.617;  -10.027;50616.352
568.887;47510.805;  -10.397;50727.148
569.470;45979.625;   -8.185;51698.379
570.053;44949.699;  -11.596;52122.078
570.637;43785.000;  -11.378;52536.438
571.220;42610.453;   -9.138;51186.098
571.803;41392.742;   -7.675;51032.762
572.386;40328.910;   -8.976;49609.887
572.969;38626.238;  -12.477;48285.926
573.552;39746.043;   -9.767;47624.285
574.135;40223.344;   -8.175;45498.641
574.718;36569.910;  -11.096;41970.434
575.301;34630.047;  -11.966;41447.137
575.884;32690.189;  -12.836;40923.836
576.467;37370.465;   -9.116;45267.723
577.050;37862.102;  -10.536;48175.543
577.633;38372.426;  -11.027;47729.328
578.216;39417.391;   -9.946;47579.793
578.799;40332.363;   -9.645;47820.996
579.381;41329.691;   -9.446;48115.551
579.964;42446.711;  -12.217;47333.766
580.547;42852.676;  -10.586;46668.969
581.129;42811.281;   -8.374;44466.141
581.712;40542.219;  -10.434;44164.922
582.294;39101.234;  -10.896;46477.855
582.877;39377.887;   -8.906;48244.254
583.459;39117.273;   -9.994;47437.895
584.042;39234.195;  -10.084;46943.219
584.624;39650.727;  -13.534;46792.227
585.206;38348.488;  -12.716;46557.250
585.789;38507.211;  -11.614;45793.773
586.371;35647.805;  -10.203;43836.391
586.953;32460.912;  -10.314;42972.492
587.536;32227.686;   -9.776;42487.211
588.118;34021.359;   -9.821;42086.414
588.700;35901.566;  -10.073;43389.930
589.282;35004.305;  -12.395;43646.039
589.864;35281.676;  -11.514;43438.109
590.446;34973.293;  -10.803;43151.926
591.028;34044.020;  -11.043;42781.867
591.610;34180.520;  -13.244;42839.098
592.192;34210.383;  -11.095;42820.402
592.774;33058.816;  -10.823;40724.277
593.356;32124.850;  -11.052;39874.789
593.937;32833.016;  -11.664;39980.648
594.519;36566.563;  -10.454;42069.633
595.101;39674.664;  -10.322;42976.031
595.683;37426.402;  -10.042;44084.441
596.264;33555.875;  -14.334;43478.797
596.846;34734.492;  -10.863;43803.672
597.427;33986.102;   -9.901;42986.934
598.009;32593.973;  -10.911;42832.219
598.591;33712.359;  -10.483;42580.086
599.172;35135.316;   -9.663;43061.805
599.753;35962.801;  -10.631;41691.469
600.335;36114.473;   -9.371;40692.520
600.916;33994.203;  -13.992;39982.422
601.498;33674.023;   -8.352;40318.617
602.079;34006.156;   -8.411;40670.609
602.660;33300.914;  -10.841;41450.898
603.241;33345.402;  -12.963;41137.738
603.823;33991.609;  -11.523;38868.797
604.404;34199.121;  -11.881;38182.785
604.985;34692.109;  -11.721;38078.047
605.566;32939.223;   -9.293;38056.633
606.147;31531.422;  -10.940;37020.418
606.728;33434.320;  -11.840;37883.359
607.309;34628.152;  -11.781;38748.273
607.890;35023.852;  -11.262;38850.230
608.471;33852.793;  -10.111;37457.918
609.051;33573.977;   -7.709;36066.457
609.632;30612.822;  -12.409;35991.074
610.213;31095.365;  -10.811;37402.641
610.794;33027.277;  -11.630;38383.363
611.374;36530.676;   -8.030;40562.387
611.955;35212.379;  -10.809;38533.727
612.536;33847.145;  -10.531;36951.789
613.116;33142.906;  -12.820;37197.891
613.697;34174.656;  -11.419;38411.125
614.277;34323.250;   -9.768;38673.938
614.858;31518.271;  -10.251;37075.863
615.438;28500.887;  -11.981;35092.906
616.019;26791.883;   -8.978;33666.301
616.599;28632.967;  -12.219;34189.023
617.179;30940.111;  -14.170;36952.047
617.760;31885.096;   -9.211;39582.574
618.340;32187.934;   -9.018;38943.977
618.920;32172.221;   -9.249;37594.156
619.500;32134.869;  -12.728;37866.938
620.080;33312.570;  -12.939;37869.043
620.660;34672.090;  -11.586;36868.617
621.241;33858.570;  -11.538;36352.309
621.821;32201.400;  -11.398;35459.520
622.401;30642.334;  -10.179;35207.414
622.980;31316.012;  -11.587;35980.422
623.560;32414.084;  -12.888;37351.328
624.140;30042.568;  -13.149;34388.582
624.720;25628.814;   -9.928;32368.764
625.300;25727.209;  -10.869;32638.629
625.880;28251.838;   -8.617;34599.035
626.459;29922.584;  -12.138;36831.738
627.039;32990.258;  -12.267;38299.098
627.619;35464.027;   -7.476;38289.574
628.198;36230.539;  -11.347;37220.695
628.778;33492.297;  -11.678;37632.563
629.357;31201.355;  -12.438;38003.012
629.937;30923.109;   -9.576;38402.039
630.516;30985.408;  -11.096;37868.801
631.096;31750.051;  -11.828;35760.410
631.675;32797.395;  -11.565;35225.219
632.254;33998.914;  -11.845;35130.289
632.834;35447.250;  -11.545;35794.570
633.413;34523.051;  -10.887;35788.922
633.992;34888.605;  -10.175;34532.863
634.571;35165.980;   -9.704;33590.113
635.151;33450.621;  -10.815;34943.863
635.730;32247.355;  -11.617;35352.523
636.309;32597.604;  -10.836;35366.605
636.888;33269.758;   -9.755;36165.637
637.467;33991.355;  -11.684;37515.902
638.046;34050.383;  -11.987;39288.695
638.625;33231.836;  -10.455;38279.699
639.204;33027.445;  -11.234;37741.598
639.782;33806.234;  -12.023;38364.551
640.361;31979.334;  -11.506;36740.621
640.940;28667.725;  -12.316;34950.082
641.519;26567.541;  -11.616;34137.398
642.097;29980.514;   -9.266;35654.258
642.676;33573.320;  -12.936;35637.957
643.255;33922.406;   -9.966;36567.074
643.833;33557.738;   -8.916;37809.434
644.412;30845.072;  -10.936;37337.293
644.990;30530.799;  -12.176;37018.531
645.569;32102.363;  -12.246;36518.469
646.147;35798.453;  -12.107;36186.430
646.726;38132.398;  -12.937;36267.688
647.304;35089.055;  -12.547;36647.625
647.882;34559.770;  -12.597;39286.742
648.461;33589.027;   -9.427;39157.703
649.039;33570.410;   -8.937;35412.883
649.617;33786.141;  -11.067;34744.918
650.195;32013.248;  -10.657;35403.098
650.773;29555.795;  -10.097;35053.797
651.352;29706.738;  -11.887;33756.816
651.930;29439.031;  -13.557;31868.773
652.508;28987.730;  -11.767;33121.551
653.086;30540.625;  -10.777;33564.793
653.663;33376.242;  -12.067;34054.668
654.241;36692.727;  -14.918;35693.309
654.819;36203.508;  -11.788;36422.906
655.397;34535.059;  -11.268;38213.484
655.975;32931.230;  -11.738;39507.625
656.553;31214.451;  -11.018;39498.223
657.130;29924.438;  -12.848;40395.480
657.708;28943.650;  -10.098;39242.020
658.286;29591.613;  -11.678;38920.020
658.863;30837.092;  -11.498;40202.898
659.441;32960.578;  -11.008;39677.938
660.018;34578.016;  -11.048;40413.355
660.596;35839.684;  -12.058;39931.414
661.173;36812.781;  -14.158;39604.531
661.750;36485.055;  -12.298;39700.070
662.328;36336.613;  -10.699;39292.809
662.905;35896.957;  -12.119;38235.648
663.482;31911.277;  -11.829;36212.305
664.060;28661.141;  -11.009;35944.945
664.637;32121.068;  -10.369;35170.785
665.214;34015.895;  -10.459;34197.523
665.791;32303.170;  -12.599;34549.520
666.368;29385.475;  -12.919;35118.578
666.945;28190.852;  -10.699;36019.418
667.522;29902.590;  -11.359;36048.438
668.099;30619.203;  -13.529;36243.914
668.676;29848.928;  -10.229;35958.875
669.253;29562.252;   -9.279;37384.730
669.830;29303.645;  -11.370;36779.629
670.407;29575.799;  -10.950;35231.289
670.984;30489.115;  -12.850;35544.270
671.560;29822.072;   -8.440;35466.867
672.137;30876.697;  -13.520;34280.863
672.714;31222.979;  -13.620;34632.863
673.290;30663.291;  -10.450;35135.422
673.867;30205.176;  -10.960;36114.480
674.443;31102.521;  -13.300;36152.859
675.020;28855.232;  -12.370;35327.238
675.596;27963.867;  -11.250;35795.176
676.173;28296.588;  -11.080;35430.355
676.749;28340.318;  -13.220;33549.516
677.326;29795.383;  -13.000;32210.012
677.902;29561.486;  -12.701;32068.871
678.478;27914.477;  -12.801;32583.891
679.054;28784.898;   -8.601;32088.928
679.631;30000.971;  -12.631;30978.848
680.207;30718.295;   -9.451;33160.887
680.783;30264.793;  -11.701;35570.363
681.359;30737.986;  -12.701;36125.184
681.935;32264.490;  -13.271;35240.922
682.511;33284.020;  -10.791;34429.961
683.087;31290.641;  -10.791;34463.680
683.663;28401.527;   -8.121;34648.898
684.239;26996.635;  -13.261;34546.457
684.815;28315.121;  -10.581;35586.375
685.390;29681.994;   -9.961;35821.895
685.966;29003.586;  -11.182;35085.871
686.542;28536.361;  -13.512;34198.230
687.118;26739.287;  -11.472;32847.707
687.693;26055.975;  -10.152;32794.027
688.269;26157.438;  -14.442;33072.367
688.844;24892.627;  -11.852;33141.664
689.420;23869.311;  -13.942;33965.742
689.995;25512.004;   -9.702;34655.523
690.571;27286.125;  -11.312;33576.742
691.146;27203.439;  -14.332;32657.219
691.722;27162.197;  -11.192;32526.979
692.297;27766.695;  -10.962;33014.617
692.872;29261.334;  -11.082;34012.254
693.448;30530.537;  -14.732;34237.434
694.023;29876.010;  -12.363;34142.672
694.598;27790.607;  -12.393;34132.031
695.173;28859.104;  -11.023;34205.250
695.748;30085.850;  -12.743;32882.488
696.323;28911.797;  -11.103;32864.906
696.898;27917.625;   -8.123;33170.004
697.473;27726.768;  -12.603;32432.984
698.048;28317.131;  -12.553;31649.303
698.623;29169.709;  -12.573;30778.141
699.198;28780.676;  -12.743;31140.119
699.773;28535.396;  -12.843;31764.299
700.348;28679.617;  -16.683;31780.816
700.922;29575.135;  -11.403;32046.375
701.497;30489.863;  -11.253;32603.574
702.072;29406.996;  -10.044;34799.871
702.646;28639.434;  -13.054;35793.172
703.221;29378.412;  -11.414;35201.590
703.795;28682.865;  -10.644;34764.527
704.370;27161.502;  -13.484;34307.367
704.944;26102.205;  -12.144;33509.887
705.519;25671.688;  -12.024;31388.584
706.093;27721.041;  -11.234;31340.104
706.668;28194.439;   -9.874;32630.281
707.242;26926.105;  -12.404;32728.779
707.816;25720.701;  -10.644;32947.238
708.390;25462.564;  -11.174;33277.855
708.965;25505.971;  -10.324;33834.336
709.539;26335.875;  -12.014;33709.273
710.113;26308.865;  -12.295;33044.313
710.687;27958.832;  -10.965;31953.992
711.261;29354.334;  -13.685;30505.949
711.835;27388.641;  -15.335;30262.369
712.409;26346.576;  -13.785;31254.447
712.983;26517.316;  -10.525;32754.986
713.557;24897.430;  -13.175;34018.824
714.131;25006.350;  -13.245;34579.625
714.704;27625.736;  -13.175;33890.262
715.278;29010.443;  -11.545;33531.102
715.852;27381.811;  -10.975;33601.660
716.425;26419.371;  -10.075;33515.117
716.999;27645.025;  -12.185;33185.555
717.573;29957.838;   -9.685;33905.996
718.146;30050.098;  -10.516;35199.293
718.720;28781.768;  -12.106;35060.551
719.293;27603.799;  -12.386;34973.230
719.867;27993.027;  -12.456;36394.449
720.440;27639.223;  -10.686;36663.008
721.013;27515.043;  -12.596;35102.426
721.587;29404.502;  -13.956;33985.266
722.160;31657.408;   -9.806;33524.965
722.733;32215.465;  -11.676;32987.043
723.306;31373.400;  -14.276;33066.301
723.880;29333.729;  -12.126;33399.500
724.453;26914.000;  -10.156;33468.297
725.026;26630.563;  -12.956;33816.637
725.599;26781.564;  -11.676;32797.996
726.172;27421.410;  -12.337;33187.434
726.745;27838.688;  -11.277;35136.613
727.318;28213.943;  -11.927;35751.730
727.891;27346.814;  -13.607;35890.430
728.463;25048.418;  -11.327;34822.090
729.036;25004.586;  -11.917;32895.086
729.609;25919.613;  -12.697;31823.225
730.182;26011.418;  -11.787;31445.283
730.754;26027.244;  -12.957;32373.223
731.327;26751.301;  -11.017;33676.820
731.900;26794.959;  -12.797;33417.000
732.472;25811.852;  -10.677;31978.498
733.045;25497.820;  -12.797;30368.777
733.617;25713.326;  -13.908;30574.215
734.190;24667.199;  -12.258;31280.975
734.762;24906.043;  -13.438;31674.412
735.334;26110.070;  -11.758;31247.291
735.907;28664.385;  -11.158;29876.211
736.479;31041.957;  -11.258;29808.488
737.051;30753.801;  -10.918;30233.547
737.623;29249.939;  -11.038;31469.086
738.195;30586.348;  -12.188;31784.225
738.768;28410.723;  -11.378;32120.523
739.340;23430.963;  -12.598;32094.342
739.912;22212.658;  -11.568;31312.680
740.484;23487.203;   -9.348;31946.238
741.056;25480.756;  -12.628;32984.059
741.628;26807.152;  -13.349;33897.715
742.199;26183.115;  -11.309;33213.016
742.771;27058.662;  -12.699;31369.113
743.343;28246.916;  -11.919;31865.473
743.915;28587.301;  -11.679;32388.631
744.487;27206.490;  -12.249;31079.568
745.058;24372.100;  -11.119;30570.107
745.630;22648.309;   -9.439;29970.127
746.201;22025.314;  -11.949;29186.766
746.773;22013.184;  -12.639;28805.723
747.344;23136.975;  -11.039;29591.223
747.916;24798.906;  -12.549;31412.201
748.487;23621.299;  -12.659;32194.898
749.059;22410.900;  -13.059;32533.719
749.630;21629.484;  -12.080;32158.518
750.201;20520.391;  -13.100;30855.395
750.773;19843.035;  -15.310;28622.555
751.344;19148.516;  -12.240;28405.732
751.915;19236.080;  -11.960;28461.551
752.486;18748.898;  -13.200;27842.850
753.057;18107.148;  -15.230;27845.008
753.628;19730.053;  -13.130;27728.107
754.199;21946.047;  -12.720;27381.086
754.770;21722.682;  -10.680;25882.203
755.341;20514.895;  -11.010;25886.184
755.912;20373.502;  -12.990;26050.861
756.483;19485.746;  -11.110;26798.779
757.054;19110.570;  -12.190;27048.238
757.625;19006.746;  -13.981;26294.838
758.195;19196.311;  -11.041;26142.076
758.766;19859.320;  -11.861;26392.234
759.337;19981.852;  -11.461;26334.594
759.907;19507.379;  -15.001;27579.652
760.478;18371.367;   -9.681;28352.770
761.048;17690.760;  -12.421;27325.088
761.619;18448.807;  -11.761;26460.428
762.189;18605.197;  -12.391;26029.826
762.760;18131.361;  -10.201;26430.145
763.330;18939.055;  -10.811;26670.902
763.900;19510.195;  -10.261;26603.021
764.471;18497.582;  -13.061;25542.740
765.041;17269.264;  -11.051;24358.459
765.611;17263.410;  -11.032;23991.297
766.181;17346.432;  -10.532;24470.236
766.751;17880.090;  -13.502;24845.975
767.321;19178.184;  -11.392;24533.633
767.891;21124.180;  -11.522;24916.492
768.461;22066.627;  -13.672;24776.771
769.031;19280.453;  -14.652;24757.988
769.601;16787.488;  -10.182;24181.088
770.171;15790.502;  -11.752;23670.387
770.741;15014.813;  -12.272;22960.045
771.311;15141.250;  -13.112;22917.523
771.880;16268.834;  -14.122;23562.941
772.450;16764.395;  -11.782;24216.500
773.020;16372.179;  -12.642;24140.398
773.589;15063.484;  -13.043;24414.857
774.159;14506.575;  -11.783;23858.717
774.729;15581.767;  -13.473;22942.135
775.298;16372.639;  -14.523;22324.033
775.867;16089.636;  -12.013;21140.313
776.437;15402.629;  -12.113;20838.092
777.006;15028.049;  -13.543;20599.510
777.576;15586.812;  -12.523;20508.809
778.145;15757.698;  -12.173;20732.947
778.714;15128.128;  -12.153;21062.465
779.283;14505.145;  -11.833;20949.664
779.853;14708.003;  -13.483;20508.623
780.422;14734.086;  -12.933;20649.082
780.991;14331.938;  -13.173;21527.520
781.560;14198.323;  -10.224;22632.658
782.129;14588.272;  -12.684;23048.277
782.698;14581.263;  -11.284;23438.555
783.267;14619.818;  -11.684;23267.734
783.836;14368.103;  -10.974;22415.133
784.404;13780.990;  -13.534;20443.152
784.973;13040.499;  -16.734;19699.150
785.542;12048.847;  -12.594;19763.828
786.111;12089.354;  -11.644;20341.408
786.679;13164.084;  -11.384;20207.967
787.248;13397.699;  -12.014;19516.465
787.817;12374.537;  -12.804;18900.363
788.385;11201.088;  -11.994;17879.121
788.954;11192.911;  -12.564;17658.301
789.522;11798.984;  -12.225;17788.879
790.090;11834.665;  -13.775;18118.277
790.659;11933.440;  -12.485;18338.736
791.227;12524.168;  -12.295;18508.615
791.795;13048.918;  -13.415;17898.254
792.364;13375.371;  -12.995;17295.133
792.932;12924.541;   -8.365;16822.051
793.500;12045.514;  -11.925;17040.148
794.068;12365.651;  -13.245;17179.787
794.636;12784.602;  -13.815;16664.246
795.204;12730.563;  -13.375;16524.545
795.772;12558.230;  -12.125;17274.564
796.340;11743.562;  -13.855;17891.002
796.908;10276.699;  -13.456;17648.561
797.476; 9860.350;  -13.116;17064.080
798.044;10210.142;  -13.226;16672.777
798.612;10304.938;  -11.236;17023.996
799.180;10077.945;  -10.476;16561.615
799.747; 9911.261;  -11.746;15962.773
800.315; 9726.848;  -12.366;15296.992
800.883; 9140.446;  -14.616;14801.771
801.450; 9306.888;  -11.996;14534.430
802.018;10201.622;  -11.206;14173.248
802.585;10511.898;  -12.466;14029.547
803.153; 9772.163;  -12.846;13836.846
803.720; 9289.569;  -12.136;13567.324
804.287; 9586.414;  -10.966;13360.622
804.855; 9571.525;   -9.797;13681.981
805.422; 8712.916;  -13.037;13536.560
805.989; 8201.840;  -12.697;13355.958
806.556; 8649.276;  -11.737;13747.896
807.124; 9264.138;  -11.997;13987.376
807.691; 8829.556;  -13.997;14038.674
808.258; 8404.344;  -10.927;14120.152
808.825; 8708.375;  -13.727;13860.111
809.392; 8649.955;  -11.847;13268.790
809.959; 8677.036;  -14.217;12680.389
810.526; 8706.993;   -8.277;12427.308
811.093; 9014.534;   -9.647;12030.105
811.659; 8966.011;  -10.987;11653.664
812.226; 8130.461;  -13.447;11637.183
812.793; 7535.227;  -14.418;11611.521
813.360; 7680.042;  -13.908;11885.181
813.926; 8258.981;  -12.918;12770.539
814.493; 8321.762;  -14.888;12677.638
815.060; 7808.436;  -12.758;11974.336
815.626; 7571.295;  -13.478;11594.715
816.193; 7546.540;  -13.898;11579.474
816.759; 7693.563;  -13.588;11666.972
817.325; 7682.777;  -12.018;11325.530
817.892; 7395.821;  -14.068;11105.369
818.458; 7507.433;  -13.458;10843.928
819.024; 7252.544;  -11.968;10714.406
819.591; 6958.127;  -11.028;10469.165
820.157; 6992.179;  -12.088;10235.523
820.723; 6955.895;  -12.599;10847.563
821.289; 6664.480;  -10.419;11040.980
821.855; 6555.456;  -10.939;10357.100
822.421; 6549.681;  -12.539; 9978.918
822.987; 6464.607;  -13.259; 9754.177
823.553; 6283.994;  -15.369;10065.755
824.119; 6274.252;  -10.779;10036.294
824.685; 6233.314;   -9.999;10029.192
825.251; 5973.167;  -11.819;10199.230
825.816; 5899.807;  -13.369; 9820.189
826.382; 5696.055;  -12.679; 9297.248
826.948; 5309.928;  -11.199; 9381.347
827.513; 5218.558;  -11.179; 9450.726
828.079; 5289.149;  -13.489; 9472.444
828.645; 5395.486;  -12.500; 9292.643
829.210; 5435.894;  -15.120; 9065.341
829.776; 5408.765;  -12.590; 9132.620
830.341; 5568.865;  -11.540; 9092.878
830.906; 5969.737;  -12.400; 9078.557
831.472; 5819.665;  -12.720; 8534.535
832.037; 4985.305;  -11.490; 8677.874
832.602; 4416.575;  -14.380; 8628.692
833.167; 4363.013;  -12.780; 8879.031
833.733; 4738.150;  -11.100; 9189.790
834.298; 4986.435;  -12.080; 9052.608
834.863; 4737.134;  -13.910; 8895.087
835.428; 4358.955;  -13.470; 8824.266
835.993; 4207.140;  -11.760; 8845.385
836.558; 4410.954;  -12.731; 8888.563
837.123; 4465.350;  -12.431; 8966.582
837.688; 4247.523;  -11.241; 8617.860
838.253; 4159.182;  -13.681; 8590.699
838.817; 4338.644;  -12.531; 8443.797
839.382; 4464.432;  -12.671; 8799.356
839.947; 4556.791;  -11.541; 8810.595
840.511; 4691.877;  -12.021; 8796.394
841.076; 4781.035;  -13.071; 8347.231
841.641; 4995.826;  -11.411; 8224.330
842.205; 5162.251;  -13.671; 8223.349
842.770; 4968.089;  -11.291; 8622.107
843.334; 4683.284;  -12.951; 8410.386
843.898; 4469.977;  -11.221; 8337.465
844.463; 4501.608;  -11.322; 8506.283
845.027; 4409.204;  -11.412; 8280.962
845.591; 4183.296;  -11.512; 8231.141
846.156; 4075.652;  -14.042; 7969.179
846.720; 4099.311;  -12.152; 7768.278
847.284; 3983.763;  -10.922; 7630.957
847.848; 3856.200;  -10.962; 7472.395
848.412; 3660.543;  -14.612; 7437.394
848.976; 3748.052;  -11.492; 7674.592
849.540; 4098.640;   -9.172; 7836.011
850.104; 4270.177;  -11.232; 7913.669
850.668; 4148.360;  -15.182; 7694.508
851.232; 3995.313;  -15.332; 7756.887
851.796; 3897.967;  -13.703; 7926.545
852.359; 3892.796;  -11.113; 7827.844
852.923; 3932.170;  -11.843; 7641.163
853.487; 3921.672;  -11.173; 7342.501
854.050; 3835.493;  -13.443; 7042.820
854.614; 3802.191;  -13.823; 7151.338
855.177; 3733.433;  -16.393; 7105.077
855.741; 3676.292;  -11.693; 6989.675
856.304; 3632.907;  -10.843; 6596.634
856.868; 3486.371;  -13.783; 6356.272
857.431; 3224.516;  -11.953; 6468.571
857.995; 2989.112;  -13.683; 6373.210
858.558; 2988.634;  -11.433; 6324.448
859.121; 3029.058;  -12.493; 6408.327
859.684; 2857.003;  -12.384; 6347.886
860.247; 2542.559;  -14.774; 6321.264
860.810; 2360.737;  -13.154; 6301.903
861.374; 2401.109;  -11.264; 6607.881
861.937; 2477.748;  -15.424; 6408.200
862.500; 2463.860;  -12.854; 6572.639
863.062; 2456.885;  -12.344; 6387.297
863.625; 2505.648;  -13.314; 6190.836
864.188; 2598.281;  -14.724; 5807.254
864.751; 2808.102;  -13.464; 5682.413
865.314; 3137.219;  -11.684; 5547.492
865.876; 3301.687;  -11.104; 5500.150
866.439; 3252.284;  -12.344; 5415.909
867.002; 3055.221;  -13.494; 5501.567
867.564; 2827.704;  -10.935; 5413.946
868.127; 2738.921;  -12.665; 5160.325
868.689; 2725.341;  -14.515; 5133.183
869.252; 2785.593;  -13.425; 5252.382
869.814; 2969.338;  -11.595; 5297.141
870.377; 2987.975;  -12.175; 5390.919
870.939; 2836.233;  -10.265; 5599.898
871.501; 2701.848;  -12.375; 5248.336
872.063; 2606.204;  -14.355; 4854.235
872.626; 2520.193;  -14.435; 4817.074
873.188; 2447.300;  -12.415; 4987.732
873.750; 2448.720;  -14.555; 4868.651
874.312; 2356.025;  -11.185; 4779.330
874.874; 2210.108;  -12.715; 4866.348
875.436; 2164.994;  -13.196; 4718.887
875.998; 2125.171;  -11.426; 4660.005
876.560; 2052.302;   -9.786; 4462.964
877.122; 2018.971;  -12.796; 4145.042
877.683; 2007.828;  -13.226; 4056.481
878.245; 1951.911;  -12.036; 3950.740
878.807; 1914.417;  -11.536; 4058.958
879.369; 1909.082;  -10.806; 3954.677
879.930; 1818.009;  -13.946; 3941.495
880.492; 1677.798;  -11.876; 4067.014
881.053; 1657.973;  -13.216; 3859.633
881.615; 1715.992;  -12.226; 3776.071
882.176; 1712.591;  -12.946; 3734.750
882.738; 1635.204;  -10.736; 3678.489
883.299; 1566.141;  -12.057; 3405.407
883.860; 1529.980;  -12.677; 3351.106
884.422; 1485.456;  -14.097; 3394.044
884.983; 1383.912;  -13.667; 3166.443
885.544; 1240.408;  -10.717; 3189.802
886.105; 1152.623;  -14.357; 3160.360
886.666; 1149.821;  -14.287; 3093.059
887.227; 1154.337;  -14.297; 2941.957
887.788; 1125.078;  -13.137; 2974.836
888.349; 1038.228;  -14.637; 2721.214
888.910;  972.461;  -12.247; 2696.493
889.471;  962.250;  -10.577; 2560.172
890.032;  944.594;  -12.937; 2558.190
890.593;  880.297;  -12.487; 2567.669
891.153;  817.682;  -11.898; 2460.307
891.714;  820.013;  -14.278; 2372.046
892.275;  813.536;  -13.308; 2309.505
892.835;  742.200;  -12.058; 2382.543
893.396;  668.782;  -15.268; 2295.502
893.956;  624.307;  -13.278; 2162.420
894.517;  595.680;  -11.968; 2125.439
895.077;  584.247;  -12.798; 2086.978
895.638;  555.236;  -11.908; 2126.316
896.198;  518.341;  -13.288; 1838.275
896.758;  495.092;  -12.198; 1892.813
897.319;  468.406;  -13.048; 1792.232
897.879;  424.123;  -13.718; 1762.751
898.439;  387.542;  -14.138; 1661.149
898.999;  378.698;  -13.659; 1781.468
899.559;  366.047;  -14.699; 1703.347
900.119;  346.968;  -14.339; 1537.525
900.679;  326.607;  -11.789; 1638.384
901.239;  302.639;  -13.629; 1527.902
901.799;  284.751;  -13.679; 1456.441
902.359;  271.454;  -13.679; 1357.140
902.919;  262.213;  -14.159; 1331.118
903.479;  249.382;  -13.419; 1317.257
904.038;  236.074;  -14.899; 1262.595
904.598;  223.259;  -14.339; 1152.034
905.158;  219.144;  -13.959; 1240.893
905.717;  215.204;  -12.749; 1233.691
906.277;  206.380;  -11.889; 1217.330
906.836;  198.895;  -12.870; 1222.408
907.396;  197.076;  -11.790; 1193.047
907.955;  193.481;  -13.750; 1182.526
908.515;  186.218;  -14.760; 1099.364
909.074;  180.361;  -12.540; 1092.863
909.633;  175.295;  -12.120; 1069.121
910.192;  172.641;  -12.550; 1196.460
910.752;  171.295;  -12.760; 1029.960
911.311;  169.085;  -14.750; 1009.780
911.870;  164.206;  -13.860;  971.460
912.429;  161.988;  -13.480; 1094.080
912.988;  158.822;  -12.370; 1081.060
913.547;  153.579;  -14.670;  940.380
914.106;  150.734;  -12.800;  999.420
914.665;  149.259;  -11.370;  984.020
915.224;  147.524;  -11.430; 1035.760
915.782;  146.414;  -12.260;  922.560
916.341;  147.839;  -12.540; 1049.840
916.900;  144.279;  -12.540;  925.260
917.458;  143.066;  -13.480;  884.220
918.017;  142.514;  -12.470;  942.600
918.576;  142.124;  -13.450;  904.440
919.134;  140.192;  -12.890;  837.980
919.693;  138.153;  -15.480;  893.060
920.251;  137.123;  -14.420;  876.500
920.809;  135.603;  -12.170;  839.580
921.368;  135.120;  -13.650;  885.360
921.926;  134.835;  -12.750;  842.940
922.484;  134.346;  -14.150;  903.360
923.042;  136.415;  -15.100;  880.340
923.601;  139.052;  -10.990;  998.680
924.159;  138.892;  -12.470;  935.560
924.717;  139.220;  -15.640;  841.080
925.275;  139.426;  -12.380;  903.240
925.833;  139.290;  -12.710;  779.320
926.391;  142.135;  -11.200;  938.380
926.949;  142.850;  -16.000;  857.680
927.506;  144.766;  -12.260;  903.500
928.064;  145.459;  -11.300;  877.580
928.622;  145.605;  -13.750;  880.100
929.180;  144.644;  -15.290;  814.180
929.737;  143.319;  -14.500;  808.540
930.295;  144.954;  -10.630;  928.480
930.853;  148.054;  -14.590;  849.100
931.410;  150.859;  -14.450;  821.120
931.968;  152.784;  -14.390;  940.660
932.525;  151.356;  -13.050;  909.380
933.082;  150.542;  -15.620;  811.440
933.640;  154.854;  -15.650;  925.900
934.197;  157.969;  -13.610;  886.360
934.754;  161.866;  -13.320;  897.780
935.312;  165.862;  -13.370;  863.340
935.869;  169.204;  -12.780; 1012.980
936.426;  166.529;  -14.480;  872.800
936.983;  167.256;  -13.180;  889.020
937.540;  169.135;  -15.710;  838.280
938.097;  169.457;  -14.980;  940.120
938.654;  172.562;  -13.060;  898.860
939.211;  172.161;  -12.760;  952.480
939.768;  169.961;  -16.230;  915.420
940.324;  169.731;  -10.940;  904.200
940.881;  168.928;  -12.570;  878.500
941.438;  168.089;  -13.650; 1021.200
941.995;  168.635;  -13.300;  992.560
942.551;  169.398;  -15.800;  875.620
943.108;  169.901;  -14.180;  937.920
943.664;  169.047;  -13.890;  869.340
944.221;  174.073;  -12.640; 1088.140
944.777;  173.805;  -14.700;  869.680
945.334;  171.872;  -13.010;  884.840
945.890;  174.115;  -13.480;  946.480
946.446;  172.676;  -14.920;  947.020
947.003;  170.923;  -13.860;  964.940
947.559;  171.121;  -12.000; 1063.040
948.115;  169.614;  -10.510; 1026.540
948.671;  168.800;  -12.760;  967.300
949.227;  165.651;  -15.390;  859.560
949.783;  160.056;  -15.570;  858.900
950.339;  160.003;  -12.800;  991.000
950.895;  159.385;  -13.780; 1023.840
951.451;  159.449;  -13.810;  925.280
952.007;  160.075;  -12.390;  998.540
952.563;  157.960;  -11.980;  937.780
953.118;  156.402;  -14.070;  904.940
953.674;  158.965;  -14.140;  935.780
954.230;  163.065;  -12.680;  949.640
954.785;  164.999;  -12.770;  936.640
955.341;  162.195;  -11.450;  998.160
955.897;  153.295;  -15.350;  834.660
956.452;  149.422;  -14.200;  953.840
957.008;  145.397;  -10.820; 1083.640
957.563;  143.848;  -13.200; 1009.540
958.118;  143.615;  -14.460;  877.700
958.674;  145.592;  -13.840;  946.780
959.229;  144.414;  -10.670; 1013.980
959.784;  142.075;  -17.040;  832.400
960.339;  145.697;  -12.970; 1001.280
960.894;  148.888;  -12.700;  963.760
961.449;  152.025;  -13.790;  859.960
962.004;  157.199;  -11.760; 1212.840
962.559;  154.328;  -14.840;  860.140
963.114;  148.757;  -14.530;  742.480
963.669;  145.448;  -12.780;  915.500
964.224;  141.061;  -14.330;  874.340
964.779;  137.190;  -14.380;  828.420
965.334;  135.314;  -12.460; 1017.860
965.888;  130.757;  -13.490;  875.360
966.443;  130.456;  -14.140;  972.380
966.998;  128.516;  -16.240;  819.460
967.552;  128.331;  -12.730;  908.380
968.107;  124.511;  -14.510;  868.300
968.661;  125.908;  -11.850;  922.440
969.216;  123.865;  -14.370;  856.280
969.770;  120.968;  -13.010;  917.200
970.324;  118.872;  -12.460;  923.140
970.879;  119.296;  -11.580;  947.180
971.433;  122.165;  -13.130;  952.720
971.987;  119.417;  -12.360;  895.340
972.541;  115.926;  -14.330;  917.100
973.095;  113.149;  -13.310; 1009.460
973.649;  110.481;  -15.830;  809.480
974.203;  111.323;  -15.830;  829.040
974.757;  113.033;  -13.480;  855.220
975.311;  115.503;  -13.720;  872.600
975.865;  116.256;  -15.780;  881.820
976.419;  114.452;  -14.290;  857.400
976.973;  110.298;  -13.210;  849.620
977.526;  109.625;  -12.300;  949.920
978.080;  104.615;  -14.840;  796.780
978.634;  103.187;  -13.100;  921.320
979.187;   99.197;  -12.300;  905.400
979.741;   99.683;  -12.020; 1018.380
980.294;   96.040;  -14.590;  789.160
980.848;   95.339;  -14.390;  717.220
981.401;   94.187;  -14.280;  816.540
981.955;   95.008;  -11.920;  844.300
982.508;   91.075;  -15.790;  746.340
983.061;   91.094;  -12.070;  915.260
983.615;   88.746;  -13.260;  798.800
984.168;   85.816;  -15.540;  770.080
984.721;   85.287;  -13.230;  880.760
985.274;   83.187;  -11.820;  867.500
985.827;   80.721;  -13.510;  834.220
986.380;   79.382;  -14.840;  721.340
986.933;   80.483;  -13.970;  864.800
987.486;   79.121;  -12.450;  861.920
988.039;   76.720;  -11.170;  863.100
988.591;   74.194;  -13.070;  893.260
989.144;   71.392;  -15.530;  737.260
989.697;   71.548;  -14.300;  758.740
990.250;   69.998;  -13.310;  858.100
990.802;   67.996;  -14.490;  755.860
991.355;   68.825;  -12.980;  974.880
991.907;   66.271;  -13.715;  864.320
992.460;   63.716;  -14.450;  753.760
993.012;   62.853;  -12.590;  749.540
993.565;   61.155;  -15.180;  711.360
994.117;   63.487;  -11.630;  950.780
994.669;   59.507;  -13.760;  701.320
995.221;   59.014;  -12.710;  791.920
995.774;   59.111;  -14.620;  787.580
996.326;   58.244;  -13.150;  740.220
996.878;   57.780;  -12.880;  838.420
997.430;   55.258;  -14.580;  699.860
997.982;   55.490;  -14.030;  750.140
998.534;   55.400;  -12.190;  739.060
999.086;   53.443;  -12.990;  738.220
999.638;   51.893;  -13.180;  661.380
1000.190;   51.273;  -14.970;  699.320
1000.741;   51.418;  -12.200;  742.700
1001.293;   49.850;  -13.400;  686.020
1001.845;   49.537;  -14.490;  676.640
1002.396;   50.515;  -15.280;  743.400
1002.948;   50.177;  -12.380;  737.400
1003.500;   48.906;  -13.260;  723.780
1004.051;   49.820;  -13.730;  907.580
1004.603;   48.861;  -12.300;  791.820
1005.154;   45.587;  -15.330;  608.980
1005.705;   44.137;  -12.800;  723.960
1006.257;   43.620;  -13.900;  707.220
1006.808;   42.513;  -14.430;  685.460
1007.359;   43.062;  -12.010;  763.240
1007.910;   40.925;  -12.690;  646.640
1008.461;   39.860;  -13.610;  732.940
1009.013;   38.817;  -14.990;  588.340
1009.564;   41.130;  -11.860;  793.520
1010.115;   38.081;  -12.640;  597.040
1010.665;   37.365;  -14.570;  602.160
1011.216;   39.002;  -15.190;  667.920
1011.767;   38.552;  -13.470;  697.920
1012.318;   38.428;  -13.760;  736.980
1012.869;   36.204;  -15.950;  679.000
1013.419;   36.890;  -15.880;  603.120
1013.970;   37.237;  -14.540;  666.640
1014.521;   34.982;  -13.220;  620.620
1015.071;   35.608;  -15.020;  670.380
1015.622;   35.788;  -17.510;  635.460
1016.172;   35.426;  -14.130;  596.820
1016.723;   34.961;  -14.220;  614.380
1017.273;   34.044;  -15.370;  604.160
1017.823;   34.656;  -15.290;  650.340
1018.374;   34.626;  -13.420;  611.760
1018.924;   34.089;  -11.740;  716.880
1019.474;   34.288;  -12.250;  718.880
1020.024;   32.804;  -15.850;  657.580
1020.574;   33.956;  -13.280;  726.160
1021.124;   33.324;  -13.560;  673.580
1021.674;   31.814;  -13.790;  559.120
1022.224;   33.768;  -14.610;  708.940
1022.774;   33.585;  -13.100;  668.820
1023.324;   32.959;  -11.470;  753.520
1023.874;   34.340;  -11.990;  875.760
1024.423;   31.918;  -14.550;  613.700
1024.973;   31.223;  -14.440;  610.760
1025.523;   30.423;  -13.250;  620.960
1026.072;   30.218;  -15.200;  606.420
1026.622;   30.191;  -14.590;  675.740
1027.172;   32.583;  -11.080;  715.660
1027.721;   29.504;  -14.010;  601.220
1028.270;   30.429;  -13.690;  663.400
1028.820;   29.750;  -15.380;  638.080
1029.369;   30.281;  -14.980;  612.700
1029.918;   29.381;  -13.100;  649.840
1030.468;   28.950;  -13.680;  564.780
1031.017;   29.920;  -13.770;  634.800
1031.566;   28.879;  -14.100;  608.900
1032.115;   29.871;  -11.770;  694.500
1032.664;   28.332;  -14.940;  596.480
1033.213;   29.279;  -13.370;  735.420
1033.762;   28.331;  -13.660;  635.620
1034.311;   28.077;  -13.650;  677.220
1034.860;   28.074;  -13.820;  691.000
1035.408;   28.464;  -12.860;  722.720
1035.957;   29.417;  -13.060;  719.540
1036.506;   25.240;  -14.510;  530.800
1037.055;   29.239;  -13.470;  844.320
1037.603;   26.828;  -14.800;  664.000
1038.152;   25.623;  -14.190;  534.760
1038.700;   25.969;  -11.810;  585.740
1039.249;   26.445;  -12.850;  681.220
1039.797;   26.947;  -14.610;  633.360
1040.345;   26.943;  -15.220;  705.420
1040.894;   25.586;  -13.480;  625.300
1041.442;   23.874;  -13.310;  632.200
1041.990;   24.223;  -14.510;  559.160
1042.538;   24.379;  -15.700;  536.180
1043.087;   23.508;  -13.910;  570.860
1043.635;   25.361;  -13.620;  670.500
1044.183;   25.142;  -14.230;  586.400
1044.731;   25.265;  -13.730;  576.000
1045.279;   23.681;  -13.970;  674.920
1045.827;   26.133;  -10.750;  892.400
1046.374;   22.760;  -15.230;  515.420
1046.922;   23.018;  -15.390;  590.580
1047.470;   24.284;  -12.320;  691.300
1048.018;   23.933;  -13.230;  647.960
1048.565;   24.905;  -13.390;  708.600
1049.113;   22.860;  -15.030;  557.000
1049.660;   22.482;  -12.540;  629.660
1050.208;   23.062;  -15.040;  675.640
1050.755;   22.665;  -14.680;  606.580
1051.303;   23.352;  -13.610;  686.820
1051.850;   22.657;  -14.340;  635.120
1052.397;   20.285;  -16.330;  473.960
1052.945;   21.160;  -15.710;  617.760
1053.492;   23.042;  -12.320;  741.840
1054.039;   22.707;  -13.730;  720.180
1054.586;   20.552;  -16.140;  557.240
1055.133;   22.335;  -14.020;  693.140
1055.680;   22.201;  -13.430;  646.620
1056.227;   20.174;  -14.570;  542.780
1056.774;   22.756;  -14.400;  794.980
1057.321;   19.483;  -14.230;  523.260
1057.868;   21.188;  -14.220;  651.320
1058.415;   19.976;  -14.060;  651.980
1058.961;   21.128;  -14.640;  678.940
1059.508;   20.086;  -13.970;  643.820
1060.055;   19.440;  -15.100;  581.780
1060.601;   20.000;  -12.180;  624.300
1061.148;   19.769;  -15.010;  616.820
1061.694;   19.524;  -14.750;  592.580
1062.241;   20.244;  -14.130;  596.320
1062.787;   19.774;  -14.770;  663.140
1063.334;   21.513;  -13.130;  808.560
1063.880;   19.482;  -14.420;  668.360
1064.426;   20.417;  -13.130;  706.820
1064.972;   18.499;  -13.960;  601.340
1065.518;   16.392;  -13.680;  566.640
1066.065;   18.623;  -15.720;  624.460
1066.611;   18.295;  -13.970;  598.800
1067.157;   18.320;  -13.920;  641.860
1067.703;   17.581;  -14.760;  668.480
1068.249;   17.917;  -14.490;  605.220
1068.794;   18.340;  -14.740;  626.880
1069.340;   17.181;  -13.220;  578.960
1069.886;   16.789;  -14.930;  590.700
1070.432;   16.429;  -14.700;  541.720
1070.977;   17.176;  -14.470;  601.080
1071.523;   16.591;  -14.330;  573.060
1072.068;   16.293;  -14.960;  582.000
1072.614;   16.789;  -16.220;  527.760
1073.160;   17.382;  -11.280;  687.040
1073.705;   15.999;  -15.990;  572.520
1074.250;   16.267;  -16.550;  559.900
1074.796;   17.072;  -14.600;  655.160
1075.341;   17.314;  -13.440;  664.100
1075.886;   15.661;  -14.450;  594.240
1076.431;   15.600;  -13.160;  649.880
1076.976;   16.089;  -14.710;  639.220
1077.521;   16.073;  -14.000;  583.080
1078.067;   14.797;  -14.470;  579.400
1078.612;   15.445;  -14.530;  661.620
1079.156;   15.169;  -15.660;  601.540
1079.701;   15.707;  -16.120;  693.260
1080.246;   15.921;  -12.960;  696.300
1080.791;   14.677;  -13.700;  625.020
1081.336;   15.493;  -15.540;  659.320
1081.880;   15.197;  -14.640;  649.680
1082.425;   13.942;  -14.220;  573.480
1082.970;   15.270;  -11.890;  717.040
1083.514;   14.241;  -13.820;  597.000
1084.059;   14.353;  -14.280;  586.720
1084.603;   13.366;  -12.890;  565.840
1085.147;   13.638;  -13.590;  645.220
1085.692;   15.633;  -14.050;  716.800
1086.236;   12.943;  -14.990;  503.140
1086.780;   15.459;  -12.640;  751.440
1087.325;   13.668;  -15.550;  654.620
1087.869;   14.047;  -14.980;  610.700
1088.413;   14.803;  -13.440;  705.040
1088.957;   12.162;  -12.170;  543.400
1089.501;   13.919;  -12.730;  766.640
1090.045;   13.946;  -14.650;  726.480
1090.589;   12.423;  -14.500;  569.920
1091.133;   12.649;  -12.320;  673.340
1091.676;   12.867;  -16.130;  591.940
1092.220;   12.329;  -13.930;  600.920
1092.764;   14.499;  -12.820;  706.960
1093.307;   13.097;  -11.700;  673.780
1093.851;   11.517;  -15.600;  556.540
1094.395;   12.878;  -13.920;  683.140
1094.938;   12.210;  -16.090;  632.520
1095.482;   11.577;  -13.820;  559.800
1096.025;   12.264;  -12.720;  710.880
1096.568;   13.075;  -12.100;  779.280
1097.112;    9.576;  -15.450;  508.180
1097.655;   11.559;  -14.310;  603.000
1098.198;   10.116;  -14.740;  600.180
1098.741;   10.892;  -15.550;  612.860
1099.285;   12.520;  -12.600;  657.300
1099.828;    8.681;  -15.050;  439.400
1100.371;   10.353;  -14.800;  608.160
1100.914;   11.023;  -16.480;  682.660
1101.457;   11.445;  -12.990;  679.900
1101.999;    9.744;  -14.110;  584.680
1102.542;   10.506;  -11.450;  641.440
1103.085;   11.009;  -13.350;  658.500
1103.628;   11.400;  -13.200;  762.060
1104.170;    9.397;  -12.310;  588.280
1104.713;    9.793;  -14.320;  646.700
1105.256;    8.853;  -16.110;  557.440
1105.798;    7.811;  -15.910;  499.980
1106.341;   10.538;  -12.200;  728.900
1106.883;    8.698;  -14.910;  521.340
1107.425;    9.383;  -14.960;  668.180
1107.968;    9.491;  -13.440;  612.380
1108.510;    9.646;  -14.010;  684.960
1109.052;    7.686;  -15.430;  612.620
1109.594;    8.766;  -15.290;  554.440
1110.136;    9.342;  -13.360;  643.220
1110.679;    8.513;  -13.820;  633.080
1111.221;    8.804;  -13.690;  604.460
1111.763;    7.994;  -14.890;  559.220
1112.304;    8.450;  -14.550;  547.140
1112.846;    8.614;  -12.760;  666.240
1113.388;   11.729;  -10.780;  942.180
1113.930;    8.616;  -12.690;  694.200
1114.472;    8.274;  -15.730;  606.540
1115.013;    6.773;  -14.620;  551.280
1115.555;    6.639;  -14.950;  587.100
1116.097;    6.890;  -16.460;  579.480
1116.638;    8.189;  -13.730;  684.600
1117.180;    8.258;  -13.810;  667.740
1117.721;    6.211;  -13.280;  568.580
1118.262;    7.756;  -15.080;  677.960
1118.804;    8.142;  -14.040;  637.340
1119.345;    6.383;  -15.430;  578.400
1119.886;    7.806;  -15.240;  704.040
1120.427;    6.731;  -15.820;  589.020
1120.969;    6.580;  -14.550;  597.920
1121.510;    5.560;  -14.030;  563.060
1122.051;    6.681;  -11.990;  723.580
1122.592;    5.740;  -16.490;  655.420
1123.133;    5.513;  -15.580;  547.940
1123.673;    6.721;  -12.850;  706.480
1124.214;    5.398;  -13.630;  612.460
1124.755;    6.511;  -14.830;  639.460
1125.296;    6.346;  -13.110;  627.320
1125.836;    7.147;  -11.320;  691.500
1126.377;    4.975;  -14.330;  599.660
1126.918;    6.429;  -12.800;  614.980
1127.458;    6.162;  -13.580;  622.220
1127.999;    6.257;  -10.330;  656.980
1128.539;    5.849;  -13.390;  694.240
1129.079;    5.396;  -16.420;  632.720
1129.620;    5.028;  -15.700;  558.100
1130.160;    3.512;  -14.790;  539.480
1130.700;    5.257;  -12.910;  640.840
1131.240;    6.083;  -15.610;  643.700
1131.781;    4.965;  -12.920;  619.680
1132.321;    5.154;  -15.300;  599.120
1132.861;    3.294;  -14.760;  564.200
1133.401;    3.711;  -15.470;  593.940
1133.941;    5.403;  -13.710;  626.280
1134.481;    4.755;  -11.820;  597.580
1135.020;    3.172;  -14.810;  609.160
1135.560;    4.985;  -13.660;  674.940
1136.100;    3.275;  -13.940;  501.160
1136.640;    3.045;  -15.410;  510.480
1137.179;    2.450;  -16.920;  537.960
1137.719;    3.656;  -16.430;  605.400
1138.258;    4.017;  -16.300;  587.360
1138.798;    4.390;  -13.710;  663.780
1139.337;    1.948;  -13.840;  482.840
1139.877;    4.177;  -16.140;  642.360
1140.416;    6.249;  -11.410;  878.060
1140.955;    1.833;  -12.820;  535.380
1141.494;    3.406;  -12.310;  669.280
1142.034;    2.746;  -16.280;  583.520
1142.573;    4.590;  -13.090;  646.280
1143.112;    2.460;  -13.770;  553.480
1143.651;    2.180;  -15.830;  536.480
1144.190;    4.136;  -15.010;  691.640
1144.729;    3.232;  -13.650;  607.420
1145.267;    2.817;  -13.670;  584.900
1145.806;    3.378;  -13.630;  637.040
1146.345;    2.792;  -14.160;  635.020
1146.884;    2.438;  -11.180;  622.500
1147.422;    2.119;  -15.890;  533.060
1147.961;    3.623;  -12.760;  708.460
1148.500;    3.012;  -15.220;  669.720
1149.038;    3.380;  -13.720;  632.500
1149.577;    2.534;  -13.250;  698.640
1150.115;    0.305;  -16.790;  452.280
1150.653;    2.187;  -15.810;  607.340
1151.192;    2.717;  -14.730;  552.920
1151.730;    1.825;  -13.660;  652.560
1152.268;    1.112;  -15.120;  589.520
1152.806;    1.902;  -15.580;  571.180
1153.344;    0.788;  -16.210;  577.640
1153.882;    1.714;  -12.810;  600.060
1154.421;    0.020;  -14.150;  470.620
1154.958;    0.853;  -15.360;  595.240
1155.496;    2.669;  -14.710;  645.280
1156.034;    1.651;  -13.640;  721.880
1156.572;    1.539;  -13.740;  667.060
1157.110;   -0.084;  -16.960;  473.940
1157.647;    2.491;  -11.940;  676.960
1158.185;   -0.151;  -14.090;  564.320
1158.723;   -0.026;  -13.610;  509.200
1159.260;    0.620;  -14.760;  701.700
1159.798;    1.652;  -13.700;  658.160
1160.335;   -0.011;  -13.820;  631.820

