
Integration time [ms]:   3.276
Averaging Nr. [scans]: 1000
Smoothing Nr. [pixels]: 0
Data measured with spectrometer [name]: 7414430SP
Wave   ;Sample   ;Dark     ;Reference
[nm]   ;[counts] ;[counts] ;[counts] 

288.544;  150.261;    7.793;  793.890
289.143;  155.201;    7.462;  681.602
289.742;  154.976;    8.602;  828.814
290.341;  139.645;    1.321;  789.841
290.940;  129.255;   -0.709;  730.702
291.538;  129.835;    0.881;  881.108
292.137;  129.633;    0.122;  792.581
292.736;  134.279;   -1.929;  975.101
293.335;  130.510;   -8.229;  735.086
293.934;  131.764;   -5.279;  781.677
294.532;  130.069;   -1.369; 1031.958
295.131;  115.634;   -7.641;  834.394
295.730;  116.424;   -8.420;  809.588
296.328;  115.450;   -5.611;  783.442
296.927;  115.495;   -5.781;  779.652
297.525;  117.226;   -6.361;  781.236
298.124;  107.451;  -11.382;  654.009
298.722;  111.713;   -7.641;  761.933
299.321;  108.995;   -6.811;  708.597
299.919;  107.358;   -6.991;  751.918
300.518;  104.079;  -10.362;  689.338
301.116;  106.031;   -9.581;  691.381
301.715;  105.223;   -4.891;  730.222
302.313;  104.352;   -8.801;  704.943
302.911;   99.849;   -8.522;  733.830
303.509;  105.405;   -6.171;  925.627
304.108;  103.065;   -7.311;  760.383
304.706;  102.193;   -8.321;  801.664
305.304;   96.200;  -10.222;  796.707
305.902;  102.049;   -6.021;  784.484
306.500;   97.908;   -4.971;  728.200
307.098;   95.603;   -7.061;  746.560
307.696;   94.387;   -8.801;  780.432
308.294;   94.691;   -6.411;  731.359
308.892;   96.325;   -2.901;  759.769
309.490;   92.523;   -5.041;  712.161
310.088;   91.892;   -5.002;  788.444
310.686;   95.015;   -2.041;  821.749
311.284;   90.729;   -2.351;  766.040
311.882;   88.751;   -4.422;  731.225
312.480;   85.700;   -4.192;  697.167
313.078;   86.875;   -1.172;  808.331
313.675;   88.468;   -2.601;  691.600
314.273;   83.065;   -1.312;  797.837
314.871;   82.209;   -3.942;  589.829
315.468;   79.785;   -2.802;  652.090
316.066;   83.483;   -0.701;  694.427
316.664;   75.606;   -4.362;  656.351
317.261;   80.452;   -2.872;  910.128
317.859;   74.797;   -2.022;  768.735
318.456;   76.502;   -0.531;  830.096
319.054;   72.047;   -3.912;  787.828
319.651;   70.634;   -4.752;  759.928
320.249;   69.875;   -2.602;  810.188
320.846;   67.349;   -0.821;  714.286
321.443;   64.944;   -4.642;  832.135
322.041;   61.500;   -5.002;  812.315
322.638;   59.787;   -3.982;  701.456
323.235;   60.991;   -3.411;  665.683
323.833;   58.189;   -7.361;  740.354
324.430;   54.118;   -8.611;  615.900
325.027;   55.098;   -4.061;  876.855
325.624;   53.922;   -4.031;  644.532
326.221;   51.586;   -7.481;  689.717
326.818;   51.056;   -5.281;  818.332
327.415;   54.209;   -7.460;  748.828
328.012;   53.788;   -5.510;  690.585
328.609;   51.382;   -7.880;  731.389
329.206;   50.103;   -8.331;  778.621
329.803;   50.394;   -5.121;  737.841
330.400;   52.625;   -4.510;  704.260
330.997;   54.205;   -6.441;  817.147
331.594;   52.914;   -8.831;  788.185
332.191;   58.186;   -7.621;  728.722
332.787;   61.068;   -4.591;  844.463
333.384;   59.566;   -7.412;  763.093
333.981;   58.821;   -8.293;  815.687
334.578;   60.924;   -7.052;  708.378
335.174;   64.675;   -3.102;  731.469
335.771;   62.692;   -5.943;  836.456
336.367;   60.315;   -7.393;  710.631
336.964;   64.162;   -4.063;  793.266
337.561;   61.425;   -3.813;  731.112
338.157;   58.071;   -4.654;  911.916
338.754;   55.676;   -7.934;  796.589
339.350;   53.917;   -4.414;  722.493
339.946;   55.529;   -4.664;  773.135
340.543;   46.955;   -6.375;  846.136
341.139;   42.214;   -9.815;  720.836
341.735;   40.642;   -4.526;  772.593
342.332;   39.254;   -4.895;  691.472
342.928;   39.226;   -4.295;  795.394
343.524;   33.407;   -5.476;  761.684
344.120;   29.528;   -5.856;  738.562
344.716;   32.550;   -2.155;  723.717
345.313;   30.438;   -6.275;  795.342
345.909;   24.263;   -8.815;  627.336
346.505;   26.901;   -5.305;  740.247
347.101;   27.538;   -2.674;  827.864
347.697;   27.123;   -4.344;  785.398
348.293;   22.120;   -9.975;  627.244
348.889;   23.548;   -5.774;  745.914
349.485;   22.250;   -5.004;  688.205
350.081;   22.791;   -4.704;  772.592
350.676;   18.217;   -6.635;  691.606
351.272;   22.630;   -4.504;  809.530
351.868;   21.916;   -3.914;  780.497
352.464;   19.682;   -9.044;  723.932
353.059;   15.709;   -8.314;  646.017
353.655;   19.520;   -7.024;  777.063
354.251;   20.127;   -5.343;  759.845
354.846;   14.648;   -8.604;  740.646
355.442;   12.369;   -6.945;  753.071
356.038;   14.608;   -7.564;  751.708
356.633;   13.895;   -5.814;  728.594
357.229;   12.252;   -7.364;  724.757
357.824;   10.906;   -8.024;  703.600
358.420;   10.407;   -9.384;  679.726
359.015;   10.505;   -5.104;  695.357
359.610;   10.970;   -6.854;  763.920
360.206;    5.207;  -10.185;  603.240
360.801;    8.005;   -7.054;  646.503
361.396;   10.159;   -5.034;  725.975
361.992;    6.139;   -8.284;  668.220
362.587;    3.368;   -8.625;  670.160
363.182;    5.453;   -7.674;  689.631
363.777;    6.265;   -5.164;  738.242
364.372;    5.054;   -8.604;  737.314
364.967;    1.691;   -9.055;  680.744
365.563;    6.430;   -6.114;  815.567
366.158;    3.116;   -5.814;  685.161
366.753;    3.126;   -7.854;  649.263
367.348;    2.419;   -7.804;  746.056
367.942;    2.152;   -7.954;  697.298
368.537;    1.081;   -4.984;  754.245
369.132;    1.320;   -8.564;  703.428
369.727;   -2.516;   -8.855;  638.079
370.322;   -0.588;   -6.245;  580.186
370.917;   -1.257;   -6.425;  710.646
371.511;    0.406;   -6.294;  861.834
372.106;   -2.698;   -7.685;  776.964
372.701;   -5.651;   -7.335;  585.988
373.296;    0.491;   -4.564;  863.135
373.890;   -5.187;  -10.235;  647.840
374.485;   -7.107;   -7.885;  691.199
375.079;   -2.678;   -7.324;  738.685
375.674;   -1.674;   -3.494;  812.970
376.268;   -6.460;   -8.525;  691.759
376.863;  -11.469;  -10.086;  580.327
377.457;   -6.050;   -7.025;  662.490
378.052;   -7.489;   -3.585;  764.884
378.646;   -8.347;   -7.595;  741.167
379.240;   -8.555;   -8.335;  721.176
379.835;   -7.208;   -5.785;  636.978
380.429;   -9.976;   -4.335;  562.557
381.023;  -10.025;   -6.805;  779.205
381.617;  -11.888;   -9.195;  680.106
382.212;   -8.090;   -6.905;  685.303
382.806;   -7.322;   -3.745;  760.690
383.400;  -12.230;   -7.745;  672.281
383.994;  -13.175;   -9.765;  664.870
384.588;   -9.413;   -6.564;  697.701
385.182;   -7.479;   -5.344;  726.624
385.776;   -9.676;   -8.514;  706.875
386.370;  -12.301;   -9.555;  681.968
386.964;  -11.744;   -8.715;  684.155
387.558;   -9.360;   -6.174;  598.360
388.152;  -13.210;   -8.725;  681.959
388.745;  -11.054;   -7.965;  814.707
389.339;   -9.112;   -5.924;  747.642
389.933;   -8.002;   -5.524;  695.370
390.527;   -9.912;   -7.114;  859.029
391.120;  -16.103;  -10.725;  595.318
391.714;  -12.922;   -8.035;  711.633
392.308;  -10.248;   -3.574;  780.253
392.901;  -12.791;   -7.245;  642.460
393.495;  -15.872;   -9.285;  595.414
394.089;  -12.675;   -5.895;  760.452
394.682;  -13.770;   -4.295;  697.188
395.275;  -14.312;   -9.875;  719.927
395.869;  -16.398;   -8.485;  667.314
396.462;  -14.007;   -7.455;  616.609
397.056;  -11.291;   -5.424;  776.621
397.649;  -14.804;   -6.605;  731.575
398.242;  -12.632;   -8.224;  712.645
398.836;  -11.278;   -7.474;  766.408
399.429;  -13.034;   -7.094;  631.041
400.022;  -16.436;   -9.475;  665.902
400.615;  -13.938;   -7.145;  805.609
401.208;  -12.113;   -7.174;  691.451
401.802;  -14.321;   -5.515;  699.329
402.395;  -15.762;   -9.875;  683.502
402.988;  -16.422;   -8.845;  696.627
403.581;  -13.408;   -8.874;  646.878
404.174;  -10.708;   -5.324;  686.568
404.767;  -13.676;   -9.575;  638.583
405.360;  -16.004;  -10.965;  621.445
405.953;  -10.899;   -8.764;  759.034
406.545;  -10.535;   -7.514;  725.342
407.138;  -14.721;  -10.025;  618.350
407.731;  -13.064;  -10.034;  613.303
408.324;   -9.480;   -9.374;  660.554
408.917;  -10.347;   -6.534;  681.864
409.509;  -11.947;   -8.004;  740.396
410.102;  -13.859;   -9.875;  643.948
410.695;   -8.448;   -8.604;  665.758
411.287;   -9.051;   -6.794;  599.821
411.880;  -10.118;   -9.334;  585.421
412.472;  -12.911;  -10.254;  613.092
413.065;  -10.286;   -6.714;  629.408
413.657;   -8.930;   -7.234;  576.678
414.250;   -8.534;  -10.544;  646.681
414.842;   -9.985;   -9.744;  676.353
415.434;   -7.959;   -6.994;  570.463
416.027;   -3.843;   -5.893;  652.196
416.619;   -5.683;   -7.264;  713.400
417.211;   -6.667;  -10.374;  599.352
417.804;   -3.035;   -7.993;  628.499
418.396;   -6.447;   -7.234;  607.643
418.988;   -4.489;   -9.443;  659.238
419.580;   -7.847;  -10.724;  568.276
420.172;   -5.361;  -10.323;  536.196
420.764;   -1.330;   -8.793;  672.482
421.356;   -3.004;  -11.143;  636.898
421.948;   -3.390;   -8.293;  677.661
422.540;    1.462;   -7.893;  680.027
423.132;    0.998;   -7.082;  600.641
423.724;   -2.578;   -8.653;  561.267
424.316;   -0.550;  -10.213;  621.345
424.908;    3.027;   -9.762;  591.517
425.500;    3.548;   -5.572;  647.978
426.092;    3.529;   -8.422;  648.268
426.683;    3.304;   -9.283;  684.836
427.275;    5.503;   -7.852;  641.471
427.867;    7.582;   -5.272;  668.948
428.458;    7.163;   -7.682;  732.344
429.050;    6.447;  -10.612;  680.749
429.642;    9.620;   -9.882;  743.124
430.233;    9.512;   -6.962;  569.356
430.825;   10.253;   -6.842;  724.809
431.416;    8.136;   -9.672;  698.241
432.008;   11.117;   -6.552;  651.723
432.599;   12.025;   -6.891;  656.073
433.190;    8.804;  -10.912;  637.670
433.782;    8.479;  -11.172;  590.395
434.373;   15.939;   -6.061;  884.765
434.964;   14.357;   -8.251;  602.920
435.556;   12.249;   -9.722;  634.537
436.147;   15.181;   -9.082;  758.490
436.738;   14.889;   -8.041;  701.099
437.329;   20.121;   -7.341;  721.723
437.920;   12.842;   -8.162;  666.688
438.511;   12.608;  -11.802;  564.526
439.103;   19.911;  -10.191;  623.998
439.694;   21.568;   -7.601;  681.583
440.285;   22.158;   -8.541;  764.432
440.876;   20.404;   -9.751;  845.738
441.466;   20.735;   -9.401;  575.162
442.057;   24.886;   -7.760;  665.814
442.648;   23.841;   -9.971;  746.255
443.239;   21.949;  -11.001;  620.477
443.830;   26.719;   -7.990;  704.958
444.421;   29.040;   -7.910;  655.474
445.011;   25.727;   -8.131;  693.619
445.602;   25.347;   -7.111;  743.126
446.193;   26.705;  -10.920;  488.117
446.783;   31.469;   -6.500;  640.397
447.374;   26.797;   -8.671;  692.759
447.964;   28.409;  -10.781;  713.770
448.555;   36.218;   -9.650;  822.742
449.145;   31.830;   -8.660;  662.853
449.736;   33.043;   -8.990;  803.179
450.326;   32.907;   -9.500;  713.626
450.917;   38.225;   -8.680;  675.324
451.507;   36.656;   -7.520;  600.661
452.097;   37.825;   -8.590;  746.267
452.688;   38.744;  -11.340;  742.160
453.278;   39.429;  -10.100;  566.840
453.868;   43.431;   -6.019;  793.550
454.458;   40.591;   -9.440;  651.141
455.048;   41.555;  -10.560;  711.783
455.639;   43.316;  -11.799;  567.096
456.229;   46.594;   -6.899;  710.694
456.819;   47.759;   -7.389;  751.158
457.409;   48.213;  -11.119;  773.993
457.999;   50.824;   -9.289;  737.505
458.589;   51.161;   -6.139;  686.606
459.179;   51.268;   -8.729;  717.658
459.769;   49.519;   -9.789;  627.099
460.358;   53.803;  -10.259;  797.262
460.948;   53.981;   -7.299;  689.503
461.538;   55.888;  -10.289;  660.677
462.128;   53.398;  -11.269;  664.934
462.717;   60.831;   -9.368;  710.326
463.307;   62.596;   -7.908;  705.846
463.897;   57.779;   -9.599;  656.942
464.486;   57.810;   -9.769;  837.128
465.076;   63.298;   -8.048;  733.776
465.666;   66.443;   -9.358;  652.900
466.255;   63.657;   -7.919;  785.651
466.845;   63.293;  -11.689;  666.749
467.434;   66.499;   -7.818;  725.873
468.023;   67.023;   -7.678;  658.357
468.613;   64.875;  -10.939;  713.946
469.202;   69.190;  -10.118;  646.507
469.791;   72.995;   -9.108;  737.811
470.381;   74.350;   -6.058;  742.813
470.970;   74.681;  -10.428;  711.099
471.559;   74.467;  -10.268;  733.291
472.148;   77.453;   -8.448;  675.737
472.738;   79.724;   -6.917;  765.466
473.327;   79.461;  -11.978;  637.529
473.916;   78.576;  -11.888;  737.446
474.505;   84.253;   -9.437;  751.703
475.094;   86.968;   -6.747;  806.570
475.683;   86.244;   -9.367;  797.699
476.272;   86.953;  -12.637;  730.632
476.861;   89.522;  -10.027;  706.754
477.449;   96.268;   -8.716;  728.487
478.038;   90.539;   -9.577;  692.513
478.627;   91.998;   -9.718;  714.852
479.216;   98.298;   -8.947;  769.441
479.805;  101.268;   -6.256;  783.375
480.393;  101.258;   -7.937; 1008.945
480.982;   99.774;   -7.717;  874.501
481.571;  107.112;   -9.266;  858.333
482.159;  106.810;   -7.636;  705.386
482.748;  106.939;   -9.667;  821.385
483.336;  111.589;  -10.376;  858.209
483.925;  112.125;   -7.147;  774.373
484.513;  118.485;   -7.996;  758.962
485.102;  115.436;  -10.027;  810.965
485.690;  123.298;  -10.446; 1011.050
486.278;  125.700;   -8.446;  979.329
486.867;  126.484;   -6.356;  809.662
487.455;  128.012;   -9.136;  898.229
488.043;  129.890;  -10.646;  748.361
488.631;  138.986;   -7.456; 1005.079
489.220;  142.533;   -6.636;  908.626
489.808;  141.855;  -11.036;  741.415
490.396;  150.755;  -10.246;  914.645
490.984;  155.840;   -8.556;  830.161
491.572;  165.878;   -5.886;  940.315
492.160;  171.204;   -9.486;  919.081
492.748;  182.948;  -10.976;  884.341
493.336;  205.367;   -8.776; 1019.693
493.924;  231.787;   -5.465;  958.077
494.512;  259.892;   -9.986; 1066.638
495.100;  297.261;  -10.636; 1103.280
495.687;  352.396;  -10.885; 1206.373
496.275;  414.625;   -8.126; 1150.796
496.863;  482.612;  -10.586; 1281.171
497.451;  583.504;  -11.926; 1386.805
498.038;  713.399;  -10.885; 1556.729
498.626;  816.895;   -6.315; 1741.407
499.214;  958.878;   -7.326; 2016.609
499.801; 1162.758;  -11.906; 2220.633
500.389; 1395.390;  -10.466; 2312.494
500.976; 1712.491;   -5.236; 2744.849
501.564; 2144.984;   -8.936; 3148.565
502.151; 2526.033;  -13.176; 3515.999
502.738; 2973.688;  -10.646; 3971.274
503.326; 3334.971;   -9.525; 4403.796
503.913; 3702.941;  -10.856; 5161.749
504.500; 4061.559;  -11.586; 5986.420
505.088; 4451.623;  -10.336; 6381.201
505.675; 4987.143;   -6.355; 6925.547
506.262; 5686.887;   -9.046; 7619.060
506.849; 6357.792;  -10.416; 8733.969
507.436; 6817.087;  -10.305; 9790.121
508.023; 7394.080;   -5.496; 9985.472
508.610; 7650.789;   -7.856;10434.618
509.197; 8261.761;  -10.097;11198.435
509.784; 9599.102;  -10.886;12391.194
510.371;10614.325;   -9.315;13603.713
510.958;11323.568;   -9.936;14426.586
511.545;12070.532;   -9.326;15243.775
512.132;13039.477;  -10.075;15945.876
512.719;13715.520;   -7.796;16340.369
513.305;14664.782;  -10.606;18011.766
513.892;15457.780;  -11.486;19754.971
514.479;16706.818;   -9.126;20967.805
515.066;17966.043;   -6.026;22299.793
515.652;19107.729;   -8.466;22908.660
516.239;20581.447;  -10.886;23798.875
516.825;21783.193;  -11.496;25567.275
517.412;22983.631;   -5.796;28154.959
517.998;23441.688;  -10.506;28344.111
518.585;23320.816;  -10.076;27134.219
519.171;23845.102;   -8.315;27268.576
519.758;25394.354;   -8.596;28964.129
520.344;27021.703;   -8.466;30664.494
520.930;27009.273;  -11.006;32550.605
521.516;28758.057;  -10.495;35422.895
522.103;31167.998;   -5.526;38280.004
522.689;31838.773;   -8.746;37835.117
523.275;31040.162;  -11.376;37288.613
523.861;31721.533;  -11.156;37281.395
524.447;32990.559;   -8.135;37846.949
525.033;32712.037;   -7.896;38321.949
525.619;32770.180;  -12.476;38579.285
526.205;34322.988;   -9.516;40622.875
526.791;36534.840;   -6.926;42258.836
527.377;36463.809;   -8.346;42966.902
527.963;37709.992;   -8.717;42018.949
528.549;35678.520;  -11.016;42476.828
529.135;33281.094;   -8.536;41854.852
529.721;30791.641;   -9.666;41237.711
530.306;29652.348;  -10.066;41259.445
530.892;31435.619;  -11.356;41506.047
531.478;35189.508;   -6.596;43559.613
532.063;39042.211;   -8.836;47695.563
532.649;39353.664;  -10.047;50808.324
533.235;40317.297;   -9.746;51787.500
533.820;41065.695;   -6.566;52145.035
534.406;41942.504;  -10.817;51133.488
534.991;41049.699;   -9.416;49996.805
535.576;38447.465;   -9.036;48882.852
536.162;36441.695;   -6.156;46942.285
536.747;34156.250;  -11.607;45711.746
537.333;35756.027;  -11.787;48510.180
537.918;39794.867;  -12.437;50439.891
538.503;43258.789;   -7.196;50863.711
539.088;44812.621;  -10.556;50906.922
539.673;46846.824;   -8.767;52621.965
540.259;46816.539;  -10.026;52368.094
540.844;44004.289;   -7.416;50879.109
541.429;45106.598;   -9.467;52077.777
542.014;48208.098;   -9.527;52716.695
542.599;47446.543;   -9.946;52363.281
543.184;45311.059;   -7.927;53187.137
543.769;47201.047;   -9.297;54697.605
544.354;46140.715;  -10.127;53913.914
544.938;44645.367;   -9.267;49680.164
545.523;46376.043;   -6.506;47386.277
546.108;48557.016;   -9.787;49151.949
546.693;50794.648;  -11.587;51384.637
547.278;50798.426;  -10.986;51853.254
547.862;47721.734;   -8.206;51173.750
548.447;43130.848;  -10.067;51691.395
549.031;42734.430;   -9.637;52456.703
549.616;47700.352;   -9.926;52714.516
550.201;46408.941;   -6.347;52414.598
550.785;47488.074;   -7.917;52355.059
551.370;46772.180;  -10.867;54589.453
551.954;47025.895;   -9.047;58267.348
552.538;47822.324;   -7.827;59062.176
553.123;46225.094;  -10.287;58115.285
553.707;44282.680;  -12.178;56556.285
554.291;45346.945;   -8.717;56201.668
554.876;47226.672;   -7.457;55335.762
555.460;47698.168;  -10.387;54155.703
556.044;49102.977;   -9.618;53721.484
556.628;47554.328;  -11.567;53731.016
557.212;46012.715;   -8.097;54312.531
557.796;44462.051;  -11.077;53797.773
558.380;44151.996;  -11.108;56145.984
558.964;44434.398;   -9.057;57277.930
559.548;45275.199;   -6.977;56459.641
560.132;43817.188;  -11.457;54434.543
560.716;42904.293;  -11.378;54800.617
561.300;44174.680;   -9.577;57606.945
561.884;45050.707;   -7.127;58972.445
562.467;43695.996;   -7.118;57327.570
563.051;42925.090;  -13.358;54962.434
563.635;43813.441;  -10.178;52594.473
564.219;44211.516;   -7.837;50610.410
564.802;45107.887;  -11.398;49551.180
565.386;45273.625;  -12.788;48370.953
565.969;44803.531;   -9.077;48178.871
566.553;44389.109;   -6.207;49957.305
567.136;44268.617;   -8.568;50369.594
567.720;40263.000;  -11.868;49492.004
568.303;38294.762;   -8.268;50616.352
568.887;38465.961;   -8.698;50727.148
569.470;38581.324;   -6.808;51698.379
570.053;37224.066;  -13.188;52122.078
570.637;35630.301;  -12.037;52536.438
571.220;35266.320;   -8.577;51186.098
571.803;35767.027;   -8.498;51032.762
572.386;38524.563;  -10.498;49609.887
572.969;40870.117;   -9.388;48285.926
573.552;38541.398;   -8.338;47624.285
574.135;37174.766;   -8.518;45498.641
574.718;34781.156;  -13.628;41970.434
575.301;33547.102;  -10.893;41447.137
575.884;32313.049;   -8.158;40923.836
576.467;33726.699;  -10.328;45267.723
577.050;36446.773;  -13.058;48175.543
577.633;37885.926;   -9.458;47729.328
578.216;36558.145;   -8.928;47579.793
578.799;35643.328;   -9.358;47820.996
579.381;34419.043;  -11.388;48115.551
579.964;33085.168;  -11.718;47333.766
580.547;34580.469;   -8.588;46668.969
581.129;35646.719;   -8.859;44466.141
581.712;36084.699;  -10.729;44164.922
582.294;36696.309;  -11.118;46477.855
582.877;36704.887;   -5.218;48244.254
583.459;34181.598;   -8.679;47437.895
584.042;32435.203;  -10.709;46943.219
584.624;33361.805;  -11.669;46792.227
585.206;32730.777;   -8.218;46557.250
585.789;32966.754;  -10.569;45793.773
586.371;35773.332;  -11.859;43836.391
586.953;35942.523;  -10.719;42972.492
587.536;37207.523;   -7.198;42487.211
588.118;36787.750;   -8.720;42086.414
588.700;33813.336;  -10.439;43389.930
589.282;33095.652;   -9.198;43646.039
589.864;33720.055;   -9.199;43438.109
590.446;34359.355;  -11.319;43151.926
591.028;34095.859;  -11.159;42781.867
591.610;33264.133;  -11.779;42839.098
592.192;31070.947;   -7.668;42820.402
592.774;29756.984;  -11.949;40724.277
593.356;28551.641;  -12.129;39874.789
593.937;27717.762;  -10.669;39980.648
594.519;29936.486;   -6.509;42069.633
595.101;32014.920;  -10.849;42976.031
595.683;32007.027;  -11.679;44084.441
596.264;33167.730;   -9.049;43478.797
596.846;32311.541;   -8.849;43803.672
597.427;32007.857;   -9.570;42986.934
598.009;33683.324;  -12.620;42832.219
598.591;33941.172;  -10.039;42580.086
599.172;32796.098;  -10.369;43061.805
599.753;32820.230;   -9.140;41691.469
600.335;34319.055;  -11.430;40692.520
600.916;32896.090;   -9.939;39982.422
601.498;30687.254;   -8.479;40318.617
602.079;29287.338;  -10.920;40670.609
602.660;29456.324;  -11.480;41450.898
603.241;30963.395;  -11.699;41137.738
603.823;29754.674;   -9.579;38868.797
604.404;29851.902;  -10.620;38182.785
604.985;31143.447;  -10.450;38078.047
605.566;30587.918;   -9.129;38056.633
606.147;30690.713;   -7.510;37020.418
606.728;32474.885;  -10.660;37883.359
607.309;31229.859;  -11.740;38748.273
607.890;30538.213;   -9.759;38850.230
608.471;30030.225;   -8.250;37457.918
609.051;29011.113;   -9.240;36066.457
609.632;28025.621;  -12.120;35991.074
610.213;28996.400;   -9.110;37402.641
610.794;29562.350;   -8.030;38383.363
611.374;29027.494;   -8.110;40562.387
611.955;29351.748;  -13.560;38533.727
612.536;30557.000;  -11.400;36951.789
613.116;30814.809;   -8.070;37197.891
613.697;31004.143;  -10.830;38411.125
614.277;29685.037;  -11.641;38673.938
614.858;30654.311;  -13.310;37075.863
615.438;29631.014;   -7.460;35092.906
616.019;26671.678;   -7.601;33666.301
616.599;27515.586;  -12.020;34189.023
617.179;29272.447;  -11.780;36952.047
617.760;29963.930;   -8.570;39582.574
618.340;31111.059;  -11.471;38943.977
618.920;32560.543;  -11.170;37594.156
619.500;32560.846;  -11.071;37866.938
620.080;31916.037;   -7.750;37869.043
620.660;33112.895;  -12.711;36868.617
621.241;34436.609;  -10.211;36352.309
621.821;34415.746;  -10.961;35459.520
622.401;33274.719;   -7.720;35207.414
622.980;32465.697;   -8.981;35980.422
623.560;31184.146;   -9.331;37351.328
624.140;30254.295;   -9.850;34388.582
624.720;24897.664;   -7.451;32368.764
625.300;21293.379;   -9.070;32638.629
625.880;24710.445;  -12.601;34599.035
626.459;28805.428;  -11.751;36831.738
627.039;31977.117;   -9.281;38299.098
627.619;31935.383;   -8.801;38289.574
628.198;30088.473;  -12.071;37220.695
628.778;29130.494;   -9.461;37632.563
629.357;29955.504;   -8.491;38003.012
629.937;30127.277;   -9.721;38402.039
630.516;29430.795;   -9.951;37868.801
631.096;28914.709;  -11.731;35760.410
631.675;32204.109;   -8.572;35225.219
632.254;37250.145;  -11.282;35130.289
632.834;36674.793;  -13.322;35794.570
633.413;34664.328;  -10.301;35788.922
633.992;31486.787;   -8.582;34532.863
634.571;32276.861;   -8.352;33590.113
635.151;35092.008;  -11.912;34943.863
635.730;33631.664;  -10.511;35352.523
636.309;30450.973;   -7.731;35366.605
636.888;28133.480;   -9.952;36165.637
637.467;29213.602;  -11.672;37515.902
638.046;30838.463;   -8.901;39288.695
638.625;33937.051;   -7.912;38279.699
639.204;33609.738;  -10.022;37741.598
639.782;32028.715;  -12.252;38364.551
640.361;28116.414;  -10.041;36740.621
640.940;25296.137;  -11.161;34950.082
641.519;25877.725;   -9.701;34137.398
642.097;29081.205;  -11.271;35654.258
642.676;31955.656;   -8.651;35637.957
643.255;32267.631;   -8.711;36567.074
643.833;31440.209;   -9.581;37809.434
644.412;31716.354;  -13.711;37337.293
644.990;31012.314;  -11.811;37018.531
645.569;31373.178;   -9.411;36518.469
646.147;30115.219;  -10.291;36186.430
646.726;29207.322;  -12.401;36267.688
647.304;30050.008;  -10.411;36647.625
647.882;32336.293;   -9.651;39286.742
648.461;34259.141;   -9.631;39157.703
649.039;32145.926;  -11.881;35412.883
649.617;31520.811;   -9.661;34744.918
650.195;31368.367;   -9.301;35403.098
650.773;29803.785;  -10.511;35053.797
651.352;27516.740;  -11.521;33756.816
651.930;25189.063;  -12.211;31868.773
652.508;23493.246;   -9.171;33121.551
653.086;27517.063;   -9.371;33564.793
653.663;30134.037;  -13.161;34054.668
654.241;29252.256;  -13.031;35693.309
654.819;31009.449;   -9.371;36422.906
655.397;31123.943;  -10.511;38213.484
655.975;31018.068;  -10.371;39507.625
656.553;30469.396;  -10.051;39498.223
657.130;28888.365;  -10.061;40395.480
657.708;28492.477;   -9.561;39242.020
658.286;28508.369;  -11.511;38920.020
658.863;29474.359;  -10.261;40202.898
659.441;32481.232;   -7.531;39677.938
660.018;31849.281;   -9.501;40413.355
660.596;30777.658;  -13.301;39931.414
661.173;32954.695;  -11.211;39604.531
661.750;33238.523;   -9.951;39700.070
662.328;32274.816;   -9.390;39292.809
662.905;31084.264;  -11.330;38235.648
663.482;26303.027;   -9.050;36212.305
664.060;24466.232;   -8.240;35944.945
664.637;27423.385;  -10.050;35170.785
665.214;29352.977;  -11.760;34197.523
665.791;30545.250;  -10.530;34549.520
666.368;29286.639;   -9.690;35118.578
666.945;30561.430;   -9.320;36019.418
667.522;32070.025;  -11.860;36048.438
668.099;31763.340;  -10.770;36243.914
668.676;30721.020;   -6.260;35958.875
669.253;29296.553;   -7.000;37384.730
669.830;30038.252;  -10.190;36779.629
670.407;29737.934;   -9.550;35231.289
670.984;30001.432;   -9.260;35544.270
671.560;30386.418;   -9.280;35466.867
672.137;29104.967;  -11.810;34280.863
672.714;29788.162;  -11.490;34632.863
673.290;30342.855;   -7.740;35135.422
673.867;30730.656;  -10.660;36114.480
674.443;30415.506;  -12.230;36152.859
675.020;28825.203;  -10.450;35327.238
675.596;30093.020;   -9.260;35795.176
676.173;30630.908;  -10.780;35430.355
676.749;30514.445;  -13.690;33549.516
677.326;30486.770;  -11.980;32210.012
677.902;30351.379;   -8.630;32068.871
678.478;29508.086;  -10.730;32583.891
679.054;29078.490;  -10.520;32088.928
679.631;29396.201;  -11.920;30978.848
680.207;30991.184;   -7.490;33160.887
680.783;32681.186;   -9.860;35570.363
681.359;31699.859;  -13.380;36125.184
681.935;30849.920;  -12.480;35240.922
682.511;29784.938;   -7.900;34429.961
683.087;29935.668;   -7.710;34463.680
683.663;29804.002;  -11.480;34648.898
684.239;28534.213;  -14.090;34546.457
684.815;28228.502;   -7.560;35586.375
685.390;28676.818;   -9.910;35821.895
685.966;29237.379;  -11.159;35085.871
686.542;31884.383;  -11.169;34198.230
687.118;33616.270;   -5.959;32847.707
687.693;33412.742;  -10.329;32794.027
688.269;33162.430;  -12.059;33072.367
688.844;31360.592;  -10.909;33141.664
689.420;29097.541;   -8.019;33965.742
689.995;26698.547;   -8.399;34655.523
690.571;25501.213;  -10.949;33576.742
691.146;26161.555;   -9.619;32657.219
691.722;25554.064;   -8.999;32526.979
692.297;25867.029;  -11.589;33014.617
692.872;27844.525;  -11.739;34012.254
693.448;27172.111;  -11.059;34237.434
694.023;26378.635;  -10.139;34142.672
694.598;28478.910;   -9.029;34132.031
695.173;28664.189;  -13.319;34205.250
695.748;28087.547;  -10.169;32882.488
696.323;28015.232;   -8.339;32864.906
696.898;28313.732;   -8.169;33170.004
697.473;28019.725;  -12.309;32432.984
698.048;27363.729;  -10.989;31649.303
698.623;27567.010;   -9.329;30778.141
699.198;29670.414;   -9.849;31140.119
699.773;30250.635;  -12.329;31764.299
700.348;28568.818;  -10.389;31780.816
700.922;28521.287;   -9.269;32046.375
701.497;28948.146;   -9.329;32603.574
702.072;28906.984;  -10.789;34799.871
702.646;27886.719;  -10.839;35793.172
703.221;26347.965;   -9.099;35201.590
703.795;28410.959;  -10.939;34764.527
704.370;28550.371;  -12.859;34307.367
704.944;28937.096;  -11.559;33509.887
705.519;29973.781;   -7.939;31388.584
706.093;31600.609;  -10.499;31340.104
706.668;31713.279;  -11.289;32630.281
707.242;30678.217;  -11.509;32728.779
707.816;29124.461;   -9.639;32947.238
708.390;27537.686;  -11.429;33277.855
708.965;28348.775;  -11.869;33834.336
709.539;28785.889;  -11.689;33709.273
710.113;29293.762;  -10.478;33044.313
710.687;28364.146;  -10.228;31953.992
711.261;26537.074;  -13.698;30505.949
711.835;26534.793;  -13.378;30262.369
712.409;27490.572;   -9.698;31254.447
712.983;29182.740;  -11.898;32754.986
713.557;29917.336;  -15.138;34018.824
714.131;29411.445;  -14.098;34579.625
714.704;28493.324;   -9.958;33890.262
715.278;26411.721;  -10.028;33531.102
715.852;25709.576;  -11.148;33601.660
716.425;26646.652;   -9.068;33515.117
716.999;27269.461;  -10.038;33185.555
717.573;28297.512;   -9.798;33905.996
718.146;29387.721;  -12.378;35199.293
718.720;29036.129;  -11.918;35060.551
719.293;28422.416;   -8.088;34973.230
719.867;31279.107;  -10.888;36394.449
720.440;30673.893;  -11.938;36663.008
721.013;28847.855;  -12.818;35102.426
721.587;27686.422;  -10.298;33985.266
722.160;27016.451;  -10.048;33524.965
722.733;26074.398;  -12.108;32987.043
723.306;26460.467;  -10.818;33066.301
723.880;28548.836;   -8.908;33399.500
724.453;29795.727;   -9.878;33468.297
725.026;28657.730;  -11.188;33816.637
725.599;26563.389;  -11.678;32797.996
726.172;27624.932;   -9.618;33187.434
726.745;28942.826;   -8.258;35136.613
727.318;30300.580;  -12.978;35751.730
727.891;30194.984;  -12.148;35890.430
728.463;29600.941;   -8.968;34822.090
729.036;28682.986;  -10.188;32895.086
729.609;28942.006;  -11.788;31823.225
730.182;25954.801;  -11.788;31445.283
730.754;23531.193;  -10.268;32373.223
731.327;23611.461;   -9.998;33676.820
731.900;24250.920;  -12.228;33417.000
732.472;25788.865;  -13.848;31978.498
733.045;27538.533;   -8.698;30368.777
733.617;27582.285;  -10.607;30574.215
734.190;26890.393;  -11.507;31280.975
734.762;23779.691;  -13.647;31674.412
735.334;22342.771;   -9.767;31247.291
735.907;23111.002;   -9.897;29876.211
736.479;23096.730;  -11.637;29808.488
737.051;22722.406;   -9.567;30233.547
737.623;23672.596;   -8.187;31469.086
738.195;24808.287;  -11.187;31784.225
738.768;26999.695;  -12.337;32120.523
739.340;26652.811;  -12.227;32094.342
739.912;25135.484;  -11.057;31312.680
740.484;23793.605;  -10.207;31946.238
741.056;22959.551;  -10.047;32984.059
741.628;24867.875;  -13.627;33897.715
742.199;27148.006;   -7.177;33213.016
742.771;25436.848;  -10.797;31369.113
743.343;23083.957;  -11.997;31865.473
743.915;22157.668;  -12.867;32388.631
744.487;22286.225;   -7.617;31079.568
745.058;22292.652;   -9.557;30570.107
745.630;22650.027;   -9.877;29970.127
746.201;23183.359;  -14.177;29186.766
746.773;23315.412;   -9.237;28805.723
747.344;23286.473;   -9.847;29591.223
747.916;22221.119;  -11.657;31412.201
748.487;22694.242;  -10.587;32194.898
749.059;23914.037;   -8.707;32533.719
749.630;24695.744;  -10.537;32158.518
750.201;23951.004;  -11.687;30855.395
750.773;22174.563;  -11.647;28622.555
751.344;22174.523;   -7.147;28405.732
751.915;23263.227;   -9.757;28461.551
752.486;22732.008;  -12.427;27842.850
753.057;20605.334;  -12.227;27845.008
753.628;19645.932;  -10.417;27728.107
754.199;20862.561;  -11.767;27381.086
754.770;21759.836;  -11.187;25882.203
755.341;21744.633;  -10.507;25886.184
755.912;21587.297;   -9.387;26050.861
756.483;20920.250;  -10.647;26798.779
757.054;19022.262;  -11.837;27048.238
757.625;17811.461;  -12.716;26294.838
758.195;17834.822;   -9.666;26142.076
758.766;17688.480;   -8.656;26392.234
759.337;18454.145;  -12.856;26334.594
759.907;20235.262;  -13.366;27579.652
760.478;21009.822;   -8.576;28352.770
761.048;20202.844;  -10.526;27325.088
761.619;19348.512;  -11.116;26460.428
762.189;19538.076;  -12.136;26029.826
762.760;20936.586;   -9.456;26430.145
763.330;21880.244;   -7.136;26670.902
763.900;21071.771;  -11.786;26603.021
764.471;18372.922;  -11.546;25542.740
765.041;17144.373;   -8.096;24358.459
765.611;17277.711;   -8.876;23991.297
766.181;17714.025;  -12.196;24470.236
766.751;18634.500;  -11.636;24845.975
767.321;18289.818;  -10.156;24533.633
767.891;16239.383;  -11.766;24916.492
768.461;15804.944;  -14.936;24776.771
769.031;16468.865;  -12.356;24757.988
769.601;17908.506;   -7.526;24181.088
770.171;17556.666;  -10.766;23670.387
770.741;16911.465;  -13.176;22960.045
771.311;17325.473;  -10.616;22917.523
771.880;17591.453;   -9.576;23562.941
772.450;17280.695;  -10.336;24216.500
773.020;17511.133;  -13.516;24140.398
773.589;17001.814;  -13.466;24414.857
774.159;16345.334;   -8.686;23858.717
774.729;15828.059;   -9.476;22942.135
775.298;15221.910;  -13.666;22324.033
775.867;14816.581;  -11.716;21140.313
776.437;14849.734;   -9.906;20838.092
777.006;14613.458;  -12.166;20599.510
777.576;14575.740;  -12.356;20508.809
778.145;14817.439;  -11.646;20732.947
778.714;14660.010;   -8.226;21062.465
779.283;13850.557;   -9.556;20949.664
779.853;13371.124;  -14.116;20508.623
780.422;13793.566;  -11.506;20649.082
780.991;13398.381;   -9.556;21527.520
781.560;12329.255;   -9.095;22632.658
782.129;12191.774;  -12.135;23048.277
782.698;12204.605;  -10.865;23438.555
783.267;11753.805;   -9.335;23267.734
783.836;11791.722;  -11.045;22415.133
784.404;12932.773;  -13.865;20443.152
784.973;13442.790;  -13.095;19699.150
785.542;13364.964;  -11.575;19763.828
786.111;13203.001;   -9.705;20341.408
786.679;12579.260;  -12.105;20207.967
787.248;12327.206;  -12.455;19516.465
787.817;12160.129;  -11.535;18900.363
788.385;11740.438;   -9.765;17879.121
788.954;11155.590;  -14.005;17658.301
789.522;10689.035;  -11.955;17788.879
790.090;11254.759;  -10.135;18118.277
790.659;11590.268;  -10.975;18338.736
791.227;11061.118;  -13.375;18508.615
791.795;11526.392;  -12.375;17898.254
792.364;11834.734;  -10.725;17295.133
792.932;12081.792;   -9.715;16822.051
793.500;12300.043;  -12.675;17040.148
794.068;12616.127;  -13.495;17179.787
794.636;12693.688;  -10.885;16664.246
795.204;12198.813;  -11.045;16524.545
795.772;12308.165;  -13.175;17274.564
796.340;11795.823;  -12.445;17891.002
796.908;11605.563;   -9.735;17648.561
797.476;11452.813;   -9.815;17064.080
798.044;10990.991;  -13.985;16672.777
798.612;10198.117;  -13.115;17023.996
799.180; 9797.873;  -10.185;16561.615
799.747; 9713.978;   -9.055;15962.773
800.315; 9482.292;  -12.385;15296.992
800.883; 9113.915;  -15.035;14801.771
801.450; 9078.158;  -10.365;14534.430
802.018; 9156.499;   -9.855;14173.248
802.585; 9341.465;  -11.905;14029.547
803.153; 9459.692;  -11.585;13836.846
803.720; 9282.507;   -9.095;13567.324
804.287; 8795.267;   -9.135;13360.622
804.855; 8388.190;  -11.604;13681.981
805.422; 8245.545;  -11.794;13536.560
805.989; 8200.174;  -10.734;13355.958
806.556; 8430.883;  -10.444;13747.896
807.124; 8739.458;  -12.764;13987.376
807.691; 8720.340;  -12.964;14038.674
808.258; 8462.863;  -11.134;14120.152
808.825; 8038.289;   -9.854;13860.111
809.392; 8069.132;  -10.504;13268.790
809.959; 7622.592;  -13.054;12680.389
810.526; 7242.348;   -8.294;12427.308
811.093; 7331.954;   -8.394;12030.105
811.659; 7884.279;  -12.304;11653.664
812.226; 8307.721;  -13.944;11637.183
812.793; 7944.879;  -10.484;11611.521
813.360; 7323.426;  -10.144;11885.181
813.926; 7051.081;  -11.684;12770.539
814.493; 6838.958;  -13.644;12677.638
815.060; 6466.113;   -9.724;11974.336
815.626; 6498.566;   -9.854;11594.715
816.193; 6909.468;  -13.254;11579.474
816.759; 6956.502;  -13.204;11666.972
817.325; 7060.119;   -9.434;11325.530
817.892; 7419.447;  -10.134;11105.369
818.458; 7835.076;  -13.474;10843.928
819.024; 7398.779;  -11.854;10714.406
819.591; 7032.321;  -10.244;10469.165
820.157; 6845.501;  -10.704;10235.523
820.723; 6403.701;  -12.324;10847.563
821.289; 6106.526;   -9.444;11040.980
821.855; 5951.248;   -8.374;10357.100
822.421; 5816.159;  -10.234; 9978.918
822.987; 5760.447;  -13.294; 9754.177
823.553; 5511.188;  -10.884;10065.755
824.119; 5394.390;   -8.884;10036.294
824.685; 5473.906;   -6.784;10029.192
825.251; 5532.438;  -12.004;10199.230
825.816; 5488.863;  -11.474; 9820.189
826.382; 5276.888;   -9.174; 9297.248
826.948; 5532.728;   -9.214; 9381.347
827.513; 5902.922;  -10.774; 9450.726
828.079; 5689.694;  -11.924; 9472.444
828.645; 5162.078;  -10.543; 9292.643
829.210; 5117.995;  -10.533; 9065.341
829.776; 5089.665;  -10.753; 9132.620
830.341; 4952.102;  -10.173; 9092.878
830.906; 5141.131;  -10.743; 9078.557
831.472; 5453.002;  -11.113; 8534.535
832.037; 5125.602;  -10.603; 8677.874
832.602; 4567.412;  -13.323; 8628.692
833.167; 4345.219;  -10.823; 8879.031
833.733; 4296.540;  -10.113; 9189.790
834.298; 4413.146;  -13.583; 9052.608
834.863; 4451.108;  -12.703; 8895.087
835.428; 4444.723;  -10.523; 8824.266
835.993; 4355.830;   -6.963; 8845.385
836.558; 4235.496;  -10.763; 8888.563
837.123; 4380.380;   -9.903; 8966.582
837.688; 4579.322;   -9.913; 8617.860
838.253; 4767.837;  -10.283; 8590.699
838.817; 4954.672;  -12.963; 8443.797
839.382; 4867.311;  -14.243; 8799.356
839.947; 4546.382;  -10.733; 8810.595
840.511; 4232.417;   -9.383; 8796.394
841.076; 3859.670;  -12.563; 8347.231
841.641; 3950.867;  -12.953; 8224.330
842.205; 4056.761;   -7.043; 8223.349
842.770; 4190.097;   -8.163; 8622.107
843.334; 4381.809;  -12.503; 8410.386
843.898; 4369.650;  -11.693; 8337.465
844.463; 4413.070;  -10.203; 8506.283
845.027; 4189.845;   -9.533; 8280.962
845.591; 4007.608;  -13.443; 8231.141
846.156; 3942.279;  -13.143; 7969.179
846.720; 3793.472;   -9.433; 7768.278
847.284; 3651.527;  -11.033; 7630.957
847.848; 3519.537;  -10.403; 7472.395
848.412; 3423.819;  -11.553; 7437.394
848.976; 3462.801;   -8.393; 7674.592
849.540; 3425.080;   -8.713; 7836.011
850.104; 3574.850;  -12.463; 7913.669
850.668; 3922.625;  -12.973; 7694.508
851.232; 3998.396;  -10.793; 7756.887
851.796; 3821.845;  -10.662; 7926.545
852.359; 3527.018;  -13.082; 7827.844
852.923; 3381.039;  -12.192; 7641.163
853.487; 3196.874;  -11.912; 7342.501
854.050; 3136.747;  -10.892; 7042.820
854.614; 3255.778;  -13.992; 7151.338
855.177; 3368.626;  -11.732; 7105.077
855.741; 3407.791;   -8.962; 6989.675
856.304; 3320.518;   -9.442; 6596.634
856.868; 3282.651;  -14.192; 6356.272
857.431; 3403.938;  -12.702; 6468.571
857.995; 3547.743;   -9.942; 6373.210
858.558; 3555.756;   -9.112; 6324.448
859.121; 3280.554;  -12.932; 6408.327
859.684; 3161.961;  -13.442; 6347.886
860.247; 3252.952;  -10.632; 6321.264
860.810; 3221.253;  -11.272; 6301.903
861.374; 2959.857;   -9.832; 6607.881
861.937; 2710.048;  -11.762; 6408.200
862.500; 2718.770;   -9.722; 6572.639
863.062; 2912.366;  -10.512; 6387.297
863.625; 3083.044;  -11.232; 6190.836
864.188; 3243.281;  -14.112; 5807.254
864.751; 3305.666;  -11.302; 5682.413
865.314; 3184.312;  -10.112; 5547.492
865.876; 2994.651;  -12.182; 5500.150
866.439; 3002.375;  -10.722; 5415.909
867.002; 2940.057;   -9.252; 5501.567
867.564; 2708.271;   -9.572; 5413.946
868.127; 2465.697;  -13.142; 5160.325
868.689; 2355.895;  -12.902; 5133.183
869.252; 2249.157;   -9.732; 5252.382
869.814; 2156.759;   -9.432; 5297.141
870.377; 2189.365;  -11.552; 5390.919
870.939; 2276.128;   -9.052; 5599.898
871.501; 2333.353;  -10.982; 5248.336
872.063; 2326.769;  -12.292; 4854.235
872.626; 2290.054;  -14.912; 4817.074
873.188; 2330.303;  -13.112; 4987.732
873.750; 2301.551;  -13.442; 4868.651
874.312; 2206.709;   -9.402; 4779.330
874.874; 2107.786;  -11.062; 4866.348
875.436; 2013.189;  -13.931; 4718.887
875.998; 2003.898;   -9.561; 4660.005
876.560; 2027.684;  -11.321; 4462.964
877.122; 1970.901;  -12.221; 4145.042
877.683; 1884.097;  -12.191; 4056.481
878.245; 1817.977;  -12.101; 3950.740
878.807; 1868.959;   -8.971; 4058.958
879.369; 1903.299;  -12.071; 3954.677
879.930; 1810.443;  -14.621; 3941.495
880.492; 1750.685;  -10.311; 4067.014
881.053; 1696.329;  -10.901; 3859.633
881.615; 1563.562;  -14.411; 3776.071
882.176; 1471.960;  -13.761; 3734.750
882.738; 1464.107;   -9.181; 3678.489
883.299; 1516.326;  -11.791; 3405.407
883.860; 1625.571;  -13.121; 3351.106
884.422; 1660.318;  -11.211; 3394.044
884.983; 1479.106;  -10.091; 3166.443
885.544; 1131.086;   -8.461; 3189.802
886.105;  812.118;  -12.361; 3160.360
886.666;  647.526;  -14.141; 3093.059
887.227;  606.340;  -11.361; 2941.957
887.788;  607.674;  -11.401; 2974.836
888.349;  617.717;  -13.791; 2721.214
888.910;  659.030;  -13.191; 2696.493
889.471;  698.021;   -9.881; 2560.172
890.032;  705.352;   -9.881; 2558.190
890.593;  705.082;  -10.371; 2567.669
891.153;  699.582;  -13.301; 2460.307
891.714;  669.228;  -11.431; 2372.046
892.275;  642.619;  -11.291; 2309.505
892.835;  609.185;  -11.471; 2382.543
893.396;  563.171;  -11.541; 2295.502
893.956;  515.959;  -11.181; 2162.420
894.517;  487.577;  -11.741; 2125.439
895.077;  488.880;  -11.671; 2086.978
895.638;  492.611;  -11.311; 2126.316
896.198;  465.808;   -9.831; 1838.275
896.758;  426.896;   -8.421; 1892.813
897.319;  401.416;  -12.351; 1792.232
897.879;  386.467;  -13.511; 1762.751
898.439;  362.471;  -12.001; 1661.149
898.999;  340.297;  -10.180; 1781.468
899.559;  332.871;  -12.030; 1703.347
900.119;  327.640;  -15.710; 1537.525
900.679;  324.255;   -8.900; 1638.384
901.239;  311.030;   -8.340; 1527.902
901.799;  301.568;  -13.910; 1456.441
902.359;  297.160;  -13.460; 1357.140
902.919;  290.639;  -11.490; 1331.118
903.479;  277.763;  -12.110; 1317.257
904.038;  258.604;  -11.720; 1262.595
904.598;  243.765;  -13.610; 1152.034
905.158;  241.248;  -11.040; 1240.893
905.717;  234.002;  -10.900; 1233.691
906.277;  223.688;  -15.080; 1217.330
906.836;  213.460;  -13.380; 1222.408
907.396;  206.021;  -10.780; 1193.047
907.955;  195.873;   -8.500; 1182.526
908.515;  187.390;  -12.760; 1099.364
909.074;  181.531;  -11.900; 1092.863
909.633;  176.269;   -8.950; 1069.121
910.192;  173.693;   -8.770; 1196.460
910.752;  167.727;  -12.390; 1029.960
911.311;  165.219;  -13.680; 1009.780
911.870;  164.390;  -12.370;  971.460
912.429;  166.074;  -10.900; 1094.080
912.988;  164.556;  -11.690; 1081.060
913.547;  160.455;  -13.240;  940.380
914.106;  155.244;  -11.990;  999.420
914.665;  152.543;   -9.990;  984.020
915.224;  151.913;  -12.880; 1035.760
915.782;  152.521;  -12.350;  922.560
916.341;  152.162;   -9.110; 1049.840
916.900;  147.676;   -9.270;  925.260
917.458;  146.011;  -13.240;  884.220
918.017;  146.022;  -13.550;  942.600
918.576;  145.611;  -12.320;  904.440
919.134;  143.854;  -11.490;  837.980
919.693;  141.205;  -13.670;  893.060
920.251;  139.188;  -15.470;  876.500
920.809;  138.782;  -11.290;  839.580
921.368;  137.798;  -10.210;  885.360
921.926;  137.498;  -12.140;  842.940
922.484;  136.139;  -13.080;  903.360
923.042;  136.102;  -11.720;  880.340
923.601;  138.817;   -7.480;  998.680
924.159;  136.596;  -11.570;  935.560
924.717;  133.532;  -13.840;  841.080
925.275;  133.588;  -10.640;  903.240
925.833;  133.812;  -11.540;  779.320
926.391;  134.017;  -12.960;  938.380
926.949;  132.524;  -14.130;  857.680
927.506;  132.827;  -11.750;  903.500
928.064;  132.574;  -10.250;  877.580
928.622;  131.610;  -13.030;  880.100
929.180;  132.224;  -13.400;  814.180
929.737;  133.667;  -10.700;  808.540
930.295;  136.917;  -10.070;  928.480
930.853;  138.232;  -11.960;  849.100
931.410;  139.790;  -13.120;  821.120
931.968;  138.778;  -10.770;  940.660
932.525;  138.854;  -10.680;  909.380
933.082;  138.443;  -13.130;  811.440
933.640;  139.200;  -13.210;  925.900
934.197;  138.009;  -11.060;  886.360
934.754;  138.300;   -9.580;  897.780
935.312;  141.765;  -14.000;  863.340
935.869;  145.778;  -10.710; 1012.980
936.426;  146.230;   -9.860;  872.800
936.983;  147.837;   -9.710;  889.020
937.540;  146.128;  -13.990;  838.280
938.097;  144.335;  -14.040;  940.120
938.654;  144.164;  -10.310;  898.860
939.211;  147.793;  -10.560;  952.480
939.768;  151.448;  -13.900;  915.420
940.324;  154.546;  -14.760;  904.200
940.881;  154.963;  -10.370;  878.500
941.438;  155.728;   -8.260; 1021.200
941.995;  151.968;  -12.540;  992.560
942.551;  149.956;  -14.670;  875.620
943.108;  150.721;  -10.450;  937.920
943.664;  152.042;  -10.750;  869.340
944.221;  155.770;  -11.550; 1088.140
944.777;  154.041;  -14.770;  869.680
945.334;  155.408;  -12.820;  884.840
945.890;  156.651;  -10.130;  946.480
946.446;  155.850;  -13.470;  947.020
947.003;  157.004;  -12.120;  964.940
947.559;  159.780;   -9.980; 1063.040
948.115;  160.240;   -9.080; 1026.540
948.671;  157.735;  -10.830;  967.300
949.227;  155.961;  -12.440;  859.560
949.783;  153.169;  -12.910;  858.900
950.339;  153.974;  -10.270;  991.000
950.895;  153.762;  -13.630; 1023.840
951.451;  154.030;  -15.100;  925.280
952.007;  154.412;  -11.330;  998.540
952.563;  153.811;  -10.580;  937.780
953.118;  152.481;  -13.440;  904.940
953.674;  153.415;  -12.710;  935.780
954.230;  152.441;  -10.350;  949.640
954.785;  150.150;   -9.190;  936.640
955.341;  148.058;  -11.200;  998.160
955.897;  145.697;  -16.560;  834.660
956.452;  146.981;  -12.570;  953.840
957.008;  146.937;   -7.970; 1083.640
957.563;  144.457;  -11.940; 1009.540
958.118;  139.172;  -13.450;  877.700
958.674;  140.886;  -12.030;  946.780
959.229;  141.925;   -9.410; 1013.980
959.784;  139.246;  -12.000;  832.400
960.339;  139.463;  -14.780; 1001.280
960.894;  135.342;   -9.860;  963.760
961.449;  130.648;   -9.970;  859.960
962.004;  131.080;  -10.900; 1212.840
962.559;  125.672;  -13.150;  860.140
963.114;  124.550;  -13.740;  742.480
963.669;  123.400;   -9.820;  915.500
964.224;  122.317;  -13.890;  874.340
964.779;  120.296;  -12.600;  828.420
965.334;  122.136;  -10.950; 1017.860
965.888;  120.338;  -11.170;  875.360
966.443;  122.899;  -12.540;  972.380
966.998;  122.590;  -15.780;  819.460
967.552;  121.500;   -9.760;  908.380
968.107;  117.729;   -9.060;  868.300
968.661;  119.024;  -11.950;  922.440
969.216;  119.322;  -12.800;  856.280
969.770;  120.903;  -11.210;  917.200
970.324;  119.328;  -11.610;  923.140
970.879;  115.958;  -11.370;  947.180
971.433;  112.457;  -12.540;  952.720
971.987;  107.981;  -11.320;  895.340
972.541;  104.064;  -10.720;  917.100
973.095;  103.940;   -9.680; 1009.460
973.649;  102.807;  -11.440;  809.480
974.203;  101.856;  -11.210;  829.040
974.757;  101.669;  -10.240;  855.220
975.311;  101.697;  -13.720;  872.600
975.865;  100.945;  -13.770;  881.820
976.419;   98.616;  -11.690;  857.400
976.973;   99.591;   -9.510;  849.620
977.526;  100.783;  -12.620;  949.920
978.080;  100.052;  -12.010;  796.780
978.634;  101.122;  -10.170;  921.320
979.187;   97.995;   -9.020;  905.400
979.741;   95.885;   -9.820; 1018.380
980.294;   90.773;  -14.870;  789.160
980.848;   89.629;  -12.380;  717.220
981.401;   91.589;  -10.350;  816.540
981.955;   93.831;  -13.720;  844.300
982.508;   91.935;  -11.490;  746.340
983.061;   92.985;  -10.000;  915.260
983.615;   88.529;  -11.480;  798.800
984.168;   85.990;  -13.220;  770.080
984.721;   85.069;  -13.960;  880.760
985.274;   84.636;  -10.870;  867.500
985.827;   83.477;   -9.790;  834.220
986.380;   80.673;  -13.120;  721.340
986.933;   79.482;  -12.450;  864.800
987.486;   78.205;  -10.210;  861.920
988.039;   77.548;   -8.430;  863.100
988.591;   74.676;  -10.520;  893.260
989.144;   71.989;  -14.860;  737.260
989.697;   71.857;  -13.080;  758.740
990.250;   72.903;  -10.150;  858.100
990.802;   71.490;  -13.430;  755.860
991.355;   72.829;  -12.750;  974.880
991.907;   70.558;  -12.040;  864.320
992.460;   68.286;  -11.330;  753.760
993.012;   67.601;  -13.610;  749.540
993.565;   66.513;  -13.460;  711.360
994.117;   68.477;   -9.360;  950.780
994.669;   64.759;  -11.300;  701.320
995.221;   62.489;  -13.540;  791.920
995.774;   60.493;  -13.430;  787.580
996.326;   59.452;  -12.520;  740.220
996.878;   58.895;  -10.950;  838.420
997.430;   56.334;  -14.300;  699.860
997.982;   55.472;  -13.760;  750.140
998.534;   56.115;  -11.530;  739.060
999.086;   53.889;  -10.310;  738.220
999.638;   52.531;  -12.530;  661.380
1000.190;   52.810;  -11.840;  699.320
1000.741;   51.851;  -10.260;  742.700
1001.293;   52.015;   -8.860;  686.020
1001.845;   49.408;  -13.700;  676.640
1002.396;   50.492;  -12.100;  743.400
1002.948;   49.652;  -12.760;  737.400
1003.500;   48.385;  -10.380;  723.780
1004.051;   49.220;  -11.900;  907.580
1004.603;   46.841;  -12.250;  791.820
1005.154;   43.747;  -13.210;  608.980
1005.705;   42.902;  -10.950;  723.960
1006.257;   42.060;  -13.880;  707.220
1006.808;   41.237;  -12.840;  685.460
1007.359;   41.247;  -10.570;  763.240
1007.910;   40.109;   -9.620;  646.640
1008.461;   39.658;  -13.630;  732.940
1009.013;   39.171;  -17.200;  588.340
1009.564;   39.756;  -10.200;  793.520
1010.115;   37.921;  -12.570;  597.040
1010.665;   36.831;  -15.150;  602.160
1011.216;   37.164;  -14.480;  667.920
1011.767;   36.686;  -11.340;  697.920
1012.318;   37.128;   -9.780;  736.980
1012.869;   36.309;  -12.380;  679.000
1013.419;   35.379;  -15.560;  603.120
1013.970;   35.539;  -11.010;  666.640
1014.521;   34.986;  -11.610;  620.620
1015.071;   35.208;  -13.450;  670.380
1015.622;   34.510;  -13.870;  635.460
1016.172;   34.203;  -11.610;  596.820
1016.723;   34.292;  -12.120;  614.380
1017.273;   33.163;  -13.620;  604.160
1017.823;   34.311;  -14.140;  650.340
1018.374;   32.902;  -12.800;  611.760
1018.924;   33.113;  -12.340;  716.880
1019.474;   33.290;  -11.410;  718.880
1020.024;   31.968;  -14.770;  657.580
1020.574;   32.888;   -9.780;  726.160
1021.124;   33.093;   -8.560;  673.580
1021.674;   31.086;  -15.190;  559.120
1022.224;   33.280;  -13.530;  708.940
1022.774;   32.399;  -13.280;  668.820
1023.324;   32.103;  -10.690;  753.520
1023.874;   33.068;  -10.240;  875.760
1024.423;   31.094;  -12.540;  613.700
1024.973;   30.844;  -10.010;  610.760
1025.523;   30.672;  -10.550;  620.960
1026.072;   29.102;  -13.560;  606.420
1026.622;   29.700;  -15.120;  675.740
1027.172;   30.174;  -11.260;  715.660
1027.721;   29.362;  -11.410;  601.220
1028.270;   29.830;  -13.530;  663.400
1028.820;   29.873;  -13.680;  638.080
1029.369;   29.134;  -13.520;  612.700
1029.918;   29.411;  -10.980;  649.840
1030.468;   28.173;  -13.530;  564.780
1031.017;   28.665;  -13.170;  634.800
1031.566;   27.990;  -12.200;  608.900
1032.115;   28.581;   -9.960;  694.500
1032.664;   26.622;  -13.210;  596.480
1033.213;   28.238;  -12.500;  735.420
1033.762;   27.497;  -11.910;  635.620
1034.311;   27.385;   -9.640;  677.220
1034.860;   28.419;  -13.310;  691.000
1035.408;   27.386;  -11.830;  722.720
1035.957;   27.877;  -12.000;  719.540
1036.506;   25.744;  -11.690;  530.800
1037.055;   28.568;  -10.990;  844.320
1037.603;   26.427;  -15.120;  664.000
1038.152;   24.375;  -12.450;  534.760
1038.700;   25.271;  -10.560;  585.740
1039.249;   25.685;  -11.080;  681.220
1039.797;   25.247;  -12.540;  633.360
1040.345;   25.737;  -11.920;  705.420
1040.894;   24.652;  -11.410;  625.300
1041.442;   24.051;  -14.320;  632.200
1041.990;   24.526;  -16.240;  559.160
1042.538;   24.277;  -11.680;  536.180
1043.087;   23.300;  -10.760;  570.860
1043.635;   25.172;  -11.850;  670.500
1044.183;   23.771;  -15.480;  586.400
1044.731;   23.538;  -11.770;  576.000
1045.279;   23.577;  -13.090;  674.920
1045.827;   24.795;  -12.440;  892.400
1046.374;   22.832;  -13.840;  515.420
1046.922;   21.878;  -13.220;  590.580
1047.470;   23.954;  -10.230;  691.300
1048.018;   23.173;  -14.590;  647.960
1048.565;   23.864;  -12.050;  708.600
1049.113;   22.035;  -11.650;  557.000
1049.660;   21.763;  -10.510;  629.660
1050.208;   22.750;  -13.310;  675.640
1050.755;   21.328;  -15.900;  606.580
1051.303;   22.927;  -11.430;  686.820
1051.850;   21.871;   -8.480;  635.120
1052.397;   20.205;  -15.010;  473.960
1052.945;   20.522;  -13.960;  617.760
1053.492;   22.171;  -13.150;  741.840
1054.039;   22.116;   -9.630;  720.180
1054.586;   20.494;  -13.680;  557.240
1055.133;   21.096;  -14.570;  693.140
1055.680;   21.509;  -13.820;  646.620
1056.227;   20.069;  -11.730;  542.780
1056.774;   21.863;  -12.480;  794.980
1057.321;   19.754;  -13.930;  523.260
1057.868;   21.239;  -11.690;  651.320
1058.415;   20.091;   -9.520;  651.980
1058.961;   20.048;  -13.160;  678.940
1059.508;   20.142;  -12.920;  643.820
1060.055;   19.286;  -11.920;  581.780
1060.601;   20.057;  -11.500;  624.300
1061.148;   19.430;  -14.330;  616.820
1061.694;   19.135;  -16.870;  592.580
1062.241;   19.079;  -10.330;  596.320
1062.787;   18.938;  -10.620;  663.140
1063.334;   20.609;  -10.110;  808.560
1063.880;   18.822;  -13.400;  668.360
1064.426;   19.352;  -10.680;  706.820
1064.972;   18.258;   -9.920;  601.340
1065.518;   16.955;  -10.980;  566.640
1066.065;   18.062;  -14.890;  624.460
1066.611;   17.511;  -12.870;  598.800
1067.157;   18.694;  -12.950;  641.860
1067.703;   18.064;  -13.540;  668.480
1068.249;   17.818;  -13.540;  605.220
1068.794;   17.732;  -12.600;  626.880
1069.340;   16.740;  -10.620;  578.960
1069.886;   17.665;  -12.830;  590.700
1070.432;   16.329;  -14.870;  541.720
1070.977;   15.977;  -11.980;  601.080
1071.523;   16.176;   -8.200;  573.060
1072.068;   16.438;  -12.330;  582.000
1072.614;   16.330;  -16.370;  527.760
1073.160;   17.665;  -11.100;  687.040
1073.705;   15.644;  -10.480;  572.520
1074.250;   15.849;  -14.520;  559.900
1074.796;   16.577;  -11.460;  655.160
1075.341;   16.693;  -11.950;  664.100
1075.886;   15.748;  -11.460;  594.240
1076.431;   15.199;  -13.770;  649.880
1076.976;   15.650;  -12.680;  639.220
1077.521;   14.874;  -13.170;  583.080
1078.067;   14.691;  -10.860;  579.400
1078.612;   14.934;  -13.920;  661.620
1079.156;   15.092;  -13.880;  601.540
1079.701;   15.557;  -13.120;  693.260
1080.246;   15.690;   -9.940;  696.300
1080.791;   15.335;  -14.740;  625.020
1081.336;   15.055;  -13.750;  659.320
1081.880;   14.890;  -13.400;  649.680
1082.425;   14.028;  -12.220;  573.480
1082.970;   15.118;  -11.610;  717.040
1083.514;   13.850;  -13.580;  597.000
1084.059;   13.830;  -12.810;  586.720
1084.603;   13.194;  -12.320;  565.840
1085.147;   14.228;  -13.190;  645.220
1085.692;   14.213;  -12.480;  716.800
1086.236;   12.794;  -13.020;  503.140
1086.780;   14.415;   -9.190;  751.440
1087.325;   13.566;  -12.480;  654.620
1087.869;   13.868;  -12.450;  610.700
1088.413;   13.629;  -12.240;  705.040
1088.957;   11.668;   -9.020;  543.400
1089.501;   13.783;  -10.320;  766.640
1090.045;   13.193;  -12.720;  726.480
1090.589;   11.213;  -13.690;  569.920
1091.133;   12.417;  -10.020;  673.340
1091.676;   12.113;  -12.330;  591.940
1092.220;   12.401;  -14.970;  600.920
1092.764;   12.404;  -12.430;  706.960
1093.307;   12.455;   -9.800;  673.780
1093.851;   11.033;  -14.970;  556.540
1094.395;   12.068;  -15.310;  683.140
1094.938;   11.828;  -10.370;  632.520
1095.482;   11.673;  -11.050;  559.800
1096.025;   11.775;  -11.840;  710.880
1096.568;   12.153;  -12.840;  779.280
1097.112;    9.519;  -14.700;  508.180
1097.655;   11.790;   -8.720;  603.000
1098.198;    9.767;  -13.610;  600.180
1098.741;    9.750;  -13.350;  612.860
1099.285;   11.914;  -11.230;  657.300
1099.828;    9.017;  -11.840;  439.400
1100.371;   10.065;  -10.840;  608.160
1100.914;   10.491;  -14.190;  682.660
1101.457;   10.492;  -11.240;  679.900
1101.999;    8.891;  -11.270;  584.680
1102.542;   10.414;  -11.480;  641.440
1103.085;    9.887;  -11.750;  658.500
1103.628;   10.561;  -11.400;  762.060
1104.170;   10.219;  -10.490;  588.280
1104.713;    8.966;  -10.600;  646.700
1105.256;    9.931;  -14.360;  557.440
1105.798;    8.317;  -13.210;  499.980
1106.341;   10.175;  -10.270;  728.900
1106.883;    9.398;  -12.200;  521.340
1107.425;    9.229;  -13.110;  668.180
1107.968;    9.090;  -12.840;  612.380
1108.510;    8.882;   -6.480;  684.960
1109.052;    7.745;  -13.940;  612.620
1109.594;    8.266;  -13.690;  554.440
1110.136;    8.917;  -11.880;  643.220
1110.679;    7.676;   -9.500;  633.080
1111.221;    9.329;  -14.160;  604.460
1111.763;    8.503;  -13.980;  559.220
1112.304;    7.162;  -13.880;  547.140
1112.846;    8.066;  -12.210;  666.240
1113.388;    9.972;  -11.390;  942.180
1113.930;    7.813;  -14.540;  694.200
1114.472;    7.410;  -12.640;  606.540
1115.013;    6.574;  -11.620;  551.280
1115.555;    6.835;  -13.640;  587.100
1116.097;    5.972;  -15.380;  579.480
1116.638;    8.336;  -12.640;  684.600
1117.180;    8.105;   -9.850;  667.740
1117.721;    6.821;  -13.690;  568.580
1118.262;    7.592;  -12.680;  677.960
1118.804;    7.164;  -12.530;  637.340
1119.345;    6.253;  -11.690;  578.400
1119.886;    7.464;  -13.380;  704.040
1120.427;    6.239;  -14.070;  589.020
1120.969;    6.009;  -13.500;  597.920
1121.510;    5.939;  -11.480;  563.060
1122.051;    6.370;  -12.830;  723.580
1122.592;    5.838;  -14.290;  655.420
1123.133;    4.872;  -12.400;  547.940
1123.673;    6.723;  -10.130;  706.480
1124.214;    6.091;  -12.930;  612.460
1124.755;    6.068;  -14.380;  639.460
1125.296;    6.446;  -14.000;  627.320
1125.836;    6.462;  -10.070;  691.500
1126.377;    4.749;  -12.640;  599.660
1126.918;    6.011;  -12.960;  614.980
1127.458;    5.171;  -13.350;  622.220
1127.999;    6.099;  -10.750;  656.980
1128.539;    5.333;  -12.350;  694.240
1129.079;    4.763;  -14.860;  632.720
1129.620;    3.858;  -13.840;  558.100
1130.160;    4.077;  -12.330;  539.480
1130.700;    4.982;  -14.530;  640.840
1131.240;    4.881;  -12.530;  643.700
1131.781;    4.355;  -14.450;  619.680
1132.321;    4.538;   -9.790;  599.120
1132.861;    2.789;  -14.860;  564.200
1133.401;    3.468;  -14.290;  593.940
1133.941;    4.550;  -11.750;  626.280
1134.481;    4.088;   -9.920;  597.580
1135.020;    2.882;  -12.290;  609.160
1135.560;    4.602;  -11.650;  674.940
1136.100;    2.976;  -16.270;  501.160
1136.640;    3.031;  -10.890;  510.480
1137.179;    2.784;  -14.180;  537.960
1137.719;    3.234;  -16.250;  605.400
1138.258;    3.716;  -14.230;  587.360
1138.798;    3.962;   -9.090;  663.780
1139.337;    2.064;  -15.130;  482.840
1139.877;    3.025;  -13.680;  642.360
1140.416;    5.393;  -11.320;  878.060
1140.955;    3.143;  -10.860;  535.380
1141.494;    2.838;  -12.920;  669.280
1142.034;    2.609;  -13.930;  583.520
1142.573;    3.632;  -11.440;  646.280
1143.112;    2.942;  -12.000;  553.480
1143.651;    2.725;  -13.670;  536.480
1144.190;    3.453;  -12.730;  691.640
1144.729;    1.987;  -14.560;  607.420
1145.267;    2.386;  -11.830;  584.900
1145.806;    3.029;  -12.230;  637.040
1146.345;    2.022;  -14.130;  635.020
1146.884;    2.281;  -11.590;  622.500
1147.422;    1.167;  -12.550;  533.060
1147.961;    3.545;  -11.180;  708.460
1148.500;    2.368;  -11.510;  669.720
1149.038;    3.289;  -11.640;  632.500
1149.577;    2.627;  -10.130;  698.640
1150.115;    0.328;  -13.970;  452.280
1150.653;    1.751;  -14.520;  607.340
1151.192;    1.647;  -12.810;  552.920
1151.730;    1.612;   -9.100;  652.560
1152.268;    1.272;  -12.220;  589.520
1152.806;    1.448;  -14.140;  571.180
1153.344;    0.126;  -12.350;  577.640
1153.882;    1.067;   -8.980;  600.060
1154.421;   -0.180;  -15.190;  470.620
1154.958;    0.989;  -15.210;  595.240
1155.496;    1.547;  -12.850;  645.280
1156.034;    1.056;   -9.940;  721.880
1156.572;    2.334;  -13.570;  667.060
1157.110;    0.028;  -14.590;  473.940
1157.647;    2.131;  -13.030;  676.960
1158.185;    0.694;  -12.140;  564.320
1158.723;   -0.540;  -14.390;  509.200
1159.260;    0.487;  -14.090;  701.700
1159.798;    1.520;  -11.920;  658.160
1160.335;   -0.188;  -11.110;  631.820

