
Integration time [ms]:   3.276
Averaging Nr. [scans]: 1000
Smoothing Nr. [pixels]: 0
Data measured with spectrometer [name]: 7414430SP
Wave   ;Sample   ;Dark     ;Reference
[nm]   ;[counts] ;[counts] ;[counts] 

288.544;  149.880;    7.793;  793.890
289.143;  154.005;    7.462;  681.602
289.742;  155.048;    8.602;  828.814
290.341;  139.350;    1.321;  789.841
290.940;  128.887;   -0.709;  730.702
291.538;  130.839;    0.881;  881.108
292.137;  130.098;    0.122;  792.581
292.736;  135.259;   -1.929;  975.101
293.335;  131.876;   -8.229;  735.086
293.934;  131.738;   -5.279;  781.677
294.532;  129.695;   -1.369; 1031.958
295.131;  115.881;   -7.641;  834.394
295.730;  116.065;   -8.420;  809.588
296.328;  115.526;   -5.611;  783.442
296.927;  116.140;   -5.781;  779.652
297.525;  116.492;   -6.361;  781.236
298.124;  107.602;  -11.382;  654.009
298.722;  111.148;   -7.641;  761.933
299.321;  109.093;   -6.811;  708.597
299.919;  106.851;   -6.991;  751.918
300.518;  104.178;  -10.362;  689.338
301.116;  105.979;   -9.581;  691.381
301.715;  105.771;   -4.891;  730.222
302.313;  103.597;   -8.801;  704.943
302.911;   99.963;   -8.522;  733.830
303.509;  104.836;   -6.171;  925.627
304.108;  102.853;   -7.311;  760.383
304.706;  102.207;   -8.321;  801.664
305.304;   95.740;  -10.222;  796.707
305.902;  101.376;   -6.021;  784.484
306.500;   97.423;   -4.971;  728.200
307.098;   95.736;   -7.061;  746.560
307.696;   93.979;   -8.801;  780.432
308.294;   94.541;   -6.411;  731.359
308.892;   96.439;   -2.901;  759.769
309.490;   92.908;   -5.041;  712.161
310.088;   91.451;   -5.002;  788.444
310.686;   95.243;   -2.041;  821.749
311.284;   90.965;   -2.351;  766.040
311.882;   88.199;   -4.422;  731.225
312.480;   84.662;   -4.192;  697.167
313.078;   87.347;   -1.172;  808.331
313.675;   87.805;   -2.601;  691.600
314.273;   82.627;   -1.312;  797.837
314.871;   81.881;   -3.942;  589.829
315.468;   80.997;   -2.802;  652.090
316.066;   83.741;   -0.701;  694.427
316.664;   75.153;   -4.362;  656.351
317.261;   79.477;   -2.872;  910.128
317.859;   74.692;   -2.022;  768.735
318.456;   75.852;   -0.531;  830.096
319.054;   71.920;   -3.912;  787.828
319.651;   70.978;   -4.752;  759.928
320.249;   70.947;   -2.602;  810.188
320.846;   67.165;   -0.821;  714.286
321.443;   64.290;   -4.642;  832.135
322.041;   61.955;   -5.002;  812.315
322.638;   59.784;   -3.982;  701.456
323.235;   61.502;   -3.411;  665.683
323.833;   57.965;   -7.361;  740.354
324.430;   53.220;   -8.611;  615.900
325.027;   54.716;   -4.061;  876.855
325.624;   54.499;   -4.031;  644.532
326.221;   51.652;   -7.481;  689.717
326.818;   50.282;   -5.281;  818.332
327.415;   54.182;   -7.460;  748.828
328.012;   53.102;   -5.510;  690.585
328.609;   52.456;   -7.880;  731.389
329.206;   50.459;   -8.331;  778.621
329.803;   50.697;   -5.121;  737.841
330.400;   53.500;   -4.510;  704.260
330.997;   53.667;   -6.441;  817.147
331.594;   53.088;   -8.831;  788.185
332.191;   57.878;   -7.621;  728.722
332.787;   61.609;   -4.591;  844.463
333.384;   59.971;   -7.412;  763.093
333.981;   58.810;   -8.293;  815.687
334.578;   60.973;   -7.052;  708.378
335.174;   64.571;   -3.102;  731.469
335.771;   63.208;   -5.943;  836.456
336.367;   60.615;   -7.393;  710.631
336.964;   64.061;   -4.063;  793.266
337.561;   62.191;   -3.813;  731.112
338.157;   58.075;   -4.654;  911.916
338.754;   55.337;   -7.934;  796.589
339.350;   53.171;   -4.414;  722.493
339.946;   55.091;   -4.664;  773.135
340.543;   47.090;   -6.375;  846.136
341.139;   41.556;   -9.815;  720.836
341.735;   40.354;   -4.526;  772.593
342.332;   38.645;   -4.895;  691.472
342.928;   38.990;   -4.295;  795.394
343.524;   33.165;   -5.476;  761.684
344.120;   29.527;   -5.856;  738.562
344.716;   32.596;   -2.155;  723.717
345.313;   30.135;   -6.275;  795.342
345.909;   24.592;   -8.815;  627.336
346.505;   27.244;   -5.305;  740.247
347.101;   27.312;   -2.674;  827.864
347.697;   28.415;   -4.344;  785.398
348.293;   22.364;   -9.975;  627.244
348.889;   23.092;   -5.774;  745.914
349.485;   22.688;   -5.004;  688.205
350.081;   22.905;   -4.704;  772.592
350.676;   18.209;   -6.635;  691.606
351.272;   22.590;   -4.504;  809.530
351.868;   21.313;   -3.914;  780.497
352.464;   19.452;   -9.044;  723.932
353.059;   15.556;   -8.314;  646.017
353.655;   19.309;   -7.024;  777.063
354.251;   19.928;   -5.343;  759.845
354.846;   13.526;   -8.604;  740.646
355.442;   12.591;   -6.945;  753.071
356.038;   15.560;   -7.564;  751.708
356.633;   14.828;   -5.814;  728.594
357.229;   12.478;   -7.364;  724.757
357.824;   11.180;   -8.024;  703.600
358.420;    9.663;   -9.384;  679.726
359.015;   10.166;   -5.104;  695.357
359.610;   11.460;   -6.854;  763.920
360.206;    5.389;  -10.185;  603.240
360.801;    8.698;   -7.054;  646.503
361.396;   10.556;   -5.034;  725.975
361.992;    5.606;   -8.284;  668.220
362.587;    3.036;   -8.625;  670.160
363.182;    5.081;   -7.674;  689.631
363.777;    5.632;   -5.164;  738.242
364.372;    4.865;   -8.604;  737.314
364.967;    1.306;   -9.055;  680.744
365.563;    6.293;   -6.114;  815.567
366.158;    3.514;   -5.814;  685.161
366.753;    3.093;   -7.854;  649.263
367.348;    1.271;   -7.804;  746.056
367.942;    1.870;   -7.954;  697.298
368.537;    1.307;   -4.984;  754.245
369.132;    0.952;   -8.564;  703.428
369.727;   -3.379;   -8.855;  638.079
370.322;   -1.712;   -6.245;  580.186
370.917;   -1.597;   -6.425;  710.646
371.511;    0.031;   -6.294;  861.834
372.106;   -2.684;   -7.685;  776.964
372.701;   -6.325;   -7.335;  585.988
373.296;   -0.050;   -4.564;  863.135
373.890;   -4.621;  -10.235;  647.840
374.485;   -7.303;   -7.885;  691.199
375.079;   -3.071;   -7.324;  738.685
375.674;   -1.829;   -3.494;  812.970
376.268;   -6.518;   -8.525;  691.759
376.863;  -12.298;  -10.086;  580.327
377.457;   -5.665;   -7.025;  662.490
378.052;   -8.064;   -3.585;  764.884
378.646;   -8.443;   -7.595;  741.167
379.240;   -9.066;   -8.335;  721.176
379.835;   -8.329;   -5.785;  636.978
380.429;   -9.780;   -4.335;  562.557
381.023;  -10.214;   -6.805;  779.205
381.617;  -12.655;   -9.195;  680.106
382.212;   -7.867;   -6.905;  685.303
382.806;   -7.782;   -3.745;  760.690
383.400;  -12.723;   -7.745;  672.281
383.994;  -13.382;   -9.765;  664.870
384.588;   -9.577;   -6.564;  697.701
385.182;   -7.841;   -5.344;  726.624
385.776;   -9.438;   -8.514;  706.875
386.370;  -13.261;   -9.555;  681.968
386.964;  -11.996;   -8.715;  684.155
387.558;   -9.689;   -6.174;  598.360
388.152;  -12.800;   -8.725;  681.959
388.745;  -11.591;   -7.965;  814.707
389.339;   -9.372;   -5.924;  747.642
389.933;   -8.840;   -5.524;  695.370
390.527;  -10.887;   -7.114;  859.029
391.120;  -16.862;  -10.725;  595.318
391.714;  -12.824;   -8.035;  711.633
392.308;   -9.930;   -3.574;  780.253
392.901;  -14.304;   -7.245;  642.460
393.495;  -15.268;   -9.285;  595.414
394.089;  -14.242;   -5.895;  760.452
394.682;  -14.625;   -4.295;  697.188
395.275;  -15.046;   -9.875;  719.927
395.869;  -16.259;   -8.485;  667.314
396.462;  -14.336;   -7.455;  616.609
397.056;  -10.812;   -5.424;  776.621
397.649;  -15.605;   -6.605;  731.575
398.242;  -12.632;   -8.224;  712.645
398.836;  -12.107;   -7.474;  766.408
399.429;  -12.933;   -7.094;  631.041
400.022;  -17.137;   -9.475;  665.902
400.615;  -13.700;   -7.145;  805.609
401.208;  -12.372;   -7.174;  691.451
401.802;  -14.736;   -5.515;  699.329
402.395;  -15.688;   -9.875;  683.502
402.988;  -17.204;   -8.845;  696.627
403.581;  -12.909;   -8.874;  646.878
404.174;  -10.522;   -5.324;  686.568
404.767;  -14.378;   -9.575;  638.583
405.360;  -16.811;  -10.965;  621.445
405.953;  -11.283;   -8.764;  759.034
406.545;  -10.975;   -7.514;  725.342
407.138;  -15.077;  -10.025;  618.350
407.731;  -13.639;  -10.034;  613.303
408.324;   -8.706;   -9.374;  660.554
408.917;  -10.309;   -6.534;  681.864
409.509;  -12.456;   -8.004;  740.396
410.102;  -14.206;   -9.875;  643.948
410.695;   -8.724;   -8.604;  665.758
411.287;   -9.290;   -6.794;  599.821
411.880;  -10.478;   -9.334;  585.421
412.472;  -13.620;  -10.254;  613.092
413.065;   -9.862;   -6.714;  629.408
413.657;   -9.138;   -7.234;  576.678
414.250;   -8.598;  -10.544;  646.681
414.842;  -11.001;   -9.744;  676.353
415.434;   -7.550;   -6.994;  570.463
416.027;   -4.154;   -5.893;  652.196
416.619;   -5.981;   -7.264;  713.400
417.211;   -7.206;  -10.374;  599.352
417.804;   -2.866;   -7.993;  628.499
418.396;   -6.312;   -7.234;  607.643
418.988;   -5.426;   -9.443;  659.238
419.580;   -8.210;  -10.724;  568.276
420.172;   -5.933;  -10.323;  536.196
420.764;   -1.568;   -8.793;  672.482
421.356;   -3.197;  -11.143;  636.898
421.948;   -3.891;   -8.293;  677.661
422.540;    0.987;   -7.893;  680.027
423.132;    0.359;   -7.082;  600.641
423.724;   -3.220;   -8.653;  561.267
424.316;   -0.896;  -10.213;  621.345
424.908;    2.574;   -9.762;  591.517
425.500;    3.687;   -5.572;  647.978
426.092;    4.045;   -8.422;  648.268
426.683;    2.190;   -9.283;  684.836
427.275;    5.318;   -7.852;  641.471
427.867;    7.312;   -5.272;  668.948
428.458;    7.021;   -7.682;  732.344
429.050;    5.787;  -10.612;  680.749
429.642;    8.765;   -9.882;  743.124
430.233;    8.525;   -6.962;  569.356
430.825;   10.206;   -6.842;  724.809
431.416;    7.351;   -9.672;  698.241
432.008;   11.200;   -6.552;  651.723
432.599;   11.769;   -6.891;  656.073
433.190;    8.356;  -10.912;  637.670
433.782;    7.840;  -11.172;  590.395
434.373;   15.457;   -6.061;  884.765
434.964;   12.943;   -8.251;  602.920
435.556;   11.131;   -9.722;  634.537
436.147;   14.511;   -9.082;  758.490
436.738;   14.328;   -8.041;  701.099
437.329;   20.008;   -7.341;  721.723
437.920;   12.488;   -8.162;  666.688
438.511;   12.544;  -11.802;  564.526
439.103;   19.685;  -10.191;  623.998
439.694;   21.456;   -7.601;  681.583
440.285;   22.044;   -8.541;  764.432
440.876;   19.861;   -9.751;  845.738
441.466;   19.541;   -9.401;  575.162
442.057;   24.937;   -7.760;  665.814
442.648;   22.852;   -9.971;  746.255
443.239;   21.702;  -11.001;  620.477
443.830;   26.438;   -7.990;  704.958
444.421;   28.044;   -7.910;  655.474
445.011;   24.714;   -8.131;  693.619
445.602;   24.471;   -7.111;  743.126
446.193;   26.971;  -10.920;  488.117
446.783;   30.825;   -6.500;  640.397
447.374;   26.015;   -8.671;  692.759
447.964;   26.600;  -10.781;  713.770
448.555;   35.114;   -9.650;  822.742
449.145;   31.994;   -8.660;  662.853
449.736;   32.754;   -8.990;  803.179
450.326;   32.125;   -9.500;  713.626
450.917;   37.260;   -8.680;  675.324
451.507;   36.869;   -7.520;  600.661
452.097;   37.120;   -8.590;  746.267
452.688;   37.872;  -11.340;  742.160
453.278;   39.142;  -10.100;  566.840
453.868;   41.781;   -6.019;  793.550
454.458;   40.636;   -9.440;  651.141
455.048;   40.291;  -10.560;  711.783
455.639;   42.697;  -11.799;  567.096
456.229;   45.671;   -6.899;  710.694
456.819;   47.355;   -7.389;  751.158
457.409;   47.966;  -11.119;  773.993
457.999;   50.802;   -9.289;  737.505
458.589;   50.929;   -6.139;  686.606
459.179;   50.370;   -8.729;  717.658
459.769;   49.160;   -9.789;  627.099
460.358;   53.164;  -10.259;  797.262
460.948;   53.735;   -7.299;  689.503
461.538;   55.289;  -10.289;  660.677
462.128;   52.984;  -11.269;  664.934
462.717;   59.714;   -9.368;  710.326
463.307;   62.805;   -7.908;  705.846
463.897;   58.450;   -9.599;  656.942
464.486;   57.828;   -9.769;  837.128
465.076;   62.184;   -8.048;  733.776
465.666;   66.237;   -9.358;  652.900
466.255;   63.189;   -7.919;  785.651
466.845;   62.330;  -11.689;  666.749
467.434;   66.217;   -7.818;  725.873
468.023;   66.327;   -7.678;  658.357
468.613;   64.226;  -10.939;  713.946
469.202;   69.029;  -10.118;  646.507
469.791;   72.309;   -9.108;  737.811
470.381;   74.146;   -6.058;  742.813
470.970;   73.842;  -10.428;  711.099
471.559;   74.015;  -10.268;  733.291
472.148;   77.242;   -8.448;  675.737
472.738;   79.945;   -6.917;  765.466
473.327;   79.126;  -11.978;  637.529
473.916;   78.367;  -11.888;  737.446
474.505;   83.387;   -9.437;  751.703
475.094;   86.086;   -6.747;  806.570
475.683;   85.517;   -9.367;  797.699
476.272;   86.987;  -12.637;  730.632
476.861;   89.529;  -10.027;  706.754
477.449;   96.318;   -8.716;  728.487
478.038;   90.509;   -9.577;  692.513
478.627;   90.860;   -9.718;  714.852
479.216;   98.131;   -8.947;  769.441
479.805;  100.548;   -6.256;  783.375
480.393;  100.850;   -7.937; 1008.945
480.982;   99.472;   -7.717;  874.501
481.571;  106.948;   -9.266;  858.333
482.159;  106.164;   -7.636;  705.386
482.748;  106.761;   -9.667;  821.385
483.336;  110.408;  -10.376;  858.209
483.925;  111.899;   -7.147;  774.373
484.513;  118.153;   -7.996;  758.962
485.102;  114.114;  -10.027;  810.965
485.690;  122.999;  -10.446; 1011.050
486.278;  125.757;   -8.446;  979.329
486.867;  126.563;   -6.356;  809.662
487.455;  127.922;   -9.136;  898.229
488.043;  129.106;  -10.646;  748.361
488.631;  138.572;   -7.456; 1005.079
489.220;  142.329;   -6.636;  908.626
489.808;  142.481;  -11.036;  741.415
490.396;  150.031;  -10.246;  914.645
490.984;  155.616;   -8.556;  830.161
491.572;  165.637;   -5.886;  940.315
492.160;  169.951;   -9.486;  919.081
492.748;  182.347;  -10.976;  884.341
493.336;  205.461;   -8.776; 1019.693
493.924;  231.049;   -5.465;  958.077
494.512;  257.319;   -9.986; 1066.638
495.100;  294.226;  -10.636; 1103.280
495.687;  348.155;  -10.885; 1206.373
496.275;  410.794;   -8.126; 1150.796
496.863;  481.490;  -10.586; 1281.171
497.451;  582.418;  -11.926; 1386.805
498.038;  710.710;  -10.885; 1556.729
498.626;  821.127;   -6.315; 1741.407
499.214;  971.313;   -7.326; 2016.609
499.801; 1166.312;  -11.906; 2220.633
500.389; 1414.580;  -10.466; 2312.494
500.976; 1726.240;   -5.236; 2744.849
501.564; 2165.546;   -8.936; 3148.565
502.151; 2533.439;  -13.176; 3515.999
502.738; 2981.716;  -10.646; 3971.274
503.326; 3377.383;   -9.525; 4403.796
503.913; 3770.431;  -10.856; 5161.749
504.500; 4137.058;  -11.586; 5986.420
505.088; 4571.603;  -10.336; 6381.201
505.675; 5105.538;   -6.355; 6925.547
506.262; 5832.232;   -9.046; 7619.060
506.849; 6538.854;  -10.416; 8733.969
507.436; 7002.433;  -10.305; 9790.121
508.023; 7576.574;   -5.496; 9985.472
508.610; 7847.436;   -7.856;10434.618
509.197; 8488.250;  -10.097;11198.435
509.784; 9847.979;  -10.886;12391.194
510.371;10885.173;   -9.315;13603.713
510.958;11611.171;   -9.936;14426.586
511.545;12378.527;   -9.326;15243.775
512.132;13218.365;  -10.075;15945.876
512.719;13754.656;   -7.796;16340.369
513.305;14704.779;  -10.606;18011.766
513.892;15472.479;  -11.486;19754.971
514.479;16820.719;   -9.126;20967.805
515.066;18309.355;   -6.026;22299.793
515.652;19577.355;   -8.466;22908.660
516.239;20803.545;  -10.886;23798.875
516.825;21761.158;  -11.496;25567.275
517.412;22714.248;   -5.796;28154.959
517.998;23281.529;  -10.506;28344.111
518.585;23357.270;  -10.076;27134.219
519.171;23905.031;   -8.315;27268.576
519.758;25287.088;   -8.596;28964.129
520.344;27095.494;   -8.466;30664.494
520.930;27041.152;  -11.006;32550.605
521.516;28197.529;  -10.495;35422.895
522.103;30357.459;   -5.526;38280.004
522.689;30898.834;   -8.746;37835.117
523.275;30445.445;  -11.376;37288.613
523.861;31706.701;  -11.156;37281.395
524.447;33006.711;   -8.135;37846.949
525.033;32702.412;   -7.896;38321.949
525.619;32661.473;  -12.476;38579.285
526.205;33961.742;   -9.516;40622.875
526.791;35931.578;   -6.926;42258.836
527.377;35644.543;   -8.346;42966.902
527.963;35722.609;   -8.717;42018.949
528.549;32222.410;  -11.016;42476.828
529.135;29706.635;   -8.536;41854.852
529.721;30589.979;   -9.666;41237.711
530.306;32692.428;  -10.066;41259.445
530.892;34300.488;  -11.356;41506.047
531.478;36324.324;   -6.596;43559.613
532.063;39315.504;   -8.836;47695.563
532.649;39763.000;  -10.047;50808.324
533.235;40334.508;   -9.746;51787.500
533.820;40589.953;   -6.566;52145.035
534.406;41707.188;  -10.817;51133.488
534.991;41165.461;   -9.416;49996.805
535.576;39384.156;   -9.036;48882.852
536.162;39167.777;   -6.156;46942.285
536.747;38471.922;  -11.607;45711.746
537.333;39081.355;  -11.787;48510.180
537.918;38839.441;  -12.437;50439.891
538.503;37198.215;   -7.196;50863.711
539.088;36752.078;  -10.556;50906.922
539.673;40639.961;   -8.767;52621.965
540.259;43857.781;  -10.026;52368.094
540.844;42786.391;   -7.416;50879.109
541.429;44477.500;   -9.467;52077.777
542.014;47377.512;   -9.527;52716.695
542.599;46638.559;   -9.946;52363.281
543.184;44192.082;   -7.927;53187.137
543.769;45620.617;   -9.297;54697.605
544.354;45132.516;  -10.127;53913.914
544.938;43897.637;   -9.267;49680.164
545.523;45804.742;   -6.506;47386.277
546.108;48531.109;   -9.787;49151.949
546.693;50503.492;  -11.587;51384.637
547.278;50331.926;  -10.986;51853.254
547.862;47434.098;   -8.206;51173.750
548.447;42840.879;  -10.067;51691.395
549.031;42310.277;   -9.637;52456.703
549.616;47276.578;   -9.926;52714.516
550.201;46517.543;   -6.347;52414.598
550.785;47623.105;   -7.917;52355.059
551.370;46771.441;  -10.867;54589.453
551.954;46432.402;   -9.047;58267.348
552.538;47289.680;   -7.827;59062.176
553.123;45599.730;  -10.287;58115.285
553.707;43311.668;  -12.178;56556.285
554.291;44755.547;   -8.717;56201.668
554.876;47228.188;   -7.457;55335.762
555.460;47455.078;  -10.387;54155.703
556.044;48417.352;   -9.618;53721.484
556.628;47106.906;  -11.567;53731.016
557.212;46000.520;   -8.097;54312.531
557.796;44455.488;  -11.077;53797.773
558.380;44424.555;  -11.108;56145.984
558.964;44819.145;   -9.057;57277.930
559.548;46093.836;   -6.977;56459.641
560.132;44419.301;  -11.457;54434.543
560.716;42926.402;  -11.378;54800.617
561.300;44064.516;   -9.577;57606.945
561.884;45339.441;   -7.127;58972.445
562.467;43725.570;   -7.118;57327.570
563.051;43036.098;  -13.358;54962.434
563.635;44025.750;  -10.178;52594.473
564.219;44352.957;   -7.837;50610.410
564.802;45312.629;  -11.398;49551.180
565.386;45179.445;  -12.788;48370.953
565.969;44452.910;   -9.077;48178.871
566.553;43633.152;   -6.207;49957.305
567.136;44310.797;   -8.568;50369.594
567.720;40700.688;  -11.868;49492.004
568.303;38643.277;   -8.268;50616.352
568.887;38648.633;   -8.698;50727.148
569.470;38852.492;   -6.808;51698.379
570.053;37436.930;  -13.188;52122.078
570.637;35860.996;  -12.037;52536.438
571.220;35879.770;   -8.577;51186.098
571.803;36585.988;   -8.498;51032.762
572.386;38747.840;  -10.498;49609.887
572.969;41223.676;   -9.388;48285.926
573.552;39354.875;   -8.338;47624.285
574.135;37959.363;   -8.518;45498.641
574.718;35669.945;  -13.628;41970.434
575.301;34648.594;  -10.893;41447.137
575.884;33627.246;   -8.158;40923.836
576.467;34782.570;  -10.328;45267.723
577.050;36707.980;  -13.058;48175.543
577.633;38074.500;   -9.458;47729.328
578.216;37203.082;   -8.928;47579.793
578.799;36311.543;   -9.358;47820.996
579.381;35137.730;  -11.388;48115.551
579.964;33245.281;  -11.718;47333.766
580.547;34953.996;   -8.588;46668.969
581.129;36138.516;   -8.859;44466.141
581.712;36985.305;  -10.729;44164.922
582.294;37573.602;  -11.118;46477.855
582.877;37387.320;   -5.218;48244.254
583.459;34996.090;   -8.679;47437.895
584.042;33091.207;  -10.709;46943.219
584.624;33634.602;  -11.669;46792.227
585.206;33168.297;   -8.218;46557.250
585.789;33179.773;  -10.569;45793.773
586.371;36046.211;  -11.859;43836.391
586.953;36714.078;  -10.719;42972.492
587.536;38013.051;   -7.198;42487.211
588.118;37994.754;   -8.720;42086.414
588.700;34225.934;  -10.439;43389.930
589.282;33385.656;   -9.198;43646.039
589.864;34345.852;   -9.199;43438.109
590.446;35257.965;  -11.319;43151.926
591.028;35193.547;  -11.159;42781.867
591.610;34187.789;  -11.779;42839.098
592.192;31621.453;   -7.668;42820.402
592.774;30113.938;  -11.949;40724.277
593.356;28834.871;  -12.129;39874.789
593.937;27739.361;  -10.669;39980.648
594.519;29844.641;   -6.509;42069.633
595.101;31968.785;  -10.849;42976.031
595.683;32125.447;  -11.679;44084.441
596.264;33212.461;   -9.049;43478.797
596.846;32607.857;   -8.849;43803.672
597.427;32456.441;   -9.570;42986.934
598.009;34093.496;  -12.620;42832.219
598.591;34467.238;  -10.039;42580.086
599.172;33668.047;  -10.369;43061.805
599.753;33807.883;   -9.140;41691.469
600.335;35356.129;  -11.430;40692.520
600.916;33569.199;   -9.939;39982.422
601.498;31000.787;   -8.479;40318.617
602.079;29500.877;  -10.920;40670.609
602.660;29419.666;  -11.480;41450.898
603.241;31021.070;  -11.699;41137.738
603.823;29802.400;   -9.579;38868.797
604.404;29269.551;  -10.620;38182.785
604.985;30893.670;  -10.450;38078.047
605.566;30724.738;   -9.129;38056.633
606.147;30892.045;   -7.510;37020.418
606.728;32520.475;  -10.660;37883.359
607.309;31181.225;  -11.740;38748.273
607.890;30639.711;   -9.759;38850.230
608.471;30077.936;   -8.250;37457.918
609.051;29189.660;   -9.240;36066.457
609.632;28131.199;  -12.120;35991.074
610.213;28954.381;   -9.110;37402.641
610.794;29733.314;   -8.030;38383.363
611.374;29264.672;   -8.110;40562.387
611.955;29755.434;  -13.560;38533.727
612.536;31103.584;  -11.400;36951.789
613.116;30943.805;   -8.070;37197.891
613.697;31289.250;  -10.830;38411.125
614.277;29737.104;  -11.641;38673.938
614.858;30583.607;  -13.310;37075.863
615.438;29692.064;   -7.460;35092.906
616.019;27037.320;   -7.601;33666.301
616.599;27691.527;  -12.020;34189.023
617.179;29583.516;  -11.780;36952.047
617.760;30611.525;   -8.570;39582.574
618.340;31670.314;  -11.471;38943.977
618.920;32906.367;  -11.170;37594.156
619.500;32677.131;  -11.071;37866.938
620.080;31677.621;   -7.750;37869.043
620.660;32877.094;  -12.711;36868.617
621.241;34247.941;  -10.211;36352.309
621.821;34433.977;  -10.961;35459.520
622.401;33409.465;   -7.720;35207.414
622.980;32749.369;   -8.981;35980.422
623.560;31349.346;   -9.331;37351.328
624.140;30123.955;   -9.850;34388.582
624.720;24998.889;   -7.451;32368.764
625.300;21526.369;   -9.070;32638.629
625.880;24919.309;  -12.601;34599.035
626.459;28851.631;  -11.751;36831.738
627.039;31904.029;   -9.281;38299.098
627.619;31794.871;   -8.801;38289.574
628.198;30281.131;  -12.071;37220.695
628.778;29482.098;   -9.461;37632.563
629.357;30155.652;   -8.491;38003.012
629.937;30046.242;   -9.721;38402.039
630.516;29566.535;   -9.951;37868.801
631.096;29376.012;  -11.731;35760.410
631.675;31883.826;   -8.572;35225.219
632.254;36893.219;  -11.282;35130.289
632.834;36295.223;  -13.322;35794.570
633.413;34476.262;  -10.301;35788.922
633.992;31743.197;   -8.582;34532.863
634.571;32608.582;   -8.352;33590.113
635.151;35581.961;  -11.912;34943.863
635.730;33886.891;  -10.511;35352.523
636.309;30376.699;   -7.731;35366.605
636.888;27931.426;   -9.952;36165.637
637.467;28647.988;  -11.672;37515.902
638.046;30352.070;   -8.901;39288.695
638.625;33578.406;   -7.912;38279.699
639.204;33347.824;  -10.022;37741.598
639.782;31737.211;  -12.252;38364.551
640.361;28034.461;  -10.041;36740.621
640.940;25177.539;  -11.161;34950.082
641.519;25849.465;   -9.701;34137.398
642.097;28761.572;  -11.271;35654.258
642.676;31626.953;   -8.651;35637.957
643.255;32370.971;   -8.711;36567.074
643.833;31558.986;   -9.581;37809.434
644.412;31567.566;  -13.711;37337.293
644.990;30557.844;  -11.811;37018.531
645.569;30480.660;   -9.411;36518.469
646.147;29508.676;  -10.291;36186.430
646.726;29296.135;  -12.401;36267.688
647.304;30596.809;  -10.411;36647.625
647.882;32408.070;   -9.651;39286.742
648.461;34064.184;   -9.631;39157.703
649.039;32396.434;  -11.881;35412.883
649.617;31732.471;   -9.661;34744.918
650.195;31394.631;   -9.301;35403.098
650.773;29948.143;  -10.511;35053.797
651.352;27446.828;  -11.521;33756.816
651.930;25120.742;  -12.211;31868.773
652.508;23660.426;   -9.171;33121.551
653.086;27679.158;   -9.371;33564.793
653.663;30554.387;  -13.161;34054.668
654.241;29363.201;  -13.031;35693.309
654.819;31039.830;   -9.371;36422.906
655.397;31096.238;  -10.511;38213.484
655.975;30715.334;  -10.371;39507.625
656.553;30615.014;  -10.051;39498.223
657.130;28930.379;  -10.061;40395.480
657.708;28020.615;   -9.561;39242.020
658.286;28012.352;  -11.511;38920.020
658.863;29399.910;  -10.261;40202.898
659.441;32563.783;   -7.531;39677.938
660.018;32136.834;   -9.501;40413.355
660.596;30995.436;  -13.301;39931.414
661.173;32902.492;  -11.211;39604.531
661.750;32874.367;   -9.951;39700.070
662.328;31485.490;   -9.390;39292.809
662.905;30675.469;  -11.330;38235.648
663.482;26528.889;   -9.050;36212.305
664.060;24674.324;   -8.240;35944.945
664.637;27507.189;  -10.050;35170.785
665.214;29430.996;  -11.760;34197.523
665.791;31034.549;  -10.530;34549.520
666.368;29801.049;   -9.690;35118.578
666.945;30346.137;   -9.320;36019.418
667.522;31991.945;  -11.860;36048.438
668.099;31678.514;  -10.770;36243.914
668.676;30434.260;   -6.260;35958.875
669.253;29144.707;   -7.000;37384.730
669.830;29829.551;  -10.190;36779.629
670.407;29582.199;   -9.550;35231.289
670.984;29397.732;   -9.260;35544.270
671.560;29885.346;   -9.280;35466.867
672.137;29131.545;  -11.810;34280.863
672.714;29979.533;  -11.490;34632.863
673.290;30548.889;   -7.740;35135.422
673.867;30798.494;  -10.660;36114.480
674.443;30703.986;  -12.230;36152.859
675.020;28867.689;  -10.450;35327.238
675.596;29904.814;   -9.260;35795.176
676.173;30401.188;  -10.780;35430.355
676.749;30208.791;  -13.690;33549.516
677.326;30213.451;  -11.980;32210.012
677.902;30191.426;   -8.630;32068.871
678.478;29550.176;  -10.730;32583.891
679.054;28931.883;  -10.520;32088.928
679.631;29201.879;  -11.920;30978.848
680.207;30768.465;   -7.490;33160.887
680.783;32406.811;   -9.860;35570.363
681.359;31515.385;  -13.380;36125.184
681.935;30851.053;  -12.480;35240.922
682.511;29993.273;   -7.900;34429.961
683.087;30082.914;   -7.710;34463.680
683.663;29649.352;  -11.480;34648.898
684.239;28464.377;  -14.090;34546.457
684.815;28091.041;   -7.560;35586.375
685.390;28429.186;   -9.910;35821.895
685.966;28947.012;  -11.159;35085.871
686.542;31314.746;  -11.169;34198.230
687.118;33531.402;   -5.959;32847.707
687.693;33820.410;  -10.329;32794.027
688.269;33472.617;  -12.059;33072.367
688.844;31580.504;  -10.909;33141.664
689.420;29331.053;   -8.019;33965.742
689.995;27108.604;   -8.399;34655.523
690.571;25831.361;  -10.949;33576.742
691.146;26303.432;   -9.619;32657.219
691.722;25819.121;   -8.999;32526.979
692.297;25628.418;  -11.589;33014.617
692.872;27413.941;  -11.739;34012.254
693.448;27032.863;  -11.059;34237.434
694.023;26250.354;  -10.139;34142.672
694.598;28175.582;   -9.029;34132.031
695.173;28545.311;  -13.319;34205.250
695.748;27769.766;  -10.169;32882.488
696.323;27892.076;   -8.339;32864.906
696.898;28143.049;   -8.169;33170.004
697.473;28060.521;  -12.309;32432.984
698.048;27549.664;  -10.989;31649.303
698.623;27443.568;   -9.329;30778.141
699.198;29414.166;   -9.849;31140.119
699.773;30411.535;  -12.329;31764.299
700.348;28686.277;  -10.389;31780.816
700.922;28649.986;   -9.269;32046.375
701.497;29530.066;   -9.329;32603.574
702.072;29735.285;  -10.789;34799.871
702.646;28411.889;  -10.839;35793.172
703.221;26320.264;   -9.099;35201.590
703.795;28414.576;  -10.939;34764.527
704.370;28850.961;  -12.859;34307.367
704.944;29322.414;  -11.559;33509.887
705.519;30184.879;   -7.939;31388.584
706.093;31558.830;  -10.499;31340.104
706.668;31903.199;  -11.289;32630.281
707.242;30776.461;  -11.509;32728.779
707.816;29186.063;   -9.639;32947.238
708.390;27669.234;  -11.429;33277.855
708.965;28170.154;  -11.869;33834.336
709.539;28139.621;  -11.689;33709.273
710.113;28580.150;  -10.478;33044.313
710.687;28092.672;  -10.228;31953.992
711.261;26441.029;  -13.698;30505.949
711.835;26317.740;  -13.378;30262.369
712.409;27148.250;   -9.698;31254.447
712.983;29123.186;  -11.898;32754.986
713.557;30060.668;  -15.138;34018.824
714.131;29676.873;  -14.098;34579.625
714.704;28740.521;   -9.958;33890.262
715.278;26475.127;  -10.028;33531.102
715.852;25425.668;  -11.148;33601.660
716.425;26166.104;   -9.068;33515.117
716.999;26901.426;  -10.038;33185.555
717.573;27895.256;   -9.798;33905.996
718.146;28975.854;  -12.378;35199.293
718.720;28997.066;  -11.918;35060.551
719.293;28477.283;   -8.088;34973.230
719.867;31407.650;  -10.888;36394.449
720.440;31140.893;  -11.938;36663.008
721.013;29489.631;  -12.818;35102.426
721.587;28000.908;  -10.298;33985.266
722.160;26955.510;  -10.048;33524.965
722.733;25932.920;  -12.108;32987.043
723.306;26196.361;  -10.818;33066.301
723.880;28561.867;   -8.908;33399.500
724.453;30645.459;   -9.878;33468.297
725.026;29746.857;  -11.188;33816.637
725.599;26910.787;  -11.678;32797.996
726.172;26974.256;   -9.618;33187.434
726.745;27887.514;   -8.258;35136.613
727.318;29228.693;  -12.978;35751.730
727.891;29873.512;  -12.148;35890.430
728.463;29730.227;   -8.968;34822.090
729.036;28864.764;  -10.188;32895.086
729.609;29390.789;  -11.788;31823.225
730.182;26271.365;  -11.788;31445.283
730.754;23764.934;  -10.268;32373.223
731.327;23830.295;   -9.998;33676.820
731.900;24117.996;  -12.228;33417.000
732.472;25418.627;  -13.848;31978.498
733.045;27402.166;   -8.698;30368.777
733.617;27475.092;  -10.607;30574.215
734.190;27092.648;  -11.507;31280.975
734.762;24164.162;  -13.647;31674.412
735.334;22348.199;   -9.767;31247.291
735.907;23042.955;   -9.897;29876.211
736.479;23245.621;  -11.637;29808.488
737.051;22944.846;   -9.567;30233.547
737.623;23917.219;   -8.187;31469.086
738.195;24641.012;  -11.187;31784.225
738.768;26447.355;  -12.337;32120.523
739.340;26717.840;  -12.227;32094.342
739.912;25574.219;  -11.057;31312.680
740.484;24121.080;  -10.207;31946.238
741.056;22975.609;  -10.047;32984.059
741.628;24763.611;  -13.627;33897.715
742.199;27032.314;   -7.177;33213.016
742.771;25321.791;  -10.797;31369.113
743.343;22933.289;  -11.997;31865.473
743.915;21917.473;  -12.867;32388.631
744.487;22042.205;   -7.617;31079.568
745.058;22263.678;   -9.557;30570.107
745.630;22657.783;   -9.877;29970.127
746.201;23501.008;  -14.177;29186.766
746.773;24038.801;   -9.237;28805.723
747.344;23868.455;   -9.847;29591.223
747.916;22404.027;  -11.657;31412.201
748.487;22536.783;  -10.587;32194.898
749.059;23637.822;   -8.707;32533.719
749.630;24253.457;  -10.537;32158.518
750.201;23305.240;  -11.687;30855.395
750.773;21606.457;  -11.647;28622.555
751.344;21628.883;   -7.147;28405.732
751.915;22950.600;   -9.757;28461.551
752.486;22964.857;  -12.427;27842.850
753.057;20687.738;  -12.227;27845.008
753.628;19391.471;  -10.417;27728.107
754.199;20486.406;  -11.767;27381.086
754.770;21534.580;  -11.187;25882.203
755.341;21553.496;  -10.507;25886.184
755.912;21626.180;   -9.387;26050.861
756.483;21184.561;  -10.647;26798.779
757.054;19434.857;  -11.837;27048.238
757.625;18138.795;  -12.716;26294.838
758.195;17827.504;   -9.666;26142.076
758.766;17530.461;   -8.656;26392.234
759.337;18315.480;  -12.856;26334.594
759.907;20002.836;  -13.366;27579.652
760.478;20949.389;   -8.576;28352.770
761.048;20374.879;  -10.526;27325.088
761.619;19500.596;  -11.116;26460.428
762.189;19497.639;  -12.136;26029.826
762.760;20544.047;   -9.456;26430.145
763.330;21657.703;   -7.136;26670.902
763.900;21109.943;  -11.786;26603.021
764.471;18547.418;  -11.546;25542.740
765.041;17261.219;   -8.096;24358.459
765.611;17311.145;   -8.876;23991.297
766.181;17735.742;  -12.196;24470.236
766.751;18705.344;  -11.636;24845.975
767.321;18440.023;  -10.156;24533.633
767.891;16504.230;  -11.766;24916.492
768.461;15965.852;  -14.936;24776.771
769.031;16480.256;  -12.356;24757.988
769.601;18065.895;   -7.526;24181.088
770.171;17940.525;  -10.766;23670.387
770.741;17179.920;  -13.176;22960.045
771.311;17322.354;  -10.616;22917.523
771.880;17697.523;   -9.576;23562.941
772.450;17349.088;  -10.336;24216.500
773.020;17325.008;  -13.516;24140.398
773.589;16652.139;  -13.466;24414.857
774.159;16022.522;   -8.686;23858.717
774.729;15653.282;   -9.476;22942.135
775.298;15186.479;  -13.666;22324.033
775.867;14787.594;  -11.716;21140.313
776.437;14847.556;   -9.906;20838.092
777.006;14663.712;  -12.166;20599.510
777.576;14567.610;  -12.356;20508.809
778.145;14672.978;  -11.646;20732.947
778.714;14552.461;   -8.226;21062.465
779.283;13834.203;   -9.556;20949.664
779.853;13348.032;  -14.116;20508.623
780.422;13841.544;  -11.506;20649.082
780.991;13383.455;   -9.556;21527.520
781.560;12192.633;   -9.095;22632.658
782.129;12017.224;  -12.135;23048.277
782.698;12064.539;  -10.865;23438.555
783.267;11683.839;   -9.335;23267.734
783.836;11637.510;  -11.045;22415.133
784.404;12684.082;  -13.865;20443.152
784.973;13288.879;  -13.095;19699.150
785.542;13164.599;  -11.575;19763.828
786.111;12953.980;   -9.705;20341.408
786.679;12469.632;  -12.105;20207.967
787.248;12245.178;  -12.455;19516.465
787.817;12070.996;  -11.535;18900.363
788.385;11657.684;   -9.765;17879.121
788.954;11054.839;  -14.005;17658.301
789.522;10537.853;  -11.955;17788.879
790.090;11107.588;  -10.135;18118.277
790.659;11501.167;  -10.975;18338.736
791.227;10980.207;  -13.375;18508.615
791.795;11399.453;  -12.375;17898.254
792.364;11764.621;  -10.725;17295.133
792.932;12098.087;   -9.715;16822.051
793.500;12268.883;  -12.675;17040.148
794.068;12454.005;  -13.495;17179.787
794.636;12570.595;  -10.885;16664.246
795.204;11969.898;  -11.045;16524.545
795.772;12032.471;  -13.175;17274.564
796.340;11581.601;  -12.445;17891.002
796.908;11392.321;   -9.735;17648.561
797.476;11295.564;   -9.815;17064.080
798.044;10853.706;  -13.985;16672.777
798.612;10045.519;  -13.115;17023.996
799.180; 9654.123;  -10.185;16561.615
799.747; 9575.073;   -9.055;15962.773
800.315; 9307.934;  -12.385;15296.992
800.883; 8982.281;  -15.035;14801.771
801.450; 8998.087;  -10.365;14534.430
802.018; 9066.199;   -9.855;14173.248
802.585; 9207.963;  -11.905;14029.547
803.153; 9253.610;  -11.585;13836.846
803.720; 9059.099;   -9.095;13567.324
804.287; 8596.334;   -9.135;13360.622
804.855; 8177.168;  -11.604;13681.981
805.422; 8062.125;  -11.794;13536.560
805.989; 8073.401;  -10.734;13355.958
806.556; 8240.000;  -10.444;13747.896
807.124; 8475.152;  -12.764;13987.376
807.691; 8435.536;  -12.964;14038.674
808.258; 8234.969;  -11.134;14120.152
808.825; 7929.779;   -9.854;13860.111
809.392; 7998.644;  -10.504;13268.790
809.959; 7522.874;  -13.054;12680.389
810.526; 7092.526;   -8.294;12427.308
811.093; 7148.257;   -8.394;12030.105
811.659; 7792.548;  -12.304;11653.664
812.226; 8310.204;  -13.944;11637.183
812.793; 8006.100;  -10.484;11611.521
813.360; 7373.644;  -10.144;11885.181
813.926; 7056.442;  -11.684;12770.539
814.493; 6836.870;  -13.644;12677.638
815.060; 6439.451;   -9.724;11974.336
815.626; 6439.657;   -9.854;11594.715
816.193; 6869.432;  -13.254;11579.474
816.759; 6892.354;  -13.204;11666.972
817.325; 6952.700;   -9.434;11325.530
817.892; 7334.357;  -10.134;11105.369
818.458; 7773.686;  -13.474;10843.928
819.024; 7393.653;  -11.854;10714.406
819.591; 7090.555;  -10.244;10469.165
820.157; 6872.960;  -10.704;10235.523
820.723; 6347.656;  -12.324;10847.563
821.289; 6036.595;   -9.444;11040.980
821.855; 5965.559;   -8.374;10357.100
822.421; 5965.686;  -10.234; 9978.918
822.987; 5975.376;  -13.294; 9754.177
823.553; 5656.237;  -10.884;10065.755
824.119; 5469.747;   -8.884;10036.294
824.685; 5557.331;   -6.784;10029.192
825.251; 5657.143;  -12.004;10199.230
825.816; 5622.656;  -11.474; 9820.189
826.382; 5395.709;   -9.174; 9297.248
826.948; 5607.091;   -9.214; 9381.347
827.513; 6015.313;  -10.774; 9450.726
828.079; 5836.782;  -11.924; 9472.444
828.645; 5235.201;  -10.543; 9292.643
829.210; 5140.099;  -10.533; 9065.341
829.776; 5132.357;  -10.753; 9132.620
830.341; 5022.400;  -10.173; 9092.878
830.906; 5226.681;  -10.743; 9078.557
831.472; 5593.305;  -11.113; 8534.535
832.037; 5332.499;  -10.603; 8677.874
832.602; 4757.039;  -13.323; 8628.692
833.167; 4476.653;  -10.823; 8879.031
833.733; 4407.194;  -10.113; 9189.790
834.298; 4554.114;  -13.583; 9052.608
834.863; 4638.773;  -12.703; 8895.087
835.428; 4616.753;  -10.523; 8824.266
835.993; 4461.812;   -6.963; 8845.385
836.558; 4293.439;  -10.763; 8888.563
837.123; 4423.313;   -9.903; 8966.582
837.688; 4661.839;   -9.913; 8617.860
838.253; 4915.489;  -10.283; 8590.699
838.817; 5137.441;  -12.963; 8443.797
839.382; 5047.902;  -14.243; 8799.356
839.947; 4720.231;  -10.733; 8810.595
840.511; 4410.071;   -9.383; 8796.394
841.076; 4017.683;  -12.563; 8347.231
841.641; 4060.835;  -12.953; 8224.330
842.205; 4152.513;   -7.043; 8223.349
842.770; 4258.834;   -8.163; 8622.107
843.334; 4426.425;  -12.503; 8410.386
843.898; 4361.760;  -11.693; 8337.465
844.463; 4371.280;  -10.203; 8506.283
845.027; 4129.007;   -9.533; 8280.962
845.591; 3942.342;  -13.443; 8231.141
846.156; 3929.021;  -13.143; 7969.179
846.720; 3821.863;   -9.433; 7768.278
847.284; 3704.845;  -11.033; 7630.957
847.848; 3579.443;  -10.403; 7472.395
848.412; 3488.666;  -11.553; 7437.394
848.976; 3530.529;   -8.393; 7674.592
849.540; 3455.794;   -8.713; 7836.011
850.104; 3564.105;  -12.463; 7913.669
850.668; 3919.064;  -12.973; 7694.508
851.232; 4018.593;  -10.793; 7756.887
851.796; 3853.211;  -10.662; 7926.545
852.359; 3551.586;  -13.082; 7827.844
852.923; 3377.265;  -12.192; 7641.163
853.487; 3193.707;  -11.912; 7342.501
854.050; 3150.356;  -10.892; 7042.820
854.614; 3294.211;  -13.992; 7151.338
855.177; 3424.888;  -11.732; 7105.077
855.741; 3453.302;   -8.962; 6989.675
856.304; 3333.191;   -9.442; 6596.634
856.868; 3282.308;  -14.192; 6356.272
857.431; 3376.289;  -12.702; 6468.571
857.995; 3491.435;   -9.942; 6373.210
858.558; 3499.005;   -9.112; 6324.448
859.121; 3217.817;  -12.932; 6408.327
859.684; 3093.350;  -13.442; 6347.886
860.247; 3206.816;  -10.632; 6321.264
860.810; 3202.914;  -11.272; 6301.903
861.374; 2939.863;   -9.832; 6607.881
861.937; 2675.685;  -11.762; 6408.200
862.500; 2669.089;   -9.722; 6572.639
863.062; 2849.378;  -10.512; 6387.297
863.625; 3025.560;  -11.232; 6190.836
864.188; 3186.908;  -14.112; 5807.254
864.751; 3254.293;  -11.302; 5682.413
865.314; 3147.705;  -10.112; 5547.492
865.876; 2932.808;  -12.182; 5500.150
866.439; 2913.282;  -10.722; 5415.909
867.002; 2859.777;   -9.252; 5501.567
867.564; 2658.868;   -9.572; 5413.946
868.127; 2437.919;  -13.142; 5160.325
868.689; 2335.418;  -12.902; 5133.183
869.252; 2239.299;   -9.732; 5252.382
869.814; 2144.290;   -9.432; 5297.141
870.377; 2152.240;  -11.552; 5390.919
870.939; 2221.470;   -9.052; 5599.898
871.501; 2284.525;  -10.982; 5248.336
872.063; 2290.168;  -12.292; 4854.235
872.626; 2253.291;  -14.912; 4817.074
873.188; 2285.317;  -13.112; 4987.732
873.750; 2251.146;  -13.442; 4868.651
874.312; 2149.604;   -9.402; 4779.330
874.874; 2061.607;  -11.062; 4866.348
875.436; 1976.098;  -13.931; 4718.887
875.998; 1973.084;   -9.561; 4660.005
876.560; 2008.977;  -11.321; 4462.964
877.122; 1959.870;  -12.221; 4145.042
877.683; 1877.448;  -12.191; 4056.481
878.245; 1809.818;  -12.101; 3950.740
878.807; 1849.407;   -8.971; 4058.958
879.369; 1867.304;  -12.071; 3954.677
879.930; 1759.703;  -14.621; 3941.495
880.492; 1696.675;  -10.311; 4067.014
881.053; 1695.787;  -10.901; 3859.633
881.615; 1660.826;  -14.411; 3776.071
882.176; 1645.187;  -13.761; 3734.750
882.738; 1625.678;   -9.181; 3678.489
883.299; 1497.754;  -11.791; 3405.407
883.860; 1275.426;  -13.121; 3351.106
884.422; 1008.908;  -11.211; 3394.044
884.983;  792.641;  -10.091; 3166.443
885.544;  703.765;   -8.461; 3189.802
886.105;  696.562;  -12.361; 3160.360
886.666;  711.325;  -14.141; 3093.059
887.227;  724.153;  -11.361; 2941.957
887.788;  720.291;  -11.401; 2974.836
888.349;  709.170;  -13.791; 2721.214
888.910;  731.068;  -13.191; 2696.493
889.471;  756.464;   -9.881; 2560.172
890.032;  753.559;   -9.881; 2558.190
890.593;  742.640;  -10.371; 2567.669
891.153;  726.169;  -13.301; 2460.307
891.714;  688.519;  -11.431; 2372.046
892.275;  658.980;  -11.291; 2309.505
892.835;  628.460;  -11.471; 2382.543
893.396;  584.092;  -11.541; 2295.502
893.956;  534.632;  -11.181; 2162.420
894.517;  501.851;  -11.741; 2125.439
895.077;  497.015;  -11.671; 2086.978
895.638;  498.372;  -11.311; 2126.316
896.198;  473.486;   -9.831; 1838.275
896.758;  432.728;   -8.421; 1892.813
897.319;  404.903;  -12.351; 1792.232
897.879;  390.954;  -13.511; 1762.751
898.439;  365.910;  -12.001; 1661.149
898.999;  343.148;  -10.180; 1781.468
899.559;  335.678;  -12.030; 1703.347
900.119;  332.744;  -15.710; 1537.525
900.679;  328.544;   -8.900; 1638.384
901.239;  314.359;   -8.340; 1527.902
901.799;  303.424;  -13.910; 1456.441
902.359;  298.740;  -13.460; 1357.140
902.919;  292.402;  -11.490; 1331.118
903.479;  280.522;  -12.110; 1317.257
904.038;  260.227;  -11.720; 1262.595
904.598;  244.724;  -13.610; 1152.034
905.158;  240.801;  -11.040; 1240.893
905.717;  236.041;  -10.900; 1233.691
906.277;  224.043;  -15.080; 1217.330
906.836;  215.009;  -13.380; 1222.408
907.396;  207.367;  -10.780; 1193.047
907.955;  199.685;   -8.500; 1182.526
908.515;  192.965;  -12.760; 1099.364
909.074;  185.371;  -11.900; 1092.863
909.633;  177.678;   -8.950; 1069.121
910.192;  171.783;   -8.770; 1196.460
910.752;  165.960;  -12.390; 1029.960
911.311;  163.380;  -13.680; 1009.780
911.870;  162.331;  -12.370;  971.460
912.429;  163.283;  -10.900; 1094.080
912.988;  162.453;  -11.690; 1081.060
913.547;  158.353;  -13.240;  940.380
914.106;  154.439;  -11.990;  999.420
914.665;  151.604;   -9.990;  984.020
915.224;  151.100;  -12.880; 1035.760
915.782;  151.082;  -12.350;  922.560
916.341;  150.892;   -9.110; 1049.840
916.900;  147.810;   -9.270;  925.260
917.458;  145.442;  -13.240;  884.220
918.017;  144.659;  -13.550;  942.600
918.576;  144.940;  -12.320;  904.440
919.134;  142.149;  -11.490;  837.980
919.693;  140.168;  -13.670;  893.060
920.251;  138.683;  -15.470;  876.500
920.809;  138.332;  -11.290;  839.580
921.368;  138.233;  -10.210;  885.360
921.926;  136.817;  -12.140;  842.940
922.484;  135.347;  -13.080;  903.360
923.042;  134.421;  -11.720;  880.340
923.601;  137.276;   -7.480;  998.680
924.159;  135.943;  -11.570;  935.560
924.717;  132.358;  -13.840;  841.080
925.275;  133.130;  -10.640;  903.240
925.833;  132.235;  -11.540;  779.320
926.391;  134.409;  -12.960;  938.380
926.949;  132.246;  -14.130;  857.680
927.506;  132.352;  -11.750;  903.500
928.064;  132.474;  -10.250;  877.580
928.622;  131.567;  -13.030;  880.100
929.180;  131.659;  -13.400;  814.180
929.737;  133.099;  -10.700;  808.540
930.295;  136.280;  -10.070;  928.480
930.853;  136.737;  -11.960;  849.100
931.410;  137.808;  -13.120;  821.120
931.968;  138.098;  -10.770;  940.660
932.525;  137.728;  -10.680;  909.380
933.082;  138.332;  -13.130;  811.440
933.640;  139.254;  -13.210;  925.900
934.197;  136.897;  -11.060;  886.360
934.754;  137.022;   -9.580;  897.780
935.312;  140.631;  -14.000;  863.340
935.869;  144.218;  -10.710; 1012.980
936.426;  144.369;   -9.860;  872.800
936.983;  145.828;   -9.710;  889.020
937.540;  145.397;  -13.990;  838.280
938.097;  144.407;  -14.040;  940.120
938.654;  145.404;  -10.310;  898.860
939.211;  146.889;  -10.560;  952.480
939.768;  150.358;  -13.900;  915.420
940.324;  153.440;  -14.760;  904.200
940.881;  155.522;  -10.370;  878.500
941.438;  155.336;   -8.260; 1021.200
941.995;  151.460;  -12.540;  992.560
942.551;  148.922;  -14.670;  875.620
943.108;  149.433;  -10.450;  937.920
943.664;  152.522;  -10.750;  869.340
944.221;  154.963;  -11.550; 1088.140
944.777;  152.924;  -14.770;  869.680
945.334;  154.315;  -12.820;  884.840
945.890;  155.313;  -10.130;  946.480
946.446;  155.828;  -13.470;  947.020
947.003;  157.237;  -12.120;  964.940
947.559;  159.784;   -9.980; 1063.040
948.115;  158.792;   -9.080; 1026.540
948.671;  157.020;  -10.830;  967.300
949.227;  153.924;  -12.440;  859.560
949.783;  151.736;  -12.910;  858.900
950.339;  153.611;  -10.270;  991.000
950.895;  153.129;  -13.630; 1023.840
951.451;  152.597;  -15.100;  925.280
952.007;  153.322;  -11.330;  998.540
952.563;  153.337;  -10.580;  937.780
953.118;  153.100;  -13.440;  904.940
953.674;  152.133;  -12.710;  935.780
954.230;  153.111;  -10.350;  949.640
954.785;  149.405;   -9.190;  936.640
955.341;  147.226;  -11.200;  998.160
955.897;  145.253;  -16.560;  834.660
956.452;  146.468;  -12.570;  953.840
957.008;  145.488;   -7.970; 1083.640
957.563;  143.068;  -11.940; 1009.540
958.118;  138.119;  -13.450;  877.700
958.674;  138.213;  -12.030;  946.780
959.229;  139.409;   -9.410; 1013.980
959.784;  137.544;  -12.000;  832.400
960.339;  136.825;  -14.780; 1001.280
960.894;  133.696;   -9.860;  963.760
961.449;  130.243;   -9.970;  859.960
962.004;  129.101;  -10.900; 1212.840
962.559;  124.364;  -13.150;  860.140
963.114;  122.222;  -13.740;  742.480
963.669;  121.816;   -9.820;  915.500
964.224;  119.788;  -13.890;  874.340
964.779;  119.109;  -12.600;  828.420
965.334;  120.294;  -10.950; 1017.860
965.888;  119.268;  -11.170;  875.360
966.443;  122.205;  -12.540;  972.380
966.998;  121.488;  -15.780;  819.460
967.552;  120.760;   -9.760;  908.380
968.107;  116.547;   -9.060;  868.300
968.661;  117.712;  -11.950;  922.440
969.216;  118.427;  -12.800;  856.280
969.770;  118.556;  -11.210;  917.200
970.324;  117.838;  -11.610;  923.140
970.879;  114.630;  -11.370;  947.180
971.433;  111.864;  -12.540;  952.720
971.987;  105.610;  -11.320;  895.340
972.541;  103.393;  -10.720;  917.100
973.095;  102.638;   -9.680; 1009.460
973.649;  101.614;  -11.440;  809.480
974.203;  100.401;  -11.210;  829.040
974.757;  100.615;  -10.240;  855.220
975.311;   99.964;  -13.720;  872.600
975.865;   99.560;  -13.770;  881.820
976.419;   98.605;  -11.690;  857.400
976.973;   98.354;   -9.510;  849.620
977.526;   98.977;  -12.620;  949.920
978.080;   99.013;  -12.010;  796.780
978.634;  100.785;  -10.170;  921.320
979.187;   98.651;   -9.020;  905.400
979.741;   95.333;   -9.820; 1018.380
980.294;   90.555;  -14.870;  789.160
980.848;   88.715;  -12.380;  717.220
981.401;   89.760;  -10.350;  816.540
981.955;   92.938;  -13.720;  844.300
982.508;   91.497;  -11.490;  746.340
983.061;   92.514;  -10.000;  915.260
983.615;   88.075;  -11.480;  798.800
984.168;   84.449;  -13.220;  770.080
984.721;   84.110;  -13.960;  880.760
985.274;   83.775;  -10.870;  867.500
985.827;   83.073;   -9.790;  834.220
986.380;   80.191;  -13.120;  721.340
986.933;   79.514;  -12.450;  864.800
987.486;   78.375;  -10.210;  861.920
988.039;   77.170;   -8.430;  863.100
988.591;   74.283;  -10.520;  893.260
989.144;   71.911;  -14.860;  737.260
989.697;   71.960;  -13.080;  758.740
990.250;   72.277;  -10.150;  858.100
990.802;   70.106;  -13.430;  755.860
991.355;   72.207;  -12.750;  974.880
991.907;   69.955;  -12.040;  864.320
992.460;   67.703;  -11.330;  753.760
993.012;   66.637;  -13.610;  749.540
993.565;   65.298;  -13.460;  711.360
994.117;   67.058;   -9.360;  950.780
994.669;   63.331;  -11.300;  701.320
995.221;   60.951;  -13.540;  791.920
995.774;   59.746;  -13.430;  787.580
996.326;   58.465;  -12.520;  740.220
996.878;   58.767;  -10.950;  838.420
997.430;   56.567;  -14.300;  699.860
997.982;   55.115;  -13.760;  750.140
998.534;   55.558;  -11.530;  739.060
999.086;   54.200;  -10.310;  738.220
999.638;   51.869;  -12.530;  661.380
1000.190;   51.874;  -11.840;  699.320
1000.741;   51.516;  -10.260;  742.700
1001.293;   50.523;   -8.860;  686.020
1001.845;   49.645;  -13.700;  676.640
1002.396;   49.735;  -12.100;  743.400
1002.948;   49.288;  -12.760;  737.400
1003.500;   46.900;  -10.380;  723.780
1004.051;   47.911;  -11.900;  907.580
1004.603;   46.916;  -12.250;  791.820
1005.154;   43.115;  -13.210;  608.980
1005.705;   41.778;  -10.950;  723.960
1006.257;   42.250;  -13.880;  707.220
1006.808;   40.289;  -12.840;  685.460
1007.359;   40.870;  -10.570;  763.240
1007.910;   39.979;   -9.620;  646.640
1008.461;   39.143;  -13.630;  732.940
1009.013;   37.549;  -17.200;  588.340
1009.564;   39.646;  -10.200;  793.520
1010.115;   37.281;  -12.570;  597.040
1010.665;   37.418;  -15.150;  602.160
1011.216;   37.378;  -14.480;  667.920
1011.767;   36.771;  -11.340;  697.920
1012.318;   36.439;   -9.780;  736.980
1012.869;   35.281;  -12.380;  679.000
1013.419;   34.341;  -15.560;  603.120
1013.970;   35.686;  -11.010;  666.640
1014.521;   35.116;  -11.610;  620.620
1015.071;   34.874;  -13.450;  670.380
1015.622;   34.078;  -13.870;  635.460
1016.172;   34.735;  -11.610;  596.820
1016.723;   33.483;  -12.120;  614.380
1017.273;   33.244;  -13.620;  604.160
1017.823;   33.666;  -14.140;  650.340
1018.374;   32.737;  -12.800;  611.760
1018.924;   32.575;  -12.340;  716.880
1019.474;   32.493;  -11.410;  718.880
1020.024;   31.682;  -14.770;  657.580
1020.574;   33.013;   -9.780;  726.160
1021.124;   32.584;   -8.560;  673.580
1021.674;   31.006;  -15.190;  559.120
1022.224;   32.357;  -13.530;  708.940
1022.774;   31.350;  -13.280;  668.820
1023.324;   32.137;  -10.690;  753.520
1023.874;   33.041;  -10.240;  875.760
1024.423;   30.226;  -12.540;  613.700
1024.973;   30.506;  -10.010;  610.760
1025.523;   29.193;  -10.550;  620.960
1026.072;   28.786;  -13.560;  606.420
1026.622;   29.574;  -15.120;  675.740
1027.172;   29.866;  -11.260;  715.660
1027.721;   29.231;  -11.410;  601.220
1028.270;   29.408;  -13.530;  663.400
1028.820;   29.340;  -13.680;  638.080
1029.369;   29.307;  -13.520;  612.700
1029.918;   29.012;  -10.980;  649.840
1030.468;   28.281;  -13.530;  564.780
1031.017;   28.604;  -13.170;  634.800
1031.566;   27.756;  -12.200;  608.900
1032.115;   27.682;   -9.960;  694.500
1032.664;   26.999;  -13.210;  596.480
1033.213;   27.752;  -12.500;  735.420
1033.762;   28.113;  -11.910;  635.620
1034.311;   26.797;   -9.640;  677.220
1034.860;   27.113;  -13.310;  691.000
1035.408;   26.400;  -11.830;  722.720
1035.957;   27.749;  -12.000;  719.540
1036.506;   25.217;  -11.690;  530.800
1037.055;   27.272;  -10.990;  844.320
1037.603;   26.087;  -15.120;  664.000
1038.152;   24.055;  -12.450;  534.760
1038.700;   25.637;  -10.560;  585.740
1039.249;   25.290;  -11.080;  681.220
1039.797;   25.140;  -12.540;  633.360
1040.345;   25.389;  -11.920;  705.420
1040.894;   24.813;  -11.410;  625.300
1041.442;   23.887;  -14.320;  632.200
1041.990;   23.291;  -16.240;  559.160
1042.538;   23.666;  -11.680;  536.180
1043.087;   23.244;  -10.760;  570.860
1043.635;   24.461;  -11.850;  670.500
1044.183;   23.070;  -15.480;  586.400
1044.731;   23.994;  -11.770;  576.000
1045.279;   22.969;  -13.090;  674.920
1045.827;   24.990;  -12.440;  892.400
1046.374;   21.991;  -13.840;  515.420
1046.922;   22.166;  -13.220;  590.580
1047.470;   23.576;  -10.230;  691.300
1048.018;   22.699;  -14.590;  647.960
1048.565;   23.271;  -12.050;  708.600
1049.113;   22.853;  -11.650;  557.000
1049.660;   21.563;  -10.510;  629.660
1050.208;   22.751;  -13.310;  675.640
1050.755;   20.592;  -15.900;  606.580
1051.303;   22.088;  -11.430;  686.820
1051.850;   20.958;   -8.480;  635.120
1052.397;   19.923;  -15.010;  473.960
1052.945;   19.692;  -13.960;  617.760
1053.492;   22.172;  -13.150;  741.840
1054.039;   21.759;   -9.630;  720.180
1054.586;   20.480;  -13.680;  557.240
1055.133;   21.226;  -14.570;  693.140
1055.680;   21.047;  -13.820;  646.620
1056.227;   20.383;  -11.730;  542.780
1056.774;   20.751;  -12.480;  794.980
1057.321;   19.533;  -13.930;  523.260
1057.868;   20.157;  -11.690;  651.320
1058.415;   20.048;   -9.520;  651.980
1058.961;   19.910;  -13.160;  678.940
1059.508;   19.729;  -12.920;  643.820
1060.055;   19.677;  -11.920;  581.780
1060.601;   19.804;  -11.500;  624.300
1061.148;   19.672;  -14.330;  616.820
1061.694;   18.187;  -16.870;  592.580
1062.241;   18.865;  -10.330;  596.320
1062.787;   18.814;  -10.620;  663.140
1063.334;   20.520;  -10.110;  808.560
1063.880;   18.074;  -13.400;  668.360
1064.426;   18.924;  -10.680;  706.820
1064.972;   17.355;   -9.920;  601.340
1065.518;   16.409;  -10.980;  566.640
1066.065;   17.777;  -14.890;  624.460
1066.611;   17.423;  -12.870;  598.800
1067.157;   18.291;  -12.950;  641.860
1067.703;   18.007;  -13.540;  668.480
1068.249;   17.628;  -13.540;  605.220
1068.794;   17.662;  -12.600;  626.880
1069.340;   16.587;  -10.620;  578.960
1069.886;   16.809;  -12.830;  590.700
1070.432;   15.372;  -14.870;  541.720
1070.977;   15.880;  -11.980;  601.080
1071.523;   16.317;   -8.200;  573.060
1072.068;   16.236;  -12.330;  582.000
1072.614;   15.891;  -16.370;  527.760
1073.160;   17.270;  -11.100;  687.040
1073.705;   15.795;  -10.480;  572.520
1074.250;   15.194;  -14.520;  559.900
1074.796;   16.695;  -11.460;  655.160
1075.341;   16.616;  -11.950;  664.100
1075.886;   15.894;  -11.460;  594.240
1076.431;   14.713;  -13.770;  649.880
1076.976;   14.654;  -12.680;  639.220
1077.521;   14.976;  -13.170;  583.080
1078.067;   14.660;  -10.860;  579.400
1078.612;   15.079;  -13.920;  661.620
1079.156;   14.521;  -13.880;  601.540
1079.701;   14.521;  -13.120;  693.260
1080.246;   15.054;   -9.940;  696.300
1080.791;   14.746;  -14.740;  625.020
1081.336;   13.531;  -13.750;  659.320
1081.880;   14.230;  -13.400;  649.680
1082.425;   13.157;  -12.220;  573.480
1082.970;   14.604;  -11.610;  717.040
1083.514;   13.299;  -13.580;  597.000
1084.059;   13.623;  -12.810;  586.720
1084.603;   13.226;  -12.320;  565.840
1085.147;   13.044;  -13.190;  645.220
1085.692;   14.344;  -12.480;  716.800
1086.236;   12.500;  -13.020;  503.140
1086.780;   14.016;   -9.190;  751.440
1087.325;   13.200;  -12.480;  654.620
1087.869;   12.705;  -12.450;  610.700
1088.413;   14.055;  -12.240;  705.040
1088.957;   11.487;   -9.020;  543.400
1089.501;   13.269;  -10.320;  766.640
1090.045;   12.638;  -12.720;  726.480
1090.589;   11.078;  -13.690;  569.920
1091.133;   12.746;  -10.020;  673.340
1091.676;   12.070;  -12.330;  591.940
1092.220;   11.928;  -14.970;  600.920
1092.764;   12.604;  -12.430;  706.960
1093.307;   12.395;   -9.800;  673.780
1093.851;   10.869;  -14.970;  556.540
1094.395;   11.334;  -15.310;  683.140
1094.938;   10.572;  -10.370;  632.520
1095.482;   11.456;  -11.050;  559.800
1096.025;   12.015;  -11.840;  710.880
1096.568;   11.889;  -12.840;  779.280
1097.112;    9.720;  -14.700;  508.180
1097.655;   11.176;   -8.720;  603.000
1098.198;   10.099;  -13.610;  600.180
1098.741;    9.861;  -13.350;  612.860
1099.285;   11.427;  -11.230;  657.300
1099.828;    8.708;  -11.840;  439.400
1100.371;    9.832;  -10.840;  608.160
1100.914;   10.434;  -14.190;  682.660
1101.457;   10.509;  -11.240;  679.900
1101.999;    9.038;  -11.270;  584.680
1102.542;    9.744;  -11.480;  641.440
1103.085;    9.254;  -11.750;  658.500
1103.628;   10.555;  -11.400;  762.060
1104.170;    9.557;  -10.490;  588.280
1104.713;    9.557;  -10.600;  646.700
1105.256;    8.792;  -14.360;  557.440
1105.798;    8.202;  -13.210;  499.980
1106.341;    9.723;  -10.270;  728.900
1106.883;    9.132;  -12.200;  521.340
1107.425;    8.626;  -13.110;  668.180
1107.968;    8.762;  -12.840;  612.380
1108.510;    9.826;   -6.480;  684.960
1109.052;    7.543;  -13.940;  612.620
1109.594;    7.438;  -13.690;  554.440
1110.136;    8.871;  -11.880;  643.220
1110.679;    7.714;   -9.500;  633.080
1111.221;    8.074;  -14.160;  604.460
1111.763;    8.006;  -13.980;  559.220
1112.304;    7.442;  -13.880;  547.140
1112.846;    7.910;  -12.210;  666.240
1113.388;   10.492;  -11.390;  942.180
1113.930;    6.955;  -14.540;  694.200
1114.472;    6.513;  -12.640;  606.540
1115.013;    5.836;  -11.620;  551.280
1115.555;    6.076;  -13.640;  587.100
1116.097;    5.920;  -15.380;  579.480
1116.638;    6.780;  -12.640;  684.600
1117.180;    7.586;   -9.850;  667.740
1117.721;    7.180;  -13.690;  568.580
1118.262;    7.325;  -12.680;  677.960
1118.804;    6.967;  -12.530;  637.340
1119.345;    6.487;  -11.690;  578.400
1119.886;    7.170;  -13.380;  704.040
1120.427;    5.955;  -14.070;  589.020
1120.969;    5.608;  -13.500;  597.920
1121.510;    4.873;  -11.480;  563.060
1122.051;    6.334;  -12.830;  723.580
1122.592;    5.574;  -14.290;  655.420
1123.133;    4.733;  -12.400;  547.940
1123.673;    6.062;  -10.130;  706.480
1124.214;    5.653;  -12.930;  612.460
1124.755;    5.685;  -14.380;  639.460
1125.296;    5.771;  -14.000;  627.320
1125.836;    5.716;  -10.070;  691.500
1126.377;    4.442;  -12.640;  599.660
1126.918;    5.679;  -12.960;  614.980
1127.458;    4.500;  -13.350;  622.220
1127.999;    5.360;  -10.750;  656.980
1128.539;    5.245;  -12.350;  694.240
1129.079;    4.533;  -14.860;  632.720
1129.620;    3.903;  -13.840;  558.100
1130.160;    4.044;  -12.330;  539.480
1130.700;    5.062;  -14.530;  640.840
1131.240;    5.180;  -12.530;  643.700
1131.781;    3.916;  -14.450;  619.680
1132.321;    4.403;   -9.790;  599.120
1132.861;    2.992;  -14.860;  564.200
1133.401;    3.806;  -14.290;  593.940
1133.941;    4.074;  -11.750;  626.280
1134.481;    3.963;   -9.920;  597.580
1135.020;    3.187;  -12.290;  609.160
1135.560;    3.857;  -11.650;  674.940
1136.100;    3.344;  -16.270;  501.160
1136.640;    2.439;  -10.890;  510.480
1137.179;    2.528;  -14.180;  537.960
1137.719;    2.612;  -16.250;  605.400
1138.258;    3.598;  -14.230;  587.360
1138.798;    3.521;   -9.090;  663.780
1139.337;    2.093;  -15.130;  482.840
1139.877;    3.163;  -13.680;  642.360
1140.416;    5.095;  -11.320;  878.060
1140.955;    2.406;  -10.860;  535.380
1141.494;    2.546;  -12.920;  669.280
1142.034;    2.562;  -13.930;  583.520
1142.573;    2.956;  -11.440;  646.280
1143.112;    2.162;  -12.000;  553.480
1143.651;    2.221;  -13.670;  536.480
1144.190;    3.248;  -12.730;  691.640
1144.729;    2.045;  -14.560;  607.420
1145.267;    2.607;  -11.830;  584.900
1145.806;    2.558;  -12.230;  637.040
1146.345;    1.788;  -14.130;  635.020
1146.884;    2.202;  -11.590;  622.500
1147.422;    0.894;  -12.550;  533.060
1147.961;    3.178;  -11.180;  708.460
1148.500;    2.741;  -11.510;  669.720
1149.038;    2.868;  -11.640;  632.500
1149.577;    2.947;  -10.130;  698.640
1150.115;   -0.714;  -13.970;  452.280
1150.653;    0.984;  -14.520;  607.340
1151.192;    1.262;  -12.810;  552.920
1151.730;    1.186;   -9.100;  652.560
1152.268;    0.367;  -12.220;  589.520
1152.806;    0.434;  -14.140;  571.180
1153.344;    0.334;  -12.350;  577.640
1153.882;    1.592;   -8.980;  600.060
1154.421;   -0.191;  -15.190;  470.620
1154.958;    0.425;  -15.210;  595.240
1155.496;    1.642;  -12.850;  645.280
1156.034;    1.053;   -9.940;  721.880
1156.572;    1.986;  -13.570;  667.060
1157.110;   -0.819;  -14.590;  473.940
1157.647;    0.897;  -13.030;  676.960
1158.185;   -0.166;  -12.140;  564.320
1158.723;   -0.666;  -14.390;  509.200
1159.260;    0.381;  -14.090;  701.700
1159.798;    1.123;  -11.920;  658.160
1160.335;    0.202;  -11.110;  631.820

