
Integration time [ms]:   3.276
Averaging Nr. [scans]: 1000
Smoothing Nr. [pixels]: 0
Data measured with spectrometer [name]: 7414430SP
Wave   ;Sample   ;Dark     ;Reference
[nm]   ;[counts] ;[counts] ;[counts] 

288.544;  150.438;    7.793;  793.890
289.143;  154.288;    7.462;  681.602
289.742;  153.367;    8.602;  828.814
290.341;  140.041;    1.321;  789.841
290.940;  129.416;   -0.709;  730.702
291.538;  130.213;    0.881;  881.108
292.137;  129.833;    0.122;  792.581
292.736;  134.804;   -1.929;  975.101
293.335;  130.709;   -8.229;  735.086
293.934;  131.725;   -5.279;  781.677
294.532;  129.923;   -1.369; 1031.958
295.131;  115.672;   -7.641;  834.394
295.730;  116.292;   -8.420;  809.588
296.328;  115.053;   -5.611;  783.442
296.927;  115.014;   -5.781;  779.652
297.525;  116.119;   -6.361;  781.236
298.124;  106.960;  -11.382;  654.009
298.722;  111.405;   -7.641;  761.933
299.321;  108.898;   -6.811;  708.597
299.919;  106.835;   -6.991;  751.918
300.518;  103.273;  -10.362;  689.338
301.116;  105.599;   -9.581;  691.381
301.715;  105.083;   -4.891;  730.222
302.313;  104.724;   -8.801;  704.943
302.911;  100.108;   -8.522;  733.830
303.509;  104.779;   -6.171;  925.627
304.108;  102.651;   -7.311;  760.383
304.706;  100.911;   -8.321;  801.664
305.304;   96.518;  -10.222;  796.707
305.902;  102.037;   -6.021;  784.484
306.500;   97.619;   -4.971;  728.200
307.098;   96.233;   -7.061;  746.560
307.696;   94.016;   -8.801;  780.432
308.294;   94.618;   -6.411;  731.359
308.892;   96.094;   -2.901;  759.769
309.490;   93.140;   -5.041;  712.161
310.088;   90.326;   -5.002;  788.444
310.686;   95.258;   -2.041;  821.749
311.284;   90.895;   -2.351;  766.040
311.882;   89.022;   -4.422;  731.225
312.480;   85.352;   -4.192;  697.167
313.078;   87.309;   -1.172;  808.331
313.675;   87.624;   -2.601;  691.600
314.273;   83.269;   -1.312;  797.837
314.871;   82.464;   -3.942;  589.829
315.468;   79.935;   -2.802;  652.090
316.066;   83.924;   -0.701;  694.427
316.664;   76.670;   -4.362;  656.351
317.261;   80.139;   -2.872;  910.128
317.859;   75.384;   -2.022;  768.735
318.456;   76.169;   -0.531;  830.096
319.054;   72.119;   -3.912;  787.828
319.651;   71.559;   -4.752;  759.928
320.249;   70.273;   -2.602;  810.188
320.846;   67.333;   -0.821;  714.286
321.443;   65.158;   -4.642;  832.135
322.041;   62.278;   -5.002;  812.315
322.638;   60.005;   -3.982;  701.456
323.235;   61.055;   -3.411;  665.683
323.833;   58.259;   -7.361;  740.354
324.430;   53.765;   -8.611;  615.900
325.027;   55.001;   -4.061;  876.855
325.624;   55.205;   -4.031;  644.532
326.221;   50.982;   -7.481;  689.717
326.818;   51.709;   -5.281;  818.332
327.415;   54.564;   -7.460;  748.828
328.012;   53.632;   -5.510;  690.585
328.609;   52.836;   -7.880;  731.389
329.206;   51.572;   -8.331;  778.621
329.803;   51.107;   -5.121;  737.841
330.400;   53.794;   -4.510;  704.260
330.997;   54.946;   -6.441;  817.147
331.594;   53.914;   -8.831;  788.185
332.191;   59.156;   -7.621;  728.722
332.787;   61.395;   -4.591;  844.463
333.384;   60.631;   -7.412;  763.093
333.981;   59.720;   -8.293;  815.687
334.578;   61.726;   -7.052;  708.378
335.174;   63.784;   -3.102;  731.469
335.771;   63.816;   -5.943;  836.456
336.367;   60.956;   -7.393;  710.631
336.964;   65.217;   -4.063;  793.266
337.561;   62.798;   -3.813;  731.112
338.157;   58.597;   -4.654;  911.916
338.754;   56.118;   -7.934;  796.589
339.350;   54.058;   -4.414;  722.493
339.946;   56.544;   -4.664;  773.135
340.543;   47.092;   -6.375;  846.136
341.139;   43.487;   -9.815;  720.836
341.735;   40.323;   -4.526;  772.593
342.332;   39.113;   -4.895;  691.472
342.928;   39.888;   -4.295;  795.394
343.524;   33.761;   -5.476;  761.684
344.120;   30.853;   -5.856;  738.562
344.716;   33.066;   -2.155;  723.717
345.313;   31.239;   -6.275;  795.342
345.909;   26.319;   -8.815;  627.336
346.505;   27.907;   -5.305;  740.247
347.101;   28.315;   -2.674;  827.864
347.697;   28.844;   -4.344;  785.398
348.293;   23.558;   -9.975;  627.244
348.889;   24.452;   -5.774;  745.914
349.485;   24.006;   -5.004;  688.205
350.081;   23.749;   -4.704;  772.592
350.676;   19.367;   -6.635;  691.606
351.272;   24.212;   -4.504;  809.530
351.868;   23.671;   -3.914;  780.497
352.464;   20.663;   -9.044;  723.932
353.059;   17.479;   -8.314;  646.017
353.655;   20.343;   -7.024;  777.063
354.251;   21.721;   -5.343;  759.845
354.846;   17.077;   -8.604;  740.646
355.442;   13.611;   -6.945;  753.071
356.038;   15.534;   -7.564;  751.708
356.633;   15.581;   -5.814;  728.594
357.229;   13.939;   -7.364;  724.757
357.824;   12.469;   -8.024;  703.600
358.420;   12.280;   -9.384;  679.726
359.015;   11.847;   -5.104;  695.357
359.610;   13.187;   -6.854;  763.920
360.206;    7.043;  -10.185;  603.240
360.801;    9.691;   -7.054;  646.503
361.396;   11.532;   -5.034;  725.975
361.992;    7.403;   -8.284;  668.220
362.587;    4.788;   -8.625;  670.160
363.182;    6.704;   -7.674;  689.631
363.777;    6.791;   -5.164;  738.242
364.372;    6.980;   -8.604;  737.314
364.967;    3.515;   -9.055;  680.744
365.563;    8.117;   -6.114;  815.567
366.158;    5.105;   -5.814;  685.161
366.753;    5.057;   -7.854;  649.263
367.348;    3.494;   -7.804;  746.056
367.942;    3.757;   -7.954;  697.298
368.537;    2.707;   -4.984;  754.245
369.132;    2.934;   -8.564;  703.428
369.727;   -1.211;   -8.855;  638.079
370.322;   -0.036;   -6.245;  580.186
370.917;    0.732;   -6.425;  710.646
371.511;    2.801;   -6.294;  861.834
372.106;   -0.292;   -7.685;  776.964
372.701;   -3.464;   -7.335;  585.988
373.296;    1.647;   -4.564;  863.135
373.890;   -3.075;  -10.235;  647.840
374.485;   -4.354;   -7.885;  691.199
375.079;   -1.350;   -7.324;  738.685
375.674;    0.053;   -3.494;  812.970
376.268;   -3.783;   -8.525;  691.759
376.863;   -9.703;  -10.086;  580.327
377.457;   -3.874;   -7.025;  662.490
378.052;   -5.520;   -3.585;  764.884
378.646;   -6.515;   -7.595;  741.167
379.240;   -6.468;   -8.335;  721.176
379.835;   -5.081;   -5.785;  636.978
380.429;   -7.772;   -4.335;  562.557
381.023;   -7.883;   -6.805;  779.205
381.617;  -10.468;   -9.195;  680.106
382.212;   -6.900;   -6.905;  685.303
382.806;   -6.224;   -3.745;  760.690
383.400;   -9.973;   -7.745;  672.281
383.994;  -10.851;   -9.765;  664.870
384.588;   -6.649;   -6.564;  697.701
385.182;   -6.044;   -5.344;  726.624
385.776;   -7.407;   -8.514;  706.875
386.370;  -10.362;   -9.555;  681.968
386.964;   -9.178;   -8.715;  684.155
387.558;   -7.805;   -6.174;  598.360
388.152;  -10.585;   -8.725;  681.959
388.745;   -8.964;   -7.965;  814.707
389.339;   -7.526;   -5.924;  747.642
389.933;   -6.731;   -5.524;  695.370
390.527;   -7.645;   -7.114;  859.029
391.120;  -14.050;  -10.725;  595.318
391.714;  -10.801;   -8.035;  711.633
392.308;   -7.885;   -3.574;  780.253
392.901;  -11.270;   -7.245;  642.460
393.495;  -13.531;   -9.285;  595.414
394.089;  -11.694;   -5.895;  760.452
394.682;  -11.359;   -4.295;  697.188
395.275;  -12.792;   -9.875;  719.927
395.869;  -13.386;   -8.485;  667.314
396.462;  -11.991;   -7.455;  616.609
397.056;   -7.999;   -5.424;  776.621
397.649;  -12.685;   -6.605;  731.575
398.242;   -9.877;   -8.224;  712.645
398.836;   -8.945;   -7.474;  766.408
399.429;  -10.242;   -7.094;  631.041
400.022;  -14.103;   -9.475;  665.902
400.615;  -10.956;   -7.145;  805.609
401.208;   -9.036;   -7.174;  691.451
401.802;  -11.790;   -5.515;  699.329
402.395;  -12.929;   -9.875;  683.502
402.988;  -13.836;   -8.845;  696.627
403.581;  -10.410;   -8.874;  646.878
404.174;   -8.614;   -5.324;  686.568
404.767;  -11.405;   -9.575;  638.583
405.360;  -12.918;  -10.965;  621.445
405.953;   -7.807;   -8.764;  759.034
406.545;   -7.564;   -7.514;  725.342
407.138;  -12.523;  -10.025;  618.350
407.731;  -10.134;  -10.034;  613.303
408.324;   -6.645;   -9.374;  660.554
408.917;   -7.806;   -6.534;  681.864
409.509;   -9.625;   -8.004;  740.396
410.102;  -10.745;   -9.875;  643.948
410.695;   -5.041;   -8.604;  665.758
411.287;   -6.571;   -6.794;  599.821
411.880;   -7.704;   -9.334;  585.421
412.472;   -9.563;  -10.254;  613.092
413.065;   -7.208;   -6.714;  629.408
413.657;   -5.507;   -7.234;  576.678
414.250;   -5.466;  -10.544;  646.681
414.842;   -7.451;   -9.744;  676.353
415.434;   -4.801;   -6.994;  570.463
416.027;   -1.269;   -5.893;  652.196
416.619;   -2.586;   -7.264;  713.400
417.211;   -3.788;  -10.374;  599.352
417.804;    0.459;   -7.993;  628.499
418.396;   -3.614;   -7.234;  607.643
418.988;   -0.859;   -9.443;  659.238
419.580;   -4.794;  -10.724;  568.276
420.172;   -2.649;  -10.323;  536.196
420.764;    1.882;   -8.793;  672.482
421.356;    1.001;  -11.143;  636.898
421.948;    0.050;   -8.293;  677.661
422.540;    4.615;   -7.893;  680.027
423.132;    3.757;   -7.082;  600.641
423.724;    0.378;   -8.653;  561.267
424.316;    2.231;  -10.213;  621.345
424.908;    6.180;   -9.762;  591.517
425.500;    7.079;   -5.572;  647.978
426.092;    7.733;   -8.422;  648.268
426.683;    6.842;   -9.283;  684.836
427.275;    9.205;   -7.852;  641.471
427.867;   10.946;   -5.272;  668.948
428.458;   11.024;   -7.682;  732.344
429.050;    9.684;  -10.612;  680.749
429.642;   12.177;   -9.882;  743.124
430.233;   12.655;   -6.962;  569.356
430.825;   13.892;   -6.842;  724.809
431.416;   11.889;   -9.672;  698.241
432.008;   14.757;   -6.552;  651.723
432.599;   15.924;   -6.891;  656.073
433.190;   12.269;  -10.912;  637.670
433.782;   12.536;  -11.172;  590.395
434.373;   19.293;   -6.061;  884.765
434.964;   18.109;   -8.251;  602.920
435.556;   16.492;   -9.722;  634.537
436.147;   19.102;   -9.082;  758.490
436.738;   18.561;   -8.041;  701.099
437.329;   23.609;   -7.341;  721.723
437.920;   16.680;   -8.162;  666.688
438.511;   16.937;  -11.802;  564.526
439.103;   23.462;  -10.191;  623.998
439.694;   25.846;   -7.601;  681.583
440.285;   25.632;   -8.541;  764.432
440.876;   24.345;   -9.751;  845.738
441.466;   23.852;   -9.401;  575.162
442.057;   28.987;   -7.760;  665.814
442.648;   27.389;   -9.971;  746.255
443.239;   27.093;  -11.001;  620.477
443.830;   31.352;   -7.990;  704.958
444.421;   33.436;   -7.910;  655.474
445.011;   29.607;   -8.131;  693.619
445.602;   29.933;   -7.111;  743.126
446.193;   31.075;  -10.920;  488.117
446.783;   35.199;   -6.500;  640.397
447.374;   31.137;   -8.671;  692.759
447.964;   31.870;  -10.781;  713.770
448.555;   39.809;   -9.650;  822.742
449.145;   37.370;   -8.660;  662.853
449.736;   38.043;   -8.990;  803.179
450.326;   37.245;   -9.500;  713.626
450.917;   42.541;   -8.680;  675.324
451.507;   41.736;   -7.520;  600.661
452.097;   42.710;   -8.590;  746.267
452.688;   42.954;  -11.340;  742.160
453.278;   43.252;  -10.100;  566.840
453.868;   47.671;   -6.019;  793.550
454.458;   45.558;   -9.440;  651.141
455.048;   46.329;  -10.560;  711.783
455.639;   48.697;  -11.799;  567.096
456.229;   51.006;   -6.899;  710.694
456.819;   52.851;   -7.389;  751.158
457.409;   53.217;  -11.119;  773.993
457.999;   56.032;   -9.289;  737.505
458.589;   55.714;   -6.139;  686.606
459.179;   56.179;   -8.729;  717.658
459.769;   53.898;   -9.789;  627.099
460.358;   59.474;  -10.259;  797.262
460.948;   59.671;   -7.299;  689.503
461.538;   60.698;  -10.289;  660.677
462.128;   58.157;  -11.269;  664.934
462.717;   65.953;   -9.368;  710.326
463.307;   67.757;   -7.908;  705.846
463.897;   63.995;   -9.599;  656.942
464.486;   63.709;   -9.769;  837.128
465.076;   68.166;   -8.048;  733.776
465.666;   72.378;   -9.358;  652.900
466.255;   68.859;   -7.919;  785.651
466.845;   68.013;  -11.689;  666.749
467.434;   71.643;   -7.818;  725.873
468.023;   72.281;   -7.678;  658.357
468.613;   70.089;  -10.939;  713.946
469.202;   75.110;  -10.118;  646.507
469.791;   78.428;   -9.108;  737.811
470.381;   81.703;   -6.058;  742.813
470.970;   80.119;  -10.428;  711.099
471.559;   80.419;  -10.268;  733.291
472.148;   83.312;   -8.448;  675.737
472.738;   85.909;   -6.917;  765.466
473.327;   85.067;  -11.978;  637.529
473.916;   85.938;  -11.888;  737.446
474.505;   90.142;   -9.437;  751.703
475.094;   93.001;   -6.747;  806.570
475.683;   92.181;   -9.367;  797.699
476.272;   93.478;  -12.637;  730.632
476.861;   96.496;  -10.027;  706.754
477.449;  102.249;   -8.716;  728.487
478.038;   97.212;   -9.577;  692.513
478.627;   98.636;   -9.718;  714.852
479.216;  104.890;   -8.947;  769.441
479.805;  108.197;   -6.256;  783.375
480.393;  107.799;   -7.937; 1008.945
480.982;  107.293;   -7.717;  874.501
481.571;  113.726;   -9.266;  858.333
482.159;  114.555;   -7.636;  705.386
482.748;  114.281;   -9.667;  821.385
483.336;  120.031;  -10.376;  858.209
483.925;  119.401;   -7.147;  774.373
484.513;  126.249;   -7.996;  758.962
485.102;  123.897;  -10.027;  810.965
485.690;  131.784;  -10.446; 1011.050
486.278;  135.009;   -8.446;  979.329
486.867;  135.039;   -6.356;  809.662
487.455;  136.716;   -9.136;  898.229
488.043;  138.571;  -10.646;  748.361
488.631;  147.349;   -7.456; 1005.079
489.220;  151.751;   -6.636;  908.626
489.808;  152.016;  -11.036;  741.415
490.396;  160.831;  -10.246;  914.645
490.984;  166.816;   -8.556;  830.161
491.572;  176.214;   -5.886;  940.315
492.160;  183.265;   -9.486;  919.081
492.748;  196.027;  -10.976;  884.341
493.336;  220.198;   -8.776; 1019.693
493.924;  248.151;   -5.465;  958.077
494.512;  277.161;   -9.986; 1066.638
495.100;  318.855;  -10.636; 1103.280
495.687;  377.760;  -10.885; 1206.373
496.275;  445.982;   -8.126; 1150.796
496.863;  521.671;  -10.586; 1281.171
497.451;  634.416;  -11.926; 1386.805
498.038;  772.348;  -10.885; 1556.729
498.626;  889.285;   -6.315; 1741.407
499.214; 1050.859;   -7.326; 2016.609
499.801; 1262.484;  -11.906; 2220.633
500.389; 1536.275;  -10.466; 2312.494
500.976; 1867.604;   -5.236; 2744.849
501.564; 2342.013;   -8.936; 3148.565
502.151; 2742.284;  -13.176; 3515.999
502.738; 3228.521;  -10.646; 3971.274
503.326; 3654.361;   -9.525; 4403.796
503.913; 4073.902;  -10.856; 5161.749
504.500; 4470.710;  -11.586; 5986.420
505.088; 4931.865;  -10.336; 6381.201
505.675; 5503.892;   -6.355; 6925.547
506.262; 6289.244;   -9.046; 7619.060
506.849; 7059.313;  -10.416; 8733.969
507.436; 7564.599;  -10.305; 9790.121
508.023; 8185.926;   -5.496; 9985.472
508.610; 8483.409;   -7.856;10434.618
509.197; 9169.723;  -10.097;11198.435
509.784;10655.663;  -10.886;12391.194
510.371;11778.100;   -9.315;13603.713
510.958;12574.211;   -9.936;14426.586
511.545;13413.681;   -9.326;15243.775
512.132;14295.700;  -10.075;15945.876
512.719;14885.626;   -7.796;16340.369
513.305;15887.790;  -10.606;18011.766
513.892;16707.010;  -11.486;19754.971
514.479;18187.805;   -9.126;20967.805
515.066;19802.148;   -6.026;22299.793
515.652;21227.918;   -8.466;22908.660
516.239;22556.512;  -10.886;23798.875
516.825;23554.211;  -11.496;25567.275
517.412;24588.490;   -5.796;28154.959
517.998;25249.219;  -10.506;28344.111
518.585;25371.715;  -10.076;27134.219
519.171;25967.471;   -8.315;27268.576
519.758;27485.111;   -8.596;28964.129
520.344;29384.855;   -8.466;30664.494
520.930;29351.689;  -11.006;32550.605
521.516;30767.203;  -10.495;35422.895
522.103;33206.273;   -5.526;38280.004
522.689;33832.141;   -8.746;37835.117
523.275;33354.910;  -11.376;37288.613
523.861;34698.348;  -11.156;37281.395
524.447;36143.695;   -8.135;37846.949
525.033;35975.457;   -7.896;38321.949
525.619;36140.770;  -12.476;38579.285
526.205;37862.914;   -9.516;40622.875
526.791;40264.211;   -6.926;42258.836
527.377;40501.324;   -8.346;42966.902
527.963;42088.680;   -8.717;42018.949
528.549;40416.594;  -11.016;42476.828
529.135;38929.352;   -8.536;41854.852
529.721;38177.344;   -9.666;41237.711
530.306;37375.734;  -10.066;41259.445
530.892;37247.879;  -11.356;41506.047
531.478;38757.559;   -6.596;43559.613
532.063;41899.332;   -8.836;47695.563
532.649;42455.297;  -10.047;50808.324
533.235;43265.902;   -9.746;51787.500
533.820;43824.555;   -6.566;52145.035
534.406;45305.105;  -10.817;51133.488
534.991;44980.805;   -9.416;49996.805
535.576;43578.141;   -9.036;48882.852
536.162;44178.590;   -6.156;46942.285
536.747;45055.758;  -11.607;45711.746
537.333;48784.492;  -11.787;48510.180
537.918;51928.656;  -12.437;50439.891
538.503;50619.891;   -7.196;50863.711
539.088;47039.938;  -10.556;50906.922
539.673;46813.945;   -8.767;52621.965
540.259;46989.980;  -10.026;52368.094
540.844;44439.629;   -7.416;50879.109
541.429;45810.910;   -9.467;52077.777
542.014;48674.922;   -9.527;52716.695
542.599;47925.824;   -9.946;52363.281
543.184;45447.715;   -7.927;53187.137
543.769;46870.820;   -9.297;54697.605
544.354;46447.473;  -10.127;53913.914
544.938;45206.445;   -9.267;49680.164
545.523;47247.738;   -6.506;47386.277
546.108;50167.281;   -9.787;49151.949
546.693;52204.945;  -11.587;51384.637
547.278;51887.375;  -10.986;51853.254
547.862;48852.473;   -8.206;51173.750
548.447;44208.586;  -10.067;51691.395
549.031;43759.617;   -9.637;52456.703
549.616;48897.699;   -9.926;52714.516
550.201;48134.672;   -6.347;52414.598
550.785;49254.906;   -7.917;52355.059
551.370;48347.938;  -10.867;54589.453
551.954;47949.434;   -9.047;58267.348
552.538;48830.531;   -7.827;59062.176
553.123;47161.379;  -10.287;58115.285
553.707;44870.816;  -12.178;56556.285
554.291;46354.488;   -8.717;56201.668
554.876;48815.578;   -7.457;55335.762
555.460;49003.629;  -10.387;54155.703
556.044;49880.680;   -9.618;53721.484
556.628;48565.867;  -11.567;53731.016
557.212;47442.754;   -8.097;54312.531
557.796;45923.383;  -11.077;53797.773
558.380;45871.309;  -11.108;56145.984
558.964;46209.016;   -9.057;57277.930
559.548;47487.441;   -6.977;56459.641
560.132;45852.027;  -11.457;54434.543
560.716;44286.184;  -11.378;54800.617
561.300;45354.809;   -9.577;57606.945
561.884;46678.473;   -7.127;58972.445
562.467;45045.145;   -7.118;57327.570
563.051;44335.344;  -13.358;54962.434
563.635;45297.453;  -10.178;52594.473
564.219;45642.004;   -7.837;50610.410
564.802;46648.887;  -11.398;49551.180
565.386;46514.137;  -12.788;48370.953
565.969;45675.641;   -9.077;48178.871
566.553;44869.980;   -6.207;49957.305
567.136;45587.496;   -8.568;50369.594
567.720;41885.168;  -11.868;49492.004
568.303;39797.988;   -8.268;50616.352
568.887;39851.539;   -8.698;50727.148
569.470;40121.844;   -6.808;51698.379
570.053;38623.883;  -13.188;52122.078
570.637;37026.531;  -12.037;52536.438
571.220;36958.078;   -8.577;51186.098
571.803;37610.000;   -8.498;51032.762
572.386;39751.148;  -10.498;49609.887
572.969;42285.953;   -9.388;48285.926
573.552;40457.027;   -8.338;47624.285
574.135;39123.000;   -8.518;45498.641
574.718;36700.348;  -13.628;41970.434
575.301;35651.566;  -10.893;41447.137
575.884;34602.781;   -8.158;40923.836
576.467;35786.680;  -10.328;45267.723
577.050;37803.465;  -13.058;48175.543
577.633;39227.387;   -9.458;47729.328
578.216;38300.543;   -8.928;47579.793
578.799;37354.152;   -9.358;47820.996
579.381;36080.207;  -11.388;48115.551
579.964;34160.406;  -11.718;47333.766
580.547;35962.852;   -8.588;46668.969
581.129;37212.785;   -8.859;44466.141
581.712;38133.281;  -10.729;44164.922
582.294;38744.027;  -11.118;46477.855
582.877;38477.359;   -5.218;48244.254
583.459;35966.152;   -8.679;47437.895
584.042;33981.945;  -10.709;46943.219
584.624;34575.480;  -11.669;46792.227
585.206;34100.781;   -8.218;46557.250
585.789;34060.637;  -10.569;45793.773
586.371;36907.063;  -11.859;43836.391
586.953;37467.504;  -10.719;42972.492
587.536;38869.594;   -7.198;42487.211
588.118;38922.148;   -8.720;42086.414
588.700;35057.793;  -10.439;43389.930
589.282;34099.461;   -9.198;43646.039
589.864;35156.941;   -9.199;43438.109
590.446;36254.930;  -11.319;43151.926
591.028;36131.063;  -11.159;42781.867
591.610;35014.121;  -11.779;42839.098
592.192;32358.924;   -7.668;42820.402
592.774;30792.314;  -11.949;40724.277
593.356;29465.377;  -12.129;39874.789
593.937;28376.787;  -10.669;39980.648
594.519;30589.570;   -6.509;42069.633
595.101;32751.309;  -10.849;42976.031
595.683;32829.664;  -11.679;44084.441
596.264;33940.723;   -9.049;43478.797
596.846;33355.582;   -8.849;43803.672
597.427;33292.102;   -9.570;42986.934
598.009;34958.398;  -12.620;42832.219
598.591;35351.492;  -10.039;42580.086
599.172;34526.355;  -10.369;43061.805
599.753;34749.777;   -9.140;41691.469
600.335;36415.828;  -11.430;40692.520
600.916;34546.742;   -9.939;39982.422
601.498;31805.928;   -8.479;40318.617
602.079;30227.904;  -10.920;40670.609
602.660;30126.152;  -11.480;41450.898
603.241;31664.061;  -11.699;41137.738
603.823;30409.055;   -9.579;38868.797
604.404;29897.150;  -10.620;38182.785
604.985;31569.250;  -10.450;38078.047
605.566;31373.527;   -9.129;38056.633
606.147;31558.041;   -7.510;37020.418
606.728;33171.828;  -10.660;37883.359
607.309;31796.670;  -11.740;38748.273
607.890;31299.900;   -9.759;38850.230
608.471;30735.031;   -8.250;37457.918
609.051;29797.500;   -9.240;36066.457
609.632;28655.441;  -12.120;35991.074
610.213;29441.779;   -9.110;37402.641
610.794;30182.494;   -8.030;38383.363
611.374;29698.154;   -8.110;40562.387
611.955;30280.174;  -13.560;38533.727
612.536;31640.658;  -11.400;36951.789
613.116;31462.885;   -8.070;37197.891
613.697;31761.861;  -10.830;38411.125
614.277;30140.561;  -11.641;38673.938
614.858;31042.764;  -13.310;37075.863
615.438;30204.920;   -7.460;35092.906
616.019;27518.463;   -7.601;33666.301
616.599;28122.754;  -12.020;34189.023
617.179;29993.041;  -11.780;36952.047
617.760;31101.256;   -8.570;39582.574
618.340;32203.381;  -11.471;38943.977
618.920;33413.945;  -11.170;37594.156
619.500;33144.266;  -11.071;37866.938
620.080;32134.145;   -7.750;37869.043
620.660;33346.379;  -12.711;36868.617
621.241;34697.043;  -10.211;36352.309
621.821;34890.172;  -10.961;35459.520
622.401;33912.797;   -7.720;35207.414
622.980;33242.785;   -8.981;35980.422
623.560;31771.275;   -9.331;37351.328
624.140;30479.275;   -9.850;34388.582
624.720;25326.664;   -7.451;32368.764
625.300;21835.941;   -9.070;32638.629
625.880;25285.307;  -12.601;34599.035
626.459;29249.896;  -11.751;36831.738
627.039;32280.455;   -9.281;38299.098
627.619;32094.344;   -8.801;38289.574
628.198;30562.816;  -12.071;37220.695
628.778;29823.783;   -9.461;37632.563
629.357;30547.920;   -8.491;38003.012
629.937;30462.080;   -9.721;38402.039
630.516;29986.756;   -9.951;37868.801
631.096;29771.416;  -11.731;35760.410
631.675;32281.066;   -8.572;35225.219
632.254;37283.930;  -11.282;35130.289
632.834;36658.605;  -13.322;35794.570
633.413;34834.840;  -10.301;35788.922
633.992;32165.875;   -8.582;34532.863
634.571;33120.531;   -8.352;33590.113
635.151;36141.066;  -11.912;34943.863
635.730;34316.449;  -10.511;35352.523
636.309;30708.104;   -7.731;35366.605
636.888;28203.391;   -9.952;36165.637
637.467;28939.621;  -11.672;37515.902
638.046;30665.279;   -8.901;39288.695
638.625;33908.691;   -7.912;38279.699
639.204;33666.410;  -10.022;37741.598
639.782;32041.201;  -12.252;38364.551
640.361;28349.137;  -10.041;36740.621
640.940;25504.906;  -11.161;34950.082
641.519;26211.264;   -9.701;34137.398
642.097;29113.953;  -11.271;35654.258
642.676;31919.078;   -8.651;35637.957
643.255;32593.076;   -8.711;36567.074
643.833;31764.830;   -9.581;37809.434
644.412;31782.377;  -13.711;37337.293
644.990;30795.713;  -11.811;37018.531
645.569;30702.143;   -9.411;36518.469
646.147;29639.484;  -10.291;36186.430
646.726;29459.418;  -12.401;36267.688
647.304;30827.367;  -10.411;36647.625
647.882;32594.084;   -9.651;39286.742
648.461;34135.160;   -9.631;39157.703
649.039;32490.375;  -11.881;35412.883
649.617;31857.994;   -9.661;34744.918
650.195;31492.605;   -9.301;35403.098
650.773;29998.256;  -10.511;35053.797
651.352;27553.607;  -11.521;33756.816
651.930;25230.689;  -12.211;31868.773
652.508;23720.000;   -9.171;33121.551
653.086;27676.926;   -9.371;33564.793
653.663;30560.410;  -13.161;34054.668
654.241;29336.613;  -13.031;35693.309
654.819;30968.277;   -9.371;36422.906
655.397;31033.650;  -10.511;38213.484
655.975;30659.879;  -10.371;39507.625
656.553;30549.830;  -10.051;39498.223
657.130;28889.623;  -10.061;40395.480
657.708;28099.654;   -9.561;39242.020
658.286;28180.604;  -11.511;38920.020
658.863;29571.725;  -10.261;40202.898
659.441;32642.197;   -7.531;39677.938
660.018;32124.152;   -9.501;40413.355
660.596;30983.314;  -13.301;39931.414
661.173;32870.098;  -11.211;39604.531
661.750;32851.367;   -9.951;39700.070
662.328;31483.775;   -9.390;39292.809
662.905;30657.031;  -11.330;38235.648
663.482;26509.113;   -9.050;36212.305
664.060;24656.807;   -8.240;35944.945
664.637;27430.590;  -10.050;35170.785
665.214;29394.559;  -11.760;34197.523
665.791;30942.438;  -10.530;34549.520
666.368;29645.221;   -9.690;35118.578
666.945;30215.383;   -9.320;36019.418
667.522;31809.617;  -11.860;36048.438
668.099;31488.549;  -10.770;36243.914
668.676;30256.664;   -6.260;35958.875
669.253;29016.742;   -7.000;37384.730
669.830;29719.012;  -10.190;36779.629
670.407;29412.168;   -9.550;35231.289
670.984;29243.617;   -9.260;35544.270
671.560;29755.193;   -9.280;35466.867
672.137;29071.869;  -11.810;34280.863
672.714;29948.371;  -11.490;34632.863
673.290;30432.619;   -7.740;35135.422
673.867;30633.945;  -10.660;36114.480
674.443;30533.098;  -12.230;36152.859
675.020;28731.078;  -10.450;35327.238
675.596;29828.563;   -9.260;35795.176
676.173;30256.785;  -10.780;35430.355
676.749;29986.426;  -13.690;33549.516
677.326;30012.168;  -11.980;32210.012
677.902;29984.580;   -8.630;32068.871
678.478;29351.346;  -10.730;32583.891
679.054;28782.691;  -10.520;32088.928
679.631;29044.816;  -11.920;30978.848
680.207;30600.115;   -7.490;33160.887
680.783;32239.363;   -9.860;35570.363
681.359;31367.604;  -13.380;36125.184
681.935;30770.197;  -12.480;35240.922
682.511;29952.654;   -7.900;34429.961
683.087;30003.748;   -7.710;34463.680
683.663;29552.752;  -11.480;34648.898
684.239;28324.813;  -14.090;34546.457
684.815;27964.416;   -7.560;35586.375
685.390;28325.221;   -9.910;35821.895
685.966;28793.904;  -11.159;35085.871
686.542;31178.816;  -11.169;34198.230
687.118;33438.789;   -5.959;32847.707
687.693;33743.602;  -10.329;32794.027
688.269;33396.262;  -12.059;33072.367
688.844;31470.594;  -10.909;33141.664
689.420;29223.072;   -8.019;33965.742
689.995;26989.359;   -8.399;34655.523
690.571;25684.756;  -10.949;33576.742
691.146;26109.996;   -9.619;32657.219
691.722;25617.250;   -8.999;32526.979
692.297;25469.770;  -11.589;33014.617
692.872;27247.932;  -11.739;34012.254
693.448;26871.410;  -11.059;34237.434
694.023;26064.967;  -10.139;34142.672
694.598;27930.840;   -9.029;34132.031
695.173;28195.922;  -13.319;34205.250
695.748;27394.189;  -10.169;32882.488
696.323;27556.861;   -8.339;32864.906
696.898;27836.219;   -8.169;33170.004
697.473;27773.898;  -12.309;32432.984
698.048;27303.607;  -10.989;31649.303
698.623;27176.539;   -9.329;30778.141
699.198;29149.771;   -9.849;31140.119
699.773;30113.115;  -12.329;31764.299
700.348;28370.900;  -10.389;31780.816
700.922;28364.807;   -9.269;32046.375
701.497;29303.938;   -9.329;32603.574
702.072;29480.033;  -10.789;34799.871
702.646;28075.891;  -10.839;35793.172
703.221;26014.086;   -9.099;35201.590
703.795;28121.479;  -10.939;34764.527
704.370;28536.938;  -12.859;34307.367
704.944;29032.650;  -11.559;33509.887
705.519;29922.951;   -7.939;31388.584
706.093;31261.180;  -10.499;31340.104
706.668;31536.844;  -11.289;32630.281
707.242;30450.871;  -11.509;32728.779
707.816;28905.566;   -9.639;32947.238
708.390;27412.713;  -11.429;33277.855
708.965;27874.502;  -11.869;33834.336
709.539;27822.668;  -11.689;33709.273
710.113;28295.271;  -10.478;33044.313
710.687;27741.277;  -10.228;31953.992
711.261;26067.025;  -13.698;30505.949
711.835;25867.383;  -13.378;30262.369
712.409;26662.189;   -9.698;31254.447
712.983;28610.221;  -11.898;32754.986
713.557;29553.084;  -15.138;34018.824
714.131;29196.566;  -14.098;34579.625
714.704;28283.318;   -9.958;33890.262
715.278;26036.033;  -10.028;33531.102
715.852;25009.064;  -11.148;33601.660
716.425;25781.230;   -9.068;33515.117
716.999;26493.820;  -10.038;33185.555
717.573;27461.836;   -9.798;33905.996
718.146;28495.223;  -12.378;35199.293
718.720;28533.748;  -11.918;35060.551
719.293;28018.156;   -8.088;34973.230
719.867;30832.123;  -10.888;36394.449
720.440;30555.918;  -11.938;36663.008
721.013;28990.547;  -12.818;35102.426
721.587;27581.365;  -10.298;33985.266
722.160;26549.037;  -10.048;33524.965
722.733;25528.197;  -12.108;32987.043
723.306;25794.195;  -10.818;33066.301
723.880;28176.330;   -8.908;33399.500
724.453;30204.939;   -9.878;33468.297
725.026;29313.283;  -11.188;33816.637
725.599;26574.361;  -11.678;32797.996
726.172;26790.131;   -9.618;33187.434
726.745;27813.652;   -8.258;35136.613
727.318;29132.740;  -12.978;35751.730
727.891;29705.854;  -12.148;35890.430
728.463;29431.402;   -8.968;34822.090
729.036;28439.131;  -10.188;32895.086
729.609;28858.352;  -11.788;31823.225
730.182;25770.621;  -11.788;31445.283
730.754;23318.613;  -10.268;32373.223
731.327;23386.318;   -9.998;33676.820
731.900;23649.016;  -12.228;33417.000
732.472;24953.521;  -13.848;31978.498
733.045;26897.219;   -8.698;30368.777
733.617;26973.986;  -10.607;30574.215
734.190;26635.771;  -11.507;31280.975
734.762;23787.842;  -13.647;31674.412
735.334;22027.557;   -9.767;31247.291
735.907;22735.287;   -9.897;29876.211
736.479;22845.592;  -11.637;29808.488
737.051;22479.805;   -9.567;30233.547
737.623;23420.879;   -8.187;31469.086
738.195;24137.486;  -11.187;31784.225
738.768;25908.623;  -12.337;32120.523
739.340;26201.861;  -12.227;32094.342
739.912;25107.613;  -11.057;31312.680
740.484;23637.947;  -10.207;31946.238
741.056;22505.432;  -10.047;32984.059
741.628;24284.418;  -13.627;33897.715
742.199;26430.553;   -7.177;33213.016
742.771;24769.535;  -10.797;31369.113
743.343;22492.770;  -11.997;31865.473
743.915;21495.596;  -12.867;32388.631
744.487;21595.098;   -7.617;31079.568
745.058;21835.643;   -9.557;30570.107
745.630;22274.441;   -9.877;29970.127
746.201;23109.408;  -14.177;29186.766
746.773;23615.945;   -9.237;28805.723
747.344;23469.764;   -9.847;29591.223
747.916;22119.713;  -11.657;31412.201
748.487;22314.463;  -10.587;32194.898
749.059;23401.588;   -8.707;32533.719
749.630;23951.861;  -10.537;32158.518
750.201;22914.227;  -11.687;30855.395
750.773;21195.723;  -11.647;28622.555
751.344;21160.303;   -7.147;28405.732
751.915;22460.490;   -9.757;28461.551
752.486;22489.750;  -12.427;27842.850
753.057;20254.930;  -12.227;27845.008
753.628;19003.430;  -10.417;27728.107
754.199;20099.516;  -11.767;27381.086
754.770;21081.006;  -11.187;25882.203
755.341;21035.359;  -10.507;25886.184
755.912;21081.695;   -9.387;26050.861
756.483;20646.762;  -10.647;26798.779
757.054;18974.980;  -11.837;27048.238
757.625;17720.020;  -12.716;26294.838
758.195;17377.203;   -9.666;26142.076
758.766;17076.068;   -8.656;26392.234
759.337;17889.049;  -12.856;26334.594
759.907;19540.623;  -13.366;27579.652
760.478;20433.521;   -8.576;28352.770
761.048;19885.410;  -10.526;27325.088
761.619;19077.045;  -11.116;26460.428
762.189;19076.668;  -12.136;26029.826
762.760;20076.881;   -9.456;26430.145
763.330;21147.373;   -7.136;26670.902
763.900;20593.768;  -11.786;26603.021
764.471;18093.584;  -11.546;25542.740
765.041;16878.357;   -8.096;24358.459
765.611;16934.033;   -8.876;23991.297
766.181;17326.229;  -12.196;24470.236
766.751;18293.980;  -11.636;24845.975
767.321;18051.070;  -10.156;24533.633
767.891;16158.809;  -11.766;24916.492
768.461;15607.836;  -14.936;24776.771
769.031;16062.864;  -12.356;24757.988
769.601;17607.555;   -7.526;24181.088
770.171;17504.320;  -10.766;23670.387
770.741;16786.928;  -13.176;22960.045
771.311;16922.885;  -10.616;22917.523
771.880;17288.428;   -9.576;23562.941
772.450;16956.785;  -10.336;24216.500
773.020;16900.746;  -13.516;24140.398
773.589;16209.222;  -13.466;24414.857
774.159;15602.161;   -8.686;23858.717
774.729;15283.676;   -9.476;22942.135
775.298;14844.251;  -13.666;22324.033
775.867;14459.845;  -11.716;21140.313
776.437;14517.810;   -9.906;20838.092
777.006;14312.977;  -12.166;20599.510
777.576;14198.074;  -12.356;20508.809
778.145;14258.501;  -11.646;20732.947
778.714;14125.853;   -8.226;21062.465
779.283;13419.156;   -9.556;20949.664
779.853;12979.073;  -14.116;20508.623
780.422;13476.031;  -11.506;20649.082
780.991;13028.787;   -9.556;21527.520
781.560;11876.734;   -9.095;22632.658
782.129;11738.477;  -12.135;23048.277
782.698;11779.673;  -10.865;23438.555
783.267;11391.759;   -9.335;23267.734
783.836;11325.929;  -11.045;22415.133
784.404;12327.010;  -13.865;20443.152
784.973;12892.009;  -13.095;19699.150
785.542;12774.975;  -11.575;19763.828
786.111;12576.850;   -9.705;20341.408
786.679;12099.446;  -12.105;20207.967
787.248;11860.087;  -12.455;19516.465
787.817;11674.569;  -11.535;18900.363
788.385;11317.800;   -9.765;17879.121
788.954;10765.185;  -14.005;17658.301
789.522;10259.434;  -11.955;17788.879
790.090;10818.858;  -10.135;18118.277
790.659;11198.634;  -10.975;18338.736
791.227;10714.138;  -13.375;18508.615
791.795;11143.846;  -12.375;17898.254
792.364;11499.531;  -10.725;17295.133
792.932;11804.678;   -9.715;16822.051
793.500;11933.408;  -12.675;17040.148
794.068;12114.396;  -13.495;17179.787
794.636;12247.633;  -10.885;16664.246
795.204;11667.711;  -11.045;16524.545
795.772;11711.222;  -13.175;17274.564
796.340;11262.099;  -12.445;17891.002
796.908;11099.379;   -9.735;17648.561
797.476;11018.310;   -9.815;17064.080
798.044;10577.270;  -13.985;16672.777
798.612; 9757.905;  -13.115;17023.996
799.180; 9371.855;  -10.185;16561.615
799.747; 9313.850;   -9.055;15962.773
800.315; 9062.215;  -12.385;15296.992
800.883; 8730.157;  -15.035;14801.771
801.450; 8740.992;  -10.365;14534.430
802.018; 8800.070;   -9.855;14173.248
802.585; 8928.949;  -11.905;14029.547
803.153; 8961.134;  -11.585;13836.846
803.720; 8775.744;   -9.095;13567.324
804.287; 8347.070;   -9.135;13360.622
804.855; 7941.634;  -11.604;13681.981
805.422; 7841.387;  -11.794;13536.560
805.989; 7872.770;  -10.734;13355.958
806.556; 8031.558;  -10.444;13747.896
807.124; 8250.371;  -12.764;13987.376
807.691; 8201.747;  -12.964;14038.674
808.258; 8015.771;  -11.134;14120.152
808.825; 7733.875;   -9.854;13860.111
809.392; 7791.299;  -10.504;13268.790
809.959; 7312.857;  -13.054;12680.389
810.526; 6898.250;   -8.294;12427.308
811.093; 6955.611;   -8.394;12030.105
811.659; 7583.336;  -12.304;11653.664
812.226; 8079.056;  -13.944;11637.183
812.793; 7778.383;  -10.484;11611.521
813.360; 7160.638;  -10.144;11885.181
813.926; 6850.907;  -11.684;12770.539
814.493; 6651.369;  -13.644;12677.638
815.060; 6266.463;   -9.724;11974.336
815.626; 6263.284;   -9.854;11594.715
816.193; 6667.758;  -13.254;11579.474
816.759; 6692.933;  -13.204;11666.972
817.325; 6775.515;   -9.434;11325.530
817.892; 7154.696;  -10.134;11105.369
818.458; 7586.289;  -13.474;10843.928
819.024; 7211.943;  -11.854;10714.406
819.591; 6903.656;  -10.244;10469.165
820.157; 6669.294;  -10.704;10235.523
820.723; 6159.509;  -12.324;10847.563
821.289; 5863.980;   -9.444;11040.980
821.855; 5793.807;   -8.374;10357.100
822.421; 5799.018;  -10.234; 9978.918
822.987; 5815.806;  -13.294; 9754.177
823.553; 5491.395;  -10.884;10065.755
824.119; 5295.929;   -8.884;10036.294
824.685; 5372.615;   -6.784;10029.192
825.251; 5463.123;  -12.004;10199.230
825.816; 5442.265;  -11.474; 9820.189
826.382; 5241.004;   -9.174; 9297.248
826.948; 5447.006;   -9.214; 9381.347
827.513; 5833.682;  -10.774; 9450.726
828.079; 5642.439;  -11.924; 9472.444
828.645; 5058.008;  -10.543; 9292.643
829.210; 4969.828;  -10.533; 9065.341
829.776; 4962.035;  -10.753; 9132.620
830.341; 4859.251;  -10.173; 9092.878
830.906; 5053.328;  -10.743; 9078.557
831.472; 5392.217;  -11.113; 8534.535
832.037; 5136.167;  -10.603; 8677.874
832.602; 4594.115;  -13.323; 8628.692
833.167; 4325.399;  -10.823; 8879.031
833.733; 4261.833;  -10.113; 9189.790
834.298; 4401.703;  -13.583; 9052.608
834.863; 4477.971;  -12.703; 8895.087
835.428; 4451.118;  -10.523; 8824.266
835.993; 4301.371;   -6.963; 8845.385
836.558; 4131.942;  -10.763; 8888.563
837.123; 4262.106;   -9.903; 8966.582
837.688; 4494.006;   -9.913; 8617.860
838.253; 4746.156;  -10.283; 8590.699
838.817; 4958.442;  -12.963; 8443.797
839.382; 4864.876;  -14.243; 8799.356
839.947; 4549.727;  -10.733; 8810.595
840.511; 4250.900;   -9.383; 8796.394
841.076; 3879.662;  -12.563; 8347.231
841.641; 3927.491;  -12.953; 8224.330
842.205; 4008.639;   -7.043; 8223.349
842.770; 4108.880;   -8.163; 8622.107
843.334; 4272.568;  -12.503; 8410.386
843.898; 4201.450;  -11.693; 8337.465
844.463; 4204.255;  -10.203; 8506.283
845.027; 3970.093;   -9.533; 8280.962
845.591; 3789.677;  -13.443; 8231.141
846.156; 3778.908;  -13.143; 7969.179
846.720; 3674.287;   -9.433; 7768.278
847.284; 3555.755;  -11.033; 7630.957
847.848; 3436.657;  -10.403; 7472.395
848.412; 3346.930;  -11.553; 7437.394
848.976; 3388.528;   -8.393; 7674.592
849.540; 3316.182;   -8.713; 7836.011
850.104; 3423.840;  -12.463; 7913.669
850.668; 3764.407;  -12.973; 7694.508
851.232; 3854.090;  -10.793; 7756.887
851.796; 3688.945;  -10.662; 7926.545
852.359; 3398.280;  -13.082; 7827.844
852.923; 3241.003;  -12.192; 7641.163
853.487; 3073.809;  -11.912; 7342.501
854.050; 3034.889;  -10.892; 7042.820
854.614; 3169.439;  -13.992; 7151.338
855.177; 3289.566;  -11.732; 7105.077
855.741; 3318.724;   -8.962; 6989.675
856.304; 3194.281;   -9.442; 6596.634
856.868; 3139.223;  -14.192; 6356.272
857.431; 3228.079;  -12.702; 6468.571
857.995; 3335.609;   -9.942; 6373.210
858.558; 3340.284;   -9.112; 6324.448
859.121; 3074.878;  -12.932; 6408.327
859.684; 2959.556;  -13.442; 6347.886
860.247; 3072.233;  -10.632; 6321.264
860.810; 3069.771;  -11.272; 6301.903
861.374; 2817.330;   -9.832; 6607.881
861.937; 2571.711;  -11.762; 6408.200
862.500; 2567.708;   -9.722; 6572.639
863.062; 2738.493;  -10.512; 6387.297
863.625; 2901.009;  -11.232; 6190.836
864.188; 3051.030;  -14.112; 5807.254
864.751; 3106.595;  -11.302; 5682.413
865.314; 2995.970;  -10.112; 5547.492
865.876; 2787.556;  -12.182; 5500.150
866.439; 2770.004;  -10.722; 5415.909
867.002; 2722.865;   -9.252; 5501.567
867.564; 2528.679;   -9.572; 5413.946
868.127; 2322.954;  -13.142; 5160.325
868.689; 2226.997;  -12.902; 5133.183
869.252; 2132.698;   -9.732; 5252.382
869.814; 2044.176;   -9.432; 5297.141
870.377; 2052.054;  -11.552; 5390.919
870.939; 2110.664;   -9.052; 5599.898
871.501; 2171.067;  -10.982; 5248.336
872.063; 2172.282;  -12.292; 4854.235
872.626; 2133.532;  -14.912; 4817.074
873.188; 2158.971;  -13.112; 4987.732
873.750; 2126.339;  -13.442; 4868.651
874.312; 2027.039;   -9.402; 4779.330
874.874; 1942.850;  -11.062; 4866.348
875.436; 1858.828;  -13.931; 4718.887
875.998; 1850.002;   -9.561; 4660.005
876.560; 1875.281;  -11.321; 4462.964
877.122; 1821.259;  -12.221; 4145.042
877.683; 1734.082;  -12.191; 4056.481
878.245; 1669.779;  -12.101; 3950.740
878.807; 1707.259;   -8.971; 4058.958
879.369; 1728.416;  -12.071; 3954.677
879.930; 1632.318;  -14.621; 3941.495
880.492; 1568.047;  -10.311; 4067.014
881.053; 1535.346;  -10.901; 3859.633
881.615; 1432.823;  -14.411; 3776.071
882.176; 1340.651;  -13.761; 3734.750
882.738; 1292.693;   -9.181; 3678.489
883.299; 1268.899;  -11.791; 3405.407
883.860; 1269.938;  -13.121; 3351.106
884.422; 1272.408;  -11.211; 3394.044
884.983; 1229.975;  -10.091; 3166.443
885.544; 1156.071;   -8.461; 3189.802
886.105; 1077.352;  -12.361; 3160.360
886.666; 1010.695;  -14.141; 3093.059
887.227;  956.709;  -11.361; 2941.957
887.788;  895.280;  -11.401; 2974.836
888.349;  834.133;  -13.791; 2721.214
888.910;  834.182;  -13.191; 2696.493
889.471;  840.559;   -9.881; 2560.172
890.032;  824.346;   -9.881; 2558.190
890.593;  802.043;  -10.371; 2567.669
891.153;  775.678;  -13.301; 2460.307
891.714;  726.387;  -11.431; 2372.046
892.275;  689.807;  -11.291; 2309.505
892.835;  652.474;  -11.471; 2382.543
893.396;  602.901;  -11.541; 2295.502
893.956;  548.761;  -11.181; 2162.420
894.517;  512.201;  -11.741; 2125.439
895.077;  504.985;  -11.671; 2086.978
895.638;  504.950;  -11.311; 2126.316
896.198;  476.152;   -9.831; 1838.275
896.758;  434.171;   -8.421; 1892.813
897.319;  405.751;  -12.351; 1792.232
897.879;  389.657;  -13.511; 1762.751
898.439;  364.230;  -12.001; 1661.149
898.999;  341.195;  -10.180; 1781.468
899.559;  332.978;  -12.030; 1703.347
900.119;  329.184;  -15.710; 1537.525
900.679;  325.140;   -8.900; 1638.384
901.239;  309.833;   -8.340; 1527.902
901.799;  300.496;  -13.910; 1456.441
902.359;  294.351;  -13.460; 1357.140
902.919;  288.441;  -11.490; 1331.118
903.479;  275.593;  -12.110; 1317.257
904.038;  256.061;  -11.720; 1262.595
904.598;  240.431;  -13.610; 1152.034
905.158;  236.038;  -11.040; 1240.893
905.717;  230.346;  -10.900; 1233.691
906.277;  219.150;  -15.080; 1217.330
906.836;  208.801;  -13.380; 1222.408
907.396;  201.613;  -10.780; 1193.047
907.955;  194.615;   -8.500; 1182.526
908.515;  188.759;  -12.760; 1099.364
909.074;  182.844;  -11.900; 1092.863
909.633;  177.589;   -8.950; 1069.121
910.192;  173.728;   -8.770; 1196.460
910.752;  168.116;  -12.390; 1029.960
911.311;  164.610;  -13.680; 1009.780
911.870;  161.205;  -12.370;  971.460
912.429;  162.792;  -10.900; 1094.080
912.988;  161.532;  -11.690; 1081.060
913.547;  156.902;  -13.240;  940.380
914.106;  152.039;  -11.990;  999.420
914.665;  149.519;   -9.990;  984.020
915.224;  148.324;  -12.880; 1035.760
915.782;  149.256;  -12.350;  922.560
916.341;  148.163;   -9.110; 1049.840
916.900;  144.571;   -9.270;  925.260
917.458;  142.573;  -13.240;  884.220
918.017;  142.831;  -13.550;  942.600
918.576;  141.594;  -12.320;  904.440
919.134;  139.742;  -11.490;  837.980
919.693;  137.730;  -13.670;  893.060
920.251;  135.435;  -15.470;  876.500
920.809;  135.654;  -11.290;  839.580
921.368;  133.732;  -10.210;  885.360
921.926;  132.827;  -12.140;  842.940
922.484;  132.108;  -13.080;  903.360
923.042;  131.903;  -11.720;  880.340
923.601;  135.205;   -7.480;  998.680
924.159;  133.392;  -11.570;  935.560
924.717;  130.145;  -13.840;  841.080
925.275;  130.217;  -10.640;  903.240
925.833;  129.378;  -11.540;  779.320
926.391;  130.862;  -12.960;  938.380
926.949;  128.858;  -14.130;  857.680
927.506;  129.823;  -11.750;  903.500
928.064;  129.698;  -10.250;  877.580
928.622;  129.365;  -13.030;  880.100
929.180;  128.786;  -13.400;  814.180
929.737;  129.388;  -10.700;  808.540
930.295;  133.167;  -10.070;  928.480
930.853;  134.442;  -11.960;  849.100
931.410;  135.340;  -13.120;  821.120
931.968;  134.314;  -10.770;  940.660
932.525;  133.818;  -10.680;  909.380
933.082;  134.117;  -13.130;  811.440
933.640;  135.619;  -13.210;  925.900
934.197;  134.021;  -11.060;  886.360
934.754;  134.253;   -9.580;  897.780
935.312;  136.716;  -14.000;  863.340
935.869;  140.781;  -10.710; 1012.980
936.426;  142.049;   -9.860;  872.800
936.983;  142.491;   -9.710;  889.020
937.540;  141.765;  -13.990;  838.280
938.097;  140.723;  -14.040;  940.120
938.654;  141.156;  -10.310;  898.860
939.211;  143.370;  -10.560;  952.480
939.768;  147.336;  -13.900;  915.420
940.324;  150.463;  -14.760;  904.200
940.881;  151.326;  -10.370;  878.500
941.438;  152.246;   -8.260; 1021.200
941.995;  147.701;  -12.540;  992.560
942.551;  145.695;  -14.670;  875.620
943.108;  146.551;  -10.450;  937.920
943.664;  147.917;  -10.750;  869.340
944.221;  151.688;  -11.550; 1088.140
944.777;  148.727;  -14.770;  869.680
945.334;  149.302;  -12.820;  884.840
945.890;  151.372;  -10.130;  946.480
946.446;  150.942;  -13.470;  947.020
947.003;  153.033;  -12.120;  964.940
947.559;  155.026;   -9.980; 1063.040
948.115;  155.073;   -9.080; 1026.540
948.671;  152.211;  -10.830;  967.300
949.227;  150.916;  -12.440;  859.560
949.783;  147.613;  -12.910;  858.900
950.339;  150.007;  -10.270;  991.000
950.895;  149.288;  -13.630; 1023.840
951.451;  148.986;  -15.100;  925.280
952.007;  149.310;  -11.330;  998.540
952.563;  149.896;  -10.580;  937.780
953.118;  149.173;  -13.440;  904.940
953.674;  149.115;  -12.710;  935.780
954.230;  148.493;  -10.350;  949.640
954.785;  145.304;   -9.190;  936.640
955.341;  143.092;  -11.200;  998.160
955.897;  141.459;  -16.560;  834.660
956.452;  142.710;  -12.570;  953.840
957.008;  141.489;   -7.970; 1083.640
957.563;  138.766;  -11.940; 1009.540
958.118;  135.187;  -13.450;  877.700
958.674;  135.188;  -12.030;  946.780
959.229;  136.324;   -9.410; 1013.980
959.784;  133.927;  -12.000;  832.400
960.339;  132.818;  -14.780; 1001.280
960.894;  130.085;   -9.860;  963.760
961.449;  126.365;   -9.970;  859.960
962.004;  125.983;  -10.900; 1212.840
962.559;  121.027;  -13.150;  860.140
963.114;  118.481;  -13.740;  742.480
963.669;  118.416;   -9.820;  915.500
964.224;  117.544;  -13.890;  874.340
964.779;  115.735;  -12.600;  828.420
965.334;  117.454;  -10.950; 1017.860
965.888;  115.864;  -11.170;  875.360
966.443;  119.058;  -12.540;  972.380
966.998;  117.908;  -15.780;  819.460
967.552;  117.696;   -9.760;  908.380
968.107;  113.709;   -9.060;  868.300
968.661;  114.797;  -11.950;  922.440
969.216;  115.510;  -12.800;  856.280
969.770;  114.928;  -11.210;  917.200
970.324;  114.532;  -11.610;  923.140
970.879;  110.676;  -11.370;  947.180
971.433;  108.487;  -12.540;  952.720
971.987;  103.623;  -11.320;  895.340
972.541;  101.295;  -10.720;  917.100
973.095;  100.218;   -9.680; 1009.460
973.649;   99.453;  -11.440;  809.480
974.203;   97.768;  -11.210;  829.040
974.757;   98.189;  -10.240;  855.220
975.311;   97.737;  -13.720;  872.600
975.865;   96.660;  -13.770;  881.820
976.419;   95.952;  -11.690;  857.400
976.973;   94.969;   -9.510;  849.620
977.526;   97.409;  -12.620;  949.920
978.080;   97.369;  -12.010;  796.780
978.634;   98.244;  -10.170;  921.320
979.187;   95.725;   -9.020;  905.400
979.741;   92.869;   -9.820; 1018.380
980.294;   88.676;  -14.870;  789.160
980.848;   86.544;  -12.380;  717.220
981.401;   88.071;  -10.350;  816.540
981.955;   90.144;  -13.720;  844.300
982.508;   89.496;  -11.490;  746.340
983.061;   89.763;  -10.000;  915.260
983.615;   85.748;  -11.480;  798.800
984.168;   82.076;  -13.220;  770.080
984.721;   82.182;  -13.960;  880.760
985.274;   82.152;  -10.870;  867.500
985.827;   79.907;   -9.790;  834.220
986.380;   77.824;  -13.120;  721.340
986.933;   77.334;  -12.450;  864.800
987.486;   75.057;  -10.210;  861.920
988.039;   74.415;   -8.430;  863.100
988.591;   72.300;  -10.520;  893.260
989.144;   70.317;  -14.860;  737.260
989.697;   69.704;  -13.080;  758.740
990.250;   70.280;  -10.150;  858.100
990.802;   68.968;  -13.430;  755.860
991.355;   70.835;  -12.750;  974.880
991.907;   68.371;  -12.040;  864.320
992.460;   65.907;  -11.330;  753.760
993.012;   65.162;  -13.610;  749.540
993.565;   64.199;  -13.460;  711.360
994.117;   64.709;   -9.360;  950.780
994.669;   60.583;  -11.300;  701.320
995.221;   59.555;  -13.540;  791.920
995.774;   58.609;  -13.430;  787.580
996.326;   57.247;  -12.520;  740.220
996.878;   56.980;  -10.950;  838.420
997.430;   54.189;  -14.300;  699.860
997.982;   54.128;  -13.760;  750.140
998.534;   53.643;  -11.530;  739.060
999.086;   52.221;  -10.310;  738.220
999.638;   50.171;  -12.530;  661.380
1000.190;   50.478;  -11.840;  699.320
1000.741;   49.801;  -10.260;  742.700
1001.293;   49.835;   -8.860;  686.020
1001.845;   47.822;  -13.700;  676.640
1002.396;   47.893;  -12.100;  743.400
1002.948;   47.934;  -12.760;  737.400
1003.500;   46.190;  -10.380;  723.780
1004.051;   47.012;  -11.900;  907.580
1004.603;   44.770;  -12.250;  791.820
1005.154;   41.752;  -13.210;  608.980
1005.705;   40.693;  -10.950;  723.960
1006.257;   39.811;  -13.880;  707.220
1006.808;   39.470;  -12.840;  685.460
1007.359;   39.577;  -10.570;  763.240
1007.910;   37.717;   -9.620;  646.640
1008.461;   37.435;  -13.630;  732.940
1009.013;   37.040;  -17.200;  588.340
1009.564;   37.963;  -10.200;  793.520
1010.115;   36.018;  -12.570;  597.040
1010.665;   35.388;  -15.150;  602.160
1011.216;   36.099;  -14.480;  667.920
1011.767;   35.066;  -11.340;  697.920
1012.318;   35.396;   -9.780;  736.980
1012.869;   33.773;  -12.380;  679.000
1013.419;   33.905;  -15.560;  603.120
1013.970;   34.347;  -11.010;  666.640
1014.521;   33.343;  -11.610;  620.620
1015.071;   33.476;  -13.450;  670.380
1015.622;   33.311;  -13.870;  635.460
1016.172;   32.246;  -11.610;  596.820
1016.723;   32.507;  -12.120;  614.380
1017.273;   31.805;  -13.620;  604.160
1017.823;   32.552;  -14.140;  650.340
1018.374;   32.228;  -12.800;  611.760
1018.924;   31.883;  -12.340;  716.880
1019.474;   32.011;  -11.410;  718.880
1020.024;   30.445;  -14.770;  657.580
1020.574;   31.720;   -9.780;  726.160
1021.124;   31.718;   -8.560;  673.580
1021.674;   30.307;  -15.190;  559.120
1022.224;   31.374;  -13.530;  708.940
1022.774;   30.651;  -13.280;  668.820
1023.324;   31.057;  -10.690;  753.520
1023.874;   31.869;  -10.240;  875.760
1024.423;   29.175;  -12.540;  613.700
1024.973;   29.035;  -10.010;  610.760
1025.523;   28.448;  -10.550;  620.960
1026.072;   28.298;  -13.560;  606.420
1026.622;   28.409;  -15.120;  675.740
1027.172;   29.036;  -11.260;  715.660
1027.721;   28.107;  -11.410;  601.220
1028.270;   28.394;  -13.530;  663.400
1028.820;   28.414;  -13.680;  638.080
1029.369;   27.427;  -13.520;  612.700
1029.918;   27.477;  -10.980;  649.840
1030.468;   26.956;  -13.530;  564.780
1031.017;   27.283;  -13.170;  634.800
1031.566;   26.768;  -12.200;  608.900
1032.115;   26.656;   -9.960;  694.500
1032.664;   26.042;  -13.210;  596.480
1033.213;   27.000;  -12.500;  735.420
1033.762;   26.341;  -11.910;  635.620
1034.311;   25.703;   -9.640;  677.220
1034.860;   26.306;  -13.310;  691.000
1035.408;   26.173;  -11.830;  722.720
1035.957;   26.836;  -12.000;  719.540
1036.506;   23.681;  -11.690;  530.800
1037.055;   26.703;  -10.990;  844.320
1037.603;   25.750;  -15.120;  664.000
1038.152;   23.214;  -12.450;  534.760
1038.700;   23.867;  -10.560;  585.740
1039.249;   23.797;  -11.080;  681.220
1039.797;   24.490;  -12.540;  633.360
1040.345;   24.472;  -11.920;  705.420
1040.894;   23.953;  -11.410;  625.300
1041.442;   24.095;  -14.320;  632.200
1041.990;   22.288;  -16.240;  559.160
1042.538;   22.335;  -11.680;  536.180
1043.087;   22.335;  -10.760;  570.860
1043.635;   23.704;  -11.850;  670.500
1044.183;   22.699;  -15.480;  586.400
1044.731;   22.740;  -11.770;  576.000
1045.279;   21.947;  -13.090;  674.920
1045.827;   23.778;  -12.440;  892.400
1046.374;   21.432;  -13.840;  515.420
1046.922;   21.045;  -13.220;  590.580
1047.470;   22.597;  -10.230;  691.300
1048.018;   22.054;  -14.590;  647.960
1048.565;   22.406;  -12.050;  708.600
1049.113;   20.987;  -11.650;  557.000
1049.660;   20.653;  -10.510;  629.660
1050.208;   21.148;  -13.310;  675.640
1050.755;   20.055;  -15.900;  606.580
1051.303;   21.156;  -11.430;  686.820
1051.850;   20.533;   -8.480;  635.120
1052.397;   18.464;  -15.010;  473.960
1052.945;   19.669;  -13.960;  617.760
1053.492;   21.118;  -13.150;  741.840
1054.039;   21.173;   -9.630;  720.180
1054.586;   19.169;  -13.680;  557.240
1055.133;   20.581;  -14.570;  693.140
1055.680;   19.933;  -13.820;  646.620
1056.227;   18.665;  -11.730;  542.780
1056.774;   20.370;  -12.480;  794.980
1057.321;   19.050;  -13.930;  523.260
1057.868;   18.978;  -11.690;  651.320
1058.415;   18.771;   -9.520;  651.980
1058.961;   18.607;  -13.160;  678.940
1059.508;   18.500;  -12.920;  643.820
1060.055;   18.499;  -11.920;  581.780
1060.601;   18.740;  -11.500;  624.300
1061.148;   18.203;  -14.330;  616.820
1061.694;   17.382;  -16.870;  592.580
1062.241;   18.361;  -10.330;  596.320
1062.787;   18.327;  -10.620;  663.140
1063.334;   19.122;  -10.110;  808.560
1063.880;   17.560;  -13.400;  668.360
1064.426;   17.756;  -10.680;  706.820
1064.972;   17.184;   -9.920;  601.340
1065.518;   15.518;  -10.980;  566.640
1066.065;   17.122;  -14.890;  624.460
1066.611;   16.725;  -12.870;  598.800
1067.157;   17.520;  -12.950;  641.860
1067.703;   17.151;  -13.540;  668.480
1068.249;   16.579;  -13.540;  605.220
1068.794;   16.008;  -12.600;  626.880
1069.340;   15.186;  -10.620;  578.960
1069.886;   16.076;  -12.830;  590.700
1070.432;   15.310;  -14.870;  541.720
1070.977;   15.054;  -11.980;  601.080
1071.523;   14.957;   -8.200;  573.060
1072.068;   15.017;  -12.330;  582.000
1072.614;   15.610;  -16.370;  527.760
1073.160;   15.876;  -11.100;  687.040
1073.705;   15.116;  -10.480;  572.520
1074.250;   14.300;  -14.520;  559.900
1074.796;   16.093;  -11.460;  655.160
1075.341;   15.325;  -11.950;  664.100
1075.886;   15.058;  -11.460;  594.240
1076.431;   14.242;  -13.770;  649.880
1076.976;   15.051;  -12.680;  639.220
1077.521;   14.055;  -13.170;  583.080
1078.067;   13.461;  -10.860;  579.400
1078.612;   13.986;  -13.920;  661.620
1079.156;   13.735;  -13.880;  601.540
1079.701;   14.364;  -13.120;  693.260
1080.246;   14.417;   -9.940;  696.300
1080.791;   13.951;  -14.740;  625.020
1081.336;   13.740;  -13.750;  659.320
1081.880;   13.784;  -13.400;  649.680
1082.425;   12.257;  -12.220;  573.480
1082.970;   14.179;  -11.610;  717.040
1083.514;   12.990;  -13.580;  597.000
1084.059;   12.608;  -12.810;  586.720
1084.603;   12.339;  -12.320;  565.840
1085.147;   13.226;  -13.190;  645.220
1085.692;   14.112;  -12.480;  716.800
1086.236;   11.467;  -13.020;  503.140
1086.780;   13.790;   -9.190;  751.440
1087.325;   12.686;  -12.480;  654.620
1087.869;   12.295;  -12.450;  610.700
1088.413;   12.328;  -12.240;  705.040
1088.957;   10.691;   -9.020;  543.400
1089.501;   12.220;  -10.320;  766.640
1090.045;   12.210;  -12.720;  726.480
1090.589;   10.440;  -13.690;  569.920
1091.133;   11.153;  -10.020;  673.340
1091.676;   11.428;  -12.330;  591.940
1092.220;   10.924;  -14.970;  600.920
1092.764;   12.209;  -12.430;  706.960
1093.307;   11.297;   -9.800;  673.780
1093.851;   10.030;  -14.970;  556.540
1094.395;   11.159;  -15.310;  683.140
1094.938;   10.638;  -10.370;  632.520
1095.482;   10.075;  -11.050;  559.800
1096.025;   10.820;  -11.840;  710.880
1096.568;   11.447;  -12.840;  779.280
1097.112;    8.067;  -14.700;  508.180
1097.655;   10.253;   -8.720;  603.000
1098.198;    9.541;  -13.610;  600.180
1098.741;    9.801;  -13.350;  612.860
1099.285;   10.587;  -11.230;  657.300
1099.828;    7.961;  -11.840;  439.400
1100.371;    9.367;  -10.840;  608.160
1100.914;   10.168;  -14.190;  682.660
1101.457;    9.764;  -11.240;  679.900
1101.999;    8.443;  -11.270;  584.680
1102.542;    9.102;  -11.480;  641.440
1103.085;    8.698;  -11.750;  658.500
1103.628;    9.367;  -11.400;  762.060
1104.170;    8.657;  -10.490;  588.280
1104.713;    8.995;  -10.600;  646.700
1105.256;    8.540;  -14.360;  557.440
1105.798;    8.095;  -13.210;  499.980
1106.341;    9.505;  -10.270;  728.900
1106.883;    8.104;  -12.200;  521.340
1107.425;    7.648;  -13.110;  668.180
1107.968;    7.942;  -12.840;  612.380
1108.510;    8.636;   -6.480;  684.960
1109.052;    6.731;  -13.940;  612.620
1109.594;    7.392;  -13.690;  554.440
1110.136;    7.679;  -11.880;  643.220
1110.679;    6.775;   -9.500;  633.080
1111.221;    8.237;  -14.160;  604.460
1111.763;    7.457;  -13.980;  559.220
1112.304;    6.679;  -13.880;  547.140
1112.846;    7.104;  -12.210;  666.240
1113.388;    9.290;  -11.390;  942.180
1113.930;    7.151;  -14.540;  694.200
1114.472;    6.653;  -12.640;  606.540
1115.013;    5.683;  -11.620;  551.280
1115.555;    5.693;  -13.640;  587.100
1116.097;    5.436;  -15.380;  579.480
1116.638;    6.192;  -12.640;  684.600
1117.180;    6.648;   -9.850;  667.740
1117.721;    6.275;  -13.690;  568.580
1118.262;    6.459;  -12.680;  677.960
1118.804;    6.629;  -12.530;  637.340
1119.345;    4.960;  -11.690;  578.400
1119.886;    6.410;  -13.380;  704.040
1120.427;    4.809;  -14.070;  589.020
1120.969;    4.922;  -13.500;  597.920
1121.510;    4.943;  -11.480;  563.060
1122.051;    5.494;  -12.830;  723.580
1122.592;    4.725;  -14.290;  655.420
1123.133;    3.814;  -12.400;  547.940
1123.673;    5.699;  -10.130;  706.480
1124.214;    5.445;  -12.930;  612.460
1124.755;    5.104;  -14.380;  639.460
1125.296;    5.718;  -14.000;  627.320
1125.836;    6.011;  -10.070;  691.500
1126.377;    4.200;  -12.640;  599.660
1126.918;    4.748;  -12.960;  614.980
1127.458;    4.319;  -13.350;  622.220
1127.999;    5.120;  -10.750;  656.980
1128.539;    4.730;  -12.350;  694.240
1129.079;    4.180;  -14.860;  632.720
1129.620;    4.344;  -13.840;  558.100
1130.160;    3.470;  -12.330;  539.480
1130.700;    4.124;  -14.530;  640.840
1131.240;    5.176;  -12.530;  643.700
1131.781;    3.588;  -14.450;  619.680
1132.321;    4.021;   -9.790;  599.120
1132.861;    2.289;  -14.860;  564.200
1133.401;    2.780;  -14.290;  593.940
1133.941;    3.442;  -11.750;  626.280
1134.481;    2.748;   -9.920;  597.580
1135.020;    3.086;  -12.290;  609.160
1135.560;    2.948;  -11.650;  674.940
1136.100;    2.729;  -16.270;  501.160
1136.640;    2.455;  -10.890;  510.480
1137.179;    2.472;  -14.180;  537.960
1137.719;    2.371;  -16.250;  605.400
1138.258;    3.213;  -14.230;  587.360
1138.798;    3.019;   -9.090;  663.780
1139.337;    1.363;  -15.130;  482.840
1139.877;    2.943;  -13.680;  642.360
1140.416;    4.637;  -11.320;  878.060
1140.955;    2.408;  -10.860;  535.380
1141.494;    2.429;  -12.920;  669.280
1142.034;    1.803;  -13.930;  583.520
1142.573;    2.999;  -11.440;  646.280
1143.112;    1.523;  -12.000;  553.480
1143.651;    1.905;  -13.670;  536.480
1144.190;    3.198;  -12.730;  691.640
1144.729;    1.920;  -14.560;  607.420
1145.267;    2.125;  -11.830;  584.900
1145.806;    2.448;  -12.230;  637.040
1146.345;    1.466;  -14.130;  635.020
1146.884;    1.495;  -11.590;  622.500
1147.422;    1.089;  -12.550;  533.060
1147.961;    2.014;  -11.180;  708.460
1148.500;    2.310;  -11.510;  669.720
1149.038;    2.671;  -11.640;  632.500
1149.577;    1.773;  -10.130;  698.640
1150.115;   -0.027;  -13.970;  452.280
1150.653;    1.698;  -14.520;  607.340
1151.192;    0.777;  -12.810;  552.920
1151.730;    0.841;   -9.100;  652.560
1152.268;    0.403;  -12.220;  589.520
1152.806;    0.640;  -14.140;  571.180
1153.344;   -0.443;  -12.350;  577.640
1153.882;    0.607;   -8.980;  600.060
1154.421;   -0.402;  -15.190;  470.620
1154.958;   -0.053;  -15.210;  595.240
1155.496;    1.783;  -12.850;  645.280
1156.034;    0.692;   -9.940;  721.880
1156.572;    1.732;  -13.570;  667.060
1157.110;   -0.453;  -14.590;  473.940
1157.647;    0.813;  -13.030;  676.960
1158.185;   -0.875;  -12.140;  564.320
1158.723;   -1.503;  -14.390;  509.200
1159.260;   -0.314;  -14.090;  701.700
1159.798;    0.983;  -11.920;  658.160
1160.335;   -0.258;  -11.110;  631.820

