
Integration time [ms]:   3.276
Averaging Nr. [scans]: 1000
Smoothing Nr. [pixels]: 0
Data measured with spectrometer [name]: 7414430SP
Wave   ;Sample   ;Dark     ;Reference
[nm]   ;[counts] ;[counts] ;[counts] 

288.544;  152.255;    7.793;  793.890
289.143;  155.251;    7.462;  681.602
289.742;  155.005;    8.602;  828.814
290.341;  141.448;    1.321;  789.841
290.940;  129.724;   -0.709;  730.702
291.538;  130.766;    0.881;  881.108
292.137;  131.384;    0.122;  792.581
292.736;  136.998;   -1.929;  975.101
293.335;  131.860;   -8.229;  735.086
293.934;  131.706;   -5.279;  781.677
294.532;  130.891;   -1.369; 1031.958
295.131;  116.780;   -7.641;  834.394
295.730;  116.995;   -8.420;  809.588
296.328;  114.880;   -5.611;  783.442
296.927;  116.457;   -5.781;  779.652
297.525;  118.369;   -6.361;  781.236
298.124;  107.630;  -11.382;  654.009
298.722;  111.461;   -7.641;  761.933
299.321;  110.193;   -6.811;  708.597
299.919;  107.647;   -6.991;  751.918
300.518;  104.760;  -10.362;  689.338
301.116;  105.686;   -9.581;  691.381
301.715;  104.780;   -4.891;  730.222
302.313;  105.757;   -8.801;  704.943
302.911;  100.339;   -8.522;  733.830
303.509;  105.369;   -6.171;  925.627
304.108;  102.577;   -7.311;  760.383
304.706;  102.276;   -8.321;  801.664
305.304;   97.370;  -10.222;  796.707
305.902;  101.258;   -6.021;  784.484
306.500;   97.493;   -4.971;  728.200
307.098;   96.769;   -7.061;  746.560
307.696;   94.605;   -8.801;  780.432
308.294;   93.963;   -6.411;  731.359
308.892;   96.648;   -2.901;  759.769
309.490;   94.334;   -5.041;  712.161
310.088;   91.781;   -5.002;  788.444
310.686;   94.891;   -2.041;  821.749
311.284;   90.926;   -2.351;  766.040
311.882;   90.215;   -4.422;  731.225
312.480;   86.327;   -4.192;  697.167
313.078;   87.088;   -1.172;  808.331
313.675;   88.463;   -2.601;  691.600
314.273;   83.882;   -1.312;  797.837
314.871;   83.482;   -3.942;  589.829
315.468;   80.144;   -2.802;  652.090
316.066;   82.751;   -0.701;  694.427
316.664;   77.016;   -4.362;  656.351
317.261;   80.283;   -2.872;  910.128
317.859;   75.340;   -2.022;  768.735
318.456;   75.831;   -0.531;  830.096
319.054;   72.749;   -3.912;  787.828
319.651;   70.934;   -4.752;  759.928
320.249;   69.176;   -2.602;  810.188
320.846;   68.493;   -0.821;  714.286
321.443;   66.041;   -4.642;  832.135
322.041;   62.424;   -5.002;  812.315
322.638;   60.367;   -3.982;  701.456
323.235;   61.543;   -3.411;  665.683
323.833;   58.856;   -7.361;  740.354
324.430;   54.245;   -8.611;  615.900
325.027;   53.892;   -4.061;  876.855
325.624;   54.123;   -4.031;  644.532
326.221;   52.026;   -7.481;  689.717
326.818;   51.309;   -5.281;  818.332
327.415;   53.617;   -7.460;  748.828
328.012;   53.346;   -5.510;  690.585
328.609;   52.560;   -7.880;  731.389
329.206;   51.018;   -8.331;  778.621
329.803;   50.414;   -5.121;  737.841
330.400;   53.160;   -4.510;  704.260
330.997;   55.282;   -6.441;  817.147
331.594;   54.253;   -8.831;  788.185
332.191;   58.233;   -7.621;  728.722
332.787;   60.806;   -4.591;  844.463
333.384;   60.857;   -7.412;  763.093
333.981;   58.048;   -8.293;  815.687
334.578;   60.979;   -7.052;  708.378
335.174;   64.623;   -3.102;  731.469
335.771;   64.341;   -5.943;  836.456
336.367;   61.061;   -7.393;  710.631
336.964;   64.525;   -4.063;  793.266
337.561;   61.746;   -3.813;  731.112
338.157;   58.302;   -4.654;  911.916
338.754;   55.774;   -7.934;  796.589
339.350;   53.561;   -4.414;  722.493
339.946;   55.512;   -4.664;  773.135
340.543;   48.571;   -6.375;  846.136
341.139;   42.489;   -9.815;  720.836
341.735;   39.625;   -4.526;  772.593
342.332;   38.877;   -4.895;  691.472
342.928;   39.586;   -4.295;  795.394
343.524;   33.411;   -5.476;  761.684
344.120;   29.658;   -5.856;  738.562
344.716;   32.911;   -2.155;  723.717
345.313;   30.945;   -6.275;  795.342
345.909;   25.105;   -8.815;  627.336
346.505;   26.351;   -5.305;  740.247
347.101;   28.054;   -2.674;  827.864
347.697;   28.175;   -4.344;  785.398
348.293;   22.638;   -9.975;  627.244
348.889;   23.321;   -5.774;  745.914
349.485;   22.442;   -5.004;  688.205
350.081;   23.817;   -4.704;  772.592
350.676;   18.862;   -6.635;  691.606
351.272;   21.954;   -4.504;  809.530
351.868;   22.411;   -3.914;  780.497
352.464;   20.028;   -9.044;  723.932
353.059;   16.473;   -8.314;  646.017
353.655;   18.409;   -7.024;  777.063
354.251;   20.238;   -5.343;  759.845
354.846;   15.158;   -8.604;  740.646
355.442;   12.340;   -6.945;  753.071
356.038;   14.360;   -7.564;  751.708
356.633;   14.339;   -5.814;  728.594
357.229;   12.964;   -7.364;  724.757
357.824;   10.883;   -8.024;  703.600
358.420;    9.677;   -9.384;  679.726
359.015;   10.584;   -5.104;  695.357
359.610;   11.691;   -6.854;  763.920
360.206;    5.708;  -10.185;  603.240
360.801;    7.962;   -7.054;  646.503
361.396;   10.373;   -5.034;  725.975
361.992;    5.799;   -8.284;  668.220
362.587;    3.927;   -8.625;  670.160
363.182;    4.597;   -7.674;  689.631
363.777;    5.501;   -5.164;  738.242
364.372;    5.987;   -8.604;  737.314
364.967;    1.913;   -9.055;  680.744
365.563;    5.994;   -6.114;  815.567
366.158;    3.528;   -5.814;  685.161
366.753;    3.366;   -7.854;  649.263
367.348;    2.632;   -7.804;  746.056
367.942;    1.589;   -7.954;  697.298
368.537;    0.224;   -4.984;  754.245
369.132;    1.733;   -8.564;  703.428
369.727;   -2.514;   -8.855;  638.079
370.322;   -1.672;   -6.245;  580.186
370.917;   -1.218;   -6.425;  710.646
371.511;    1.550;   -6.294;  861.834
372.106;   -2.718;   -7.685;  776.964
372.701;   -5.680;   -7.335;  585.988
373.296;    0.182;   -4.564;  863.135
373.890;   -4.456;  -10.235;  647.840
374.485;   -6.953;   -7.885;  691.199
375.079;   -3.808;   -7.324;  738.685
375.674;   -2.055;   -3.494;  812.970
376.268;   -5.288;   -8.525;  691.759
376.863;  -11.693;  -10.086;  580.327
377.457;   -5.849;   -7.025;  662.490
378.052;   -7.322;   -3.585;  764.884
378.646;   -7.823;   -7.595;  741.167
379.240;   -8.478;   -8.335;  721.176
379.835;   -8.147;   -5.785;  636.978
380.429;  -10.023;   -4.335;  562.557
381.023;   -8.991;   -6.805;  779.205
381.617;  -11.604;   -9.195;  680.106
382.212;   -9.705;   -6.905;  685.303
382.806;   -7.951;   -3.745;  760.690
383.400;  -11.748;   -7.745;  672.281
383.994;  -12.511;   -9.765;  664.870
384.588;   -9.422;   -6.564;  697.701
385.182;   -8.404;   -5.344;  726.624
385.776;   -9.305;   -8.514;  706.875
386.370;  -12.637;   -9.555;  681.968
386.964;  -11.632;   -8.715;  684.155
387.558;  -10.074;   -6.174;  598.360
388.152;  -12.569;   -8.725;  681.959
388.745;  -11.456;   -7.965;  814.707
389.339;  -10.172;   -5.924;  747.642
389.933;   -9.142;   -5.524;  695.370
390.527;   -9.585;   -7.114;  859.029
391.120;  -15.351;  -10.725;  595.318
391.714;  -13.767;   -8.035;  711.633
392.308;   -9.740;   -3.574;  780.253
392.901;  -12.963;   -7.245;  642.460
393.495;  -15.078;   -9.285;  595.414
394.089;  -13.042;   -5.895;  760.452
394.682;  -14.051;   -4.295;  697.188
395.275;  -14.231;   -9.875;  719.927
395.869;  -15.918;   -8.485;  667.314
396.462;  -14.389;   -7.455;  616.609
397.056;  -10.613;   -5.424;  776.621
397.649;  -14.180;   -6.605;  731.575
398.242;  -12.450;   -8.224;  712.645
398.836;  -12.246;   -7.474;  766.408
399.429;  -12.818;   -7.094;  631.041
400.022;  -15.697;   -9.475;  665.902
400.615;  -13.230;   -7.145;  805.609
401.208;  -11.882;   -7.174;  691.451
401.802;  -14.439;   -5.515;  699.329
402.395;  -14.692;   -9.875;  683.502
402.988;  -16.123;   -8.845;  696.627
403.581;  -12.992;   -8.874;  646.878
404.174;  -10.985;   -5.324;  686.568
404.767;  -12.393;   -9.575;  638.583
405.360;  -15.906;  -10.965;  621.445
405.953;  -11.339;   -8.764;  759.034
406.545;  -10.170;   -7.514;  725.342
407.138;  -12.937;  -10.025;  618.350
407.731;  -13.280;  -10.034;  613.303
408.324;  -10.478;   -9.374;  660.554
408.917;  -10.121;   -6.534;  681.864
409.509;  -11.365;   -8.004;  740.396
410.102;  -13.862;   -9.875;  643.948
410.695;   -8.243;   -8.604;  665.758
411.287;   -9.272;   -6.794;  599.821
411.880;   -9.839;   -9.334;  585.421
412.472;  -13.787;  -10.254;  613.092
413.065;  -10.348;   -6.714;  629.408
413.657;   -8.124;   -7.234;  576.678
414.250;   -8.086;  -10.544;  646.681
414.842;  -10.251;   -9.744;  676.353
415.434;   -8.552;   -6.994;  570.463
416.027;   -3.591;   -5.893;  652.196
416.619;   -5.666;   -7.264;  713.400
417.211;   -6.194;  -10.374;  599.352
417.804;   -2.690;   -7.993;  628.499
418.396;   -7.034;   -7.234;  607.643
418.988;   -4.241;   -9.443;  659.238
419.580;   -7.419;  -10.724;  568.276
420.172;   -6.232;  -10.323;  536.196
420.764;   -1.315;   -8.793;  672.482
421.356;   -1.570;  -11.143;  636.898
421.948;   -3.886;   -8.293;  677.661
422.540;    1.481;   -7.893;  680.027
423.132;    0.555;   -7.082;  600.641
423.724;   -1.765;   -8.653;  561.267
424.316;   -0.395;  -10.213;  621.345
424.908;    2.709;   -9.762;  591.517
425.500;    4.292;   -5.572;  647.978
426.092;    4.622;   -8.422;  648.268
426.683;    3.916;   -9.283;  684.836
427.275;    5.889;   -7.852;  641.471
427.867;    7.508;   -5.272;  668.948
428.458;    8.864;   -7.682;  732.344
429.050;    6.601;  -10.612;  680.749
429.642;    7.986;   -9.882;  743.124
430.233;    9.339;   -6.962;  569.356
430.825;   10.914;   -6.842;  724.809
431.416;    8.005;   -9.672;  698.241
432.008;   11.159;   -6.552;  651.723
432.599;   11.954;   -6.891;  656.073
433.190;    9.877;  -10.912;  637.670
433.782;    8.972;  -11.172;  590.395
434.373;   15.698;   -6.061;  884.765
434.964;   14.195;   -8.251;  602.920
435.556;   12.992;   -9.722;  634.537
436.147;   15.253;   -9.082;  758.490
436.738;   14.644;   -8.041;  701.099
437.329;   19.867;   -7.341;  721.723
437.920;   13.817;   -8.162;  666.688
438.511;   13.201;  -11.802;  564.526
439.103;   20.008;  -10.191;  623.998
439.694;   21.497;   -7.601;  681.583
440.285;   22.144;   -8.541;  764.432
440.876;   20.353;   -9.751;  845.738
441.466;   20.355;   -9.401;  575.162
442.057;   25.510;   -7.760;  665.814
442.648;   24.350;   -9.971;  746.255
443.239;   22.332;  -11.001;  620.477
443.830;   26.886;   -7.990;  704.958
444.421;   29.217;   -7.910;  655.474
445.011;   25.581;   -8.131;  693.619
445.602;   26.084;   -7.111;  743.126
446.193;   27.013;  -10.920;  488.117
446.783;   31.402;   -6.500;  640.397
447.374;   27.887;   -8.671;  692.759
447.964;   28.736;  -10.781;  713.770
448.555;   35.518;   -9.650;  822.742
449.145;   32.618;   -8.660;  662.853
449.736;   33.959;   -8.990;  803.179
450.326;   33.510;   -9.500;  713.626
450.917;   37.872;   -8.680;  675.324
451.507;   36.882;   -7.520;  600.661
452.097;   38.478;   -8.590;  746.267
452.688;   38.660;  -11.340;  742.160
453.278;   38.347;  -10.100;  566.840
453.868;   44.068;   -6.019;  793.550
454.458;   41.645;   -9.440;  651.141
455.048;   41.732;  -10.560;  711.783
455.639;   42.886;  -11.799;  567.096
456.229;   46.482;   -6.899;  710.694
456.819;   48.511;   -7.389;  751.158
457.409;   49.083;  -11.119;  773.993
457.999;   51.538;   -9.289;  737.505
458.589;   51.137;   -6.139;  686.606
459.179;   52.046;   -8.729;  717.658
459.769;   50.124;   -9.789;  627.099
460.358;   54.248;  -10.259;  797.262
460.948;   54.085;   -7.299;  689.503
461.538;   55.940;  -10.289;  660.677
462.128;   53.538;  -11.269;  664.934
462.717;   59.943;   -9.368;  710.326
463.307;   63.442;   -7.908;  705.846
463.897;   59.775;   -9.599;  656.942
464.486;   57.848;   -9.769;  837.128
465.076;   62.968;   -8.048;  733.776
465.666;   66.720;   -9.358;  652.900
466.255;   65.033;   -7.919;  785.651
466.845;   64.084;  -11.689;  666.749
467.434;   67.088;   -7.818;  725.873
468.023;   67.374;   -7.678;  658.357
468.613;   65.770;  -10.939;  713.946
469.202;   69.441;  -10.118;  646.507
469.791;   73.101;   -9.108;  737.811
470.381;   75.342;   -6.058;  742.813
470.970;   75.307;  -10.428;  711.099
471.559;   75.769;  -10.268;  733.291
472.148;   77.215;   -8.448;  675.737
472.738;   79.930;   -6.917;  765.466
473.327;   81.074;  -11.978;  637.529
473.916;   80.091;  -11.888;  737.446
474.505;   84.217;   -9.437;  751.703
475.094;   86.385;   -6.747;  806.570
475.683;   87.769;   -9.367;  797.699
476.272;   88.104;  -12.637;  730.632
476.861;   90.141;  -10.027;  706.754
477.449;   96.774;   -8.716;  728.487
478.038;   91.357;   -9.577;  692.513
478.627;   92.810;   -9.718;  714.852
479.216;   98.817;   -8.947;  769.441
479.805;  101.748;   -6.256;  783.375
480.393;  102.378;   -7.937; 1008.945
480.982;  101.336;   -7.717;  874.501
481.571;  106.345;   -9.266;  858.333
482.159;  106.637;   -7.636;  705.386
482.748;  108.153;   -9.667;  821.385
483.336;  112.859;  -10.376;  858.209
483.925;  113.125;   -7.147;  774.373
484.513;  119.897;   -7.996;  758.962
485.102;  116.336;  -10.027;  810.965
485.690;  125.057;  -10.446; 1011.050
486.278;  126.862;   -8.446;  979.329
486.867;  126.579;   -6.356;  809.662
487.455;  129.026;   -9.136;  898.229
488.043;  130.585;  -10.646;  748.361
488.631;  139.259;   -7.456; 1005.079
489.220;  143.278;   -6.636;  908.626
489.808;  143.829;  -11.036;  741.415
490.396;  151.855;  -10.246;  914.645
490.984;  156.662;   -8.556;  830.161
491.572;  166.803;   -5.886;  940.315
492.160;  173.069;   -9.486;  919.081
492.748;  184.861;  -10.976;  884.341
493.336;  205.936;   -8.776; 1019.693
493.924;  232.005;   -5.465;  958.077
494.512;  260.324;   -9.986; 1066.638
495.100;  296.073;  -10.636; 1103.280
495.687;  350.956;  -10.885; 1206.373
496.275;  413.251;   -8.126; 1150.796
496.863;  482.794;  -10.586; 1281.171
497.451;  580.265;  -11.926; 1386.805
498.038;  713.741;  -10.885; 1556.729
498.626;  820.495;   -6.315; 1741.407
499.214;  972.032;   -7.326; 2016.609
499.801; 1170.018;  -11.906; 2220.633
500.389; 1402.089;  -10.466; 2312.494
500.976; 1702.379;   -5.236; 2744.849
501.564; 2135.990;   -8.936; 3148.565
502.151; 2493.958;  -13.176; 3515.999
502.738; 2912.094;  -10.646; 3971.274
503.326; 3311.565;   -9.525; 4403.796
503.913; 3723.431;  -10.856; 5161.749
504.500; 4105.145;  -11.586; 5986.420
505.088; 4479.989;  -10.336; 6381.201
505.675; 5012.129;   -6.355; 6925.547
506.262; 5691.821;   -9.046; 7619.060
506.849; 6432.076;  -10.416; 8733.969
507.436; 6973.701;  -10.305; 9790.121
508.023; 7520.152;   -5.496; 9985.472
508.610; 7729.803;   -7.856;10434.618
509.197; 8352.324;  -10.097;11198.435
509.784; 9689.159;  -10.886;12391.194
510.371;10861.653;   -9.315;13603.713
510.958;11618.551;   -9.936;14426.586
511.545;12319.104;   -9.326;15243.775
512.132;13130.450;  -10.075;15945.876
512.719;13673.576;   -7.796;16340.369
513.305;14858.455;  -10.606;18011.766
513.892;15531.548;  -11.486;19754.971
514.479;16687.271;   -9.126;20967.805
515.066;18119.102;   -6.026;22299.793
515.652;19663.305;   -8.466;22908.660
516.239;20911.613;  -10.886;23798.875
516.825;21809.039;  -11.496;25567.275
517.412;22888.191;   -5.796;28154.959
517.998;23595.939;  -10.506;28344.111
518.585;23494.037;  -10.076;27134.219
519.171;24028.697;   -8.315;27268.576
519.758;25877.207;   -8.596;28964.129
520.344;27808.518;   -8.466;30664.494
520.930;27527.955;  -11.006;32550.605
521.516;28664.762;  -10.495;35422.895
522.103;30533.305;   -5.526;38280.004
522.689;31199.336;   -8.746;37835.117
523.275;30626.727;  -11.376;37288.613
523.861;32152.346;  -11.156;37281.395
524.447;33879.852;   -8.135;37846.949
525.033;33625.020;   -7.896;38321.949
525.619;33759.211;  -12.476;38579.285
526.205;35031.762;   -9.516;40622.875
526.791;37601.863;   -6.926;42258.836
527.377;37360.773;   -8.346;42966.902
527.963;38099.102;   -8.717;42018.949
528.549;37074.977;  -11.016;42476.828
529.135;35457.219;   -8.536;41854.852
529.721;33252.848;   -9.666;41237.711
530.306;30768.576;  -10.066;41259.445
530.892;29945.297;  -11.356;41506.047
531.478;32617.754;   -6.596;43559.613
532.063;37931.863;   -8.836;47695.563
532.649;40059.203;  -10.047;50808.324
533.235;40794.836;   -9.746;51787.500
533.820;40807.984;   -6.566;52145.035
534.406;41302.441;  -10.817;51133.488
534.991;40008.633;   -9.416;49996.805
535.576;36464.531;   -9.036;48882.852
536.162;33972.086;   -6.156;46942.285
536.747;32716.391;  -11.607;45711.746
537.333;36954.828;  -11.787;48510.180
537.918;43997.754;  -12.437;50439.891
538.503;47639.555;   -7.196;50863.711
539.088;46718.266;  -10.556;50906.922
539.673;47626.680;   -8.767;52621.965
540.259;48271.629;  -10.026;52368.094
540.844;45482.379;   -7.416;50879.109
541.429;46943.469;   -9.467;52077.777
542.014;48932.242;   -9.527;52716.695
542.599;48046.676;   -9.946;52363.281
543.184;44927.980;   -7.927;53187.137
543.769;46033.516;   -9.297;54697.605
544.354;46352.953;  -10.127;53913.914
544.938;44853.793;   -9.267;49680.164
545.523;46570.227;   -6.506;47386.277
546.108;49407.703;   -9.787;49151.949
546.693;51219.906;  -11.587;51384.637
547.278;51399.551;  -10.986;51853.254
547.862;48361.816;   -8.206;51173.750
548.447;43761.668;  -10.067;51691.395
549.031;42738.723;   -9.637;52456.703
549.616;47461.902;   -9.926;52714.516
550.201;47468.680;   -6.347;52414.598
550.785;48843.066;   -7.917;52355.059
551.370;48028.055;  -10.867;54589.453
551.954;47470.305;   -9.047;58267.348
552.538;48309.984;   -7.827;59062.176
553.123;46619.695;  -10.287;58115.285
553.707;44279.109;  -12.178;56556.285
554.291;45714.523;   -8.717;56201.668
554.876;48785.961;   -7.457;55335.762
555.460;48917.895;  -10.387;54155.703
556.044;49091.012;   -9.618;53721.484
556.628;46926.605;  -11.567;53731.016
557.212;45841.820;   -8.097;54312.531
557.796;44764.801;  -11.077;53797.773
558.380;44879.820;  -11.108;56145.984
558.964;44997.160;   -9.057;57277.930
559.548;45800.027;   -6.977;56459.641
560.132;43838.480;  -11.457;54434.543
560.716;42524.129;  -11.378;54800.617
561.300;43929.223;   -9.577;57606.945
561.884;45081.566;   -7.127;58972.445
562.467;43069.293;   -7.118;57327.570
563.051;42124.664;  -13.358;54962.434
563.635;43455.395;  -10.178;52594.473
564.219;44301.895;   -7.837;50610.410
564.802;45010.559;  -11.398;49551.180
565.386;44525.820;  -12.788;48370.953
565.969;43905.547;   -9.077;48178.871
566.553;42803.789;   -6.207;49957.305
567.136;43690.289;   -8.568;50369.594
567.720;40380.516;  -11.868;49492.004
568.303;38204.453;   -8.268;50616.352
568.887;38044.660;   -8.698;50727.148
569.470;38674.539;   -6.808;51698.379
570.053;37874.063;  -13.188;52122.078
570.637;35457.074;  -12.037;52536.438
571.220;35138.543;   -8.577;51186.098
571.803;36094.520;   -8.498;51032.762
572.386;38499.461;  -10.498;49609.887
572.969;41143.734;   -9.388;48285.926
573.552;39325.148;   -8.338;47624.285
574.135;37789.160;   -8.518;45498.641
574.718;35142.973;  -13.628;41970.434
575.301;34429.105;  -10.893;41447.137
575.884;33715.238;   -8.158;40923.836
576.467;34831.059;  -10.328;45267.723
577.050;36394.574;  -13.058;48175.543
577.633;37627.539;   -9.458;47729.328
578.216;36793.125;   -8.928;47579.793
578.799;35964.641;   -9.358;47820.996
579.381;34944.426;  -11.388;48115.551
579.964;32846.895;  -11.718;47333.766
580.547;34793.785;   -8.588;46668.969
581.129;35514.098;   -8.859;44466.141
581.712;36254.754;  -10.729;44164.922
582.294;36701.188;  -11.118;46477.855
582.877;36892.418;   -5.218;48244.254
583.459;35041.492;   -8.679;47437.895
584.042;32861.969;  -10.709;46943.219
584.624;32866.012;  -11.669;46792.227
585.206;32709.854;   -8.218;46557.250
585.789;33195.023;  -10.569;45793.773
586.371;35555.809;  -11.859;43836.391
586.953;36170.742;  -10.719;42972.492
587.536;37154.441;   -7.198;42487.211
588.118;37567.770;   -8.720;42086.414
588.700;33704.500;  -10.439;43389.930
589.282;32701.887;   -9.198;43646.039
589.864;33593.457;   -9.199;43438.109
590.446;34819.879;  -11.319;43151.926
591.028;34570.898;  -11.159;42781.867
591.610;33303.883;  -11.779;42839.098
592.192;30824.762;   -7.668;42820.402
592.774;29559.102;  -11.949;40724.277
593.356;28594.670;  -12.129;39874.789
593.937;27607.635;  -10.669;39980.648
594.519;29905.900;   -6.509;42069.633
595.101;32016.402;  -10.849;42976.031
595.683;32028.717;  -11.679;44084.441
596.264;32807.063;   -9.049;43478.797
596.846;32427.607;   -8.849;43803.672
597.427;32168.078;   -9.570;42986.934
598.009;33300.996;  -12.620;42832.219
598.591;33733.031;  -10.039;42580.086
599.172;33469.207;  -10.369;43061.805
599.753;33702.262;   -9.140;41691.469
600.335;34908.426;  -11.430;40692.520
600.916;33107.531;   -9.939;39982.422
601.498;31085.473;   -8.479;40318.617
602.079;29535.846;  -10.920;40670.609
602.660;29267.510;  -11.480;41450.898
603.241;31014.463;  -11.699;41137.738
603.823;29591.266;   -9.579;38868.797
604.404;28946.357;  -10.620;38182.785
604.985;30704.740;  -10.450;38078.047
605.566;30636.836;   -9.129;38056.633
606.147;30659.645;   -7.510;37020.418
606.728;32251.457;  -10.660;37883.359
607.309;30959.699;  -11.740;38748.273
607.890;30729.242;   -9.759;38850.230
608.471;30215.809;   -8.250;37457.918
609.051;29498.914;   -9.240;36066.457
609.632;28232.168;  -12.120;35991.074
610.213;28519.633;   -9.110;37402.641
610.794;29437.824;   -8.030;38383.363
611.374;29384.877;   -8.110;40562.387
611.955;30095.676;  -13.560;38533.727
612.536;31472.199;  -11.400;36951.789
613.116;31247.740;   -8.070;37197.891
613.697;31525.275;  -10.830;38411.125
614.277;29780.941;  -11.641;38673.938
614.858;30470.797;  -13.310;37075.863
615.438;30030.244;   -7.460;35092.906
616.019;27820.781;   -7.601;33666.301
616.599;28000.320;  -12.020;34189.023
617.179;29518.193;  -11.780;36952.047
617.760;30629.709;   -8.570;39582.574
618.340;31516.092;  -11.471;38943.977
618.920;32374.516;  -11.170;37594.156
619.500;32327.861;  -11.071;37866.938
620.080;31520.027;   -7.750;37869.043
620.660;32697.766;  -12.711;36868.617
621.241;34580.023;  -10.211;36352.309
621.821;34959.660;  -10.961;35459.520
622.401;33603.063;   -7.720;35207.414
622.980;32479.330;   -8.981;35980.422
623.560;31105.811;   -9.331;37351.328
624.140;29937.762;   -9.850;34388.582
624.720;25104.727;   -7.451;32368.764
625.300;21598.744;   -9.070;32638.629
625.880;24963.064;  -12.601;34599.035
626.459;29165.018;  -11.751;36831.738
627.039;32050.789;   -9.281;38299.098
627.619;31901.162;   -8.801;38289.574
628.198;30244.914;  -12.071;37220.695
628.778;29258.000;   -9.461;37632.563
629.357;30063.441;   -8.491;38003.012
629.937;30312.654;   -9.721;38402.039
630.516;29722.055;   -9.951;37868.801
631.096;29362.133;  -11.731;35760.410
631.675;31710.459;   -8.572;35225.219
632.254;36931.926;  -11.282;35130.289
632.834;36442.805;  -13.322;35794.570
633.413;34811.582;  -10.301;35788.922
633.992;32249.041;   -8.582;34532.863
634.571;32677.467;   -8.352;33590.113
635.151;35145.324;  -11.912;34943.863
635.730;33722.406;  -10.511;35352.523
636.309;30506.061;   -7.731;35366.605
636.888;28076.512;   -9.952;36165.637
637.467;28572.992;  -11.672;37515.902
638.046;30009.150;   -8.901;39288.695
638.625;32904.582;   -7.912;38279.699
639.204;32887.445;  -10.022;37741.598
639.782;31862.096;  -12.252;38364.551
640.361;27930.982;  -10.041;36740.621
640.940;25226.676;  -11.161;34950.082
641.519;25859.770;   -9.701;34137.398
642.097;28823.217;  -11.271;35654.258
642.676;31797.959;   -8.651;35637.957
643.255;32887.934;   -8.711;36567.074
643.833;32078.723;   -9.581;37809.434
644.412;32100.994;  -13.711;37337.293
644.990;31086.186;  -11.811;37018.531
645.569;31027.855;   -9.411;36518.469
646.147;30627.539;  -10.291;36186.430
646.726;30511.021;  -12.401;36267.688
647.304;31431.953;  -10.411;36647.625
647.882;32850.645;   -9.651;39286.742
648.461;34600.719;   -9.631;39157.703
649.039;33063.020;  -11.881;35412.883
649.617;32025.313;   -9.661;34744.918
650.195;31275.889;   -9.301;35403.098
650.773;29905.650;  -10.511;35053.797
651.352;27686.127;  -11.521;33756.816
651.930;25305.949;  -12.211;31868.773
652.508;23560.680;   -9.171;33121.551
653.086;27445.398;   -9.371;33564.793
653.663;30474.381;  -13.161;34054.668
654.241;29202.443;  -13.031;35693.309
654.819;30770.611;   -9.371;36422.906
655.397;30646.129;  -10.511;38213.484
655.975;30047.900;  -10.371;39507.625
656.553;29657.613;  -10.051;39498.223
657.130;28342.807;  -10.061;40395.480
657.708;27710.406;   -9.561;39242.020
658.286;27783.902;  -11.511;38920.020
658.863;28856.262;  -10.261;40202.898
659.441;32135.359;   -7.531;39677.938
660.018;32151.852;   -9.501;40413.355
660.596;30794.922;  -13.301;39931.414
661.173;32482.406;  -11.211;39604.531
661.750;33060.957;   -9.951;39700.070
662.328;32088.342;   -9.390;39292.809
662.905;30990.811;  -11.330;38235.648
663.482;26537.719;   -9.050;36212.305
664.060;24566.744;   -8.240;35944.945
664.637;27521.264;  -10.050;35170.785
665.214;28958.699;  -11.760;34197.523
665.791;30509.785;  -10.530;34549.520
666.368;29778.449;   -9.690;35118.578
666.945;30270.422;   -9.320;36019.418
667.522;31771.721;  -11.860;36048.438
668.099;31580.982;  -10.770;36243.914
668.676;30200.484;   -6.260;35958.875
669.253;28889.928;   -7.000;37384.730
669.830;29143.393;  -10.190;36779.629
670.407;29117.432;   -9.550;35231.289
670.984;29108.166;   -9.260;35544.270
671.560;29867.711;   -9.280;35466.867
672.137;29096.883;  -11.810;34280.863
672.714;30159.701;  -11.490;34632.863
673.290;31448.432;   -7.740;35135.422
673.867;31363.965;  -10.660;36114.480
674.443;31116.027;  -12.230;36152.859
675.020;29086.660;  -10.450;35327.238
675.596;30130.143;   -9.260;35795.176
676.173;30890.123;  -10.780;35430.355
676.749;30448.330;  -13.690;33549.516
677.326;30069.516;  -11.980;32210.012
677.902;29915.309;   -8.630;32068.871
678.478;29308.979;  -10.730;32583.891
679.054;28494.791;  -10.520;32088.928
679.631;28958.576;  -11.920;30978.848
680.207;30396.529;   -7.490;33160.887
680.783;31930.324;   -9.860;35570.363
681.359;31092.051;  -13.380;36125.184
681.935;30864.867;  -12.480;35240.922
682.511;30632.441;   -7.900;34429.961
683.087;30873.691;   -7.710;34463.680
683.663;30157.256;  -11.480;34648.898
684.239;28703.209;  -14.090;34546.457
684.815;27976.721;   -7.560;35586.375
685.390;27979.244;   -9.910;35821.895
685.966;28504.014;  -11.159;35085.871
686.542;31159.783;  -11.169;34198.230
687.118;33558.898;   -5.959;32847.707
687.693;33948.848;  -10.329;32794.027
688.269;33687.977;  -12.059;33072.367
688.844;31916.555;  -10.909;33141.664
689.420;29944.479;   -8.019;33965.742
689.995;28143.631;   -8.399;34655.523
690.571;26839.049;  -10.949;33576.742
691.146;26851.529;   -9.619;32657.219
691.722;26584.543;   -8.999;32526.979
692.297;26342.188;  -11.589;33014.617
692.872;27701.801;  -11.739;34012.254
693.448;27406.076;  -11.059;34237.434
694.023;26363.072;  -10.139;34142.672
694.598;28417.520;   -9.029;34132.031
695.173;29241.729;  -13.319;34205.250
695.748;28284.461;  -10.169;32882.488
696.323;28102.020;   -8.339;32864.906
696.898;28227.400;   -8.169;33170.004
697.473;28284.947;  -12.309;32432.984
698.048;27495.684;  -10.989;31649.303
698.623;27177.576;   -9.329;30778.141
699.198;28702.506;   -9.849;31140.119
699.773;30137.961;  -12.329;31764.299
700.348;28995.553;  -10.389;31780.816
700.922;28919.273;   -9.269;32046.375
701.497;29826.730;   -9.329;32603.574
702.072;29921.850;  -10.789;34799.871
702.646;28592.096;  -10.839;35793.172
703.221;26601.854;   -9.099;35201.590
703.795;28519.820;  -10.939;34764.527
704.370;29016.836;  -12.859;34307.367
704.944;29155.443;  -11.559;33509.887
705.519;29750.813;   -7.939;31388.584
706.093;31016.785;  -10.499;31340.104
706.668;31503.234;  -11.289;32630.281
707.242;30444.094;  -11.509;32728.779
707.816;29209.762;   -9.639;32947.238
708.390;27658.621;  -11.429;33277.855
708.965;28072.965;  -11.869;33834.336
709.539;28147.338;  -11.689;33709.273
710.113;28229.855;  -10.478;33044.313
710.687;27651.545;  -10.228;31953.992
711.261;26130.924;  -13.698;30505.949
711.835;26162.447;  -13.378;30262.369
712.409;26664.264;   -9.698;31254.447
712.983;28657.988;  -11.898;32754.986
713.557;29968.344;  -15.138;34018.824
714.131;29759.531;  -14.098;34579.625
714.704;28609.715;   -9.958;33890.262
715.278;26080.303;  -10.028;33531.102
715.852;24927.180;  -11.148;33601.660
716.425;26091.932;   -9.068;33515.117
716.999;27214.559;  -10.038;33185.555
717.573;28023.594;   -9.798;33905.996
718.146;28932.832;  -12.378;35199.293
718.720;29013.900;  -11.918;35060.551
719.293;28888.059;   -8.088;34973.230
719.867;31827.705;  -10.888;36394.449
720.440;31637.934;  -11.938;36663.008
721.013;29773.086;  -12.818;35102.426
721.587;28133.104;  -10.298;33985.266
722.160;26928.973;  -10.048;33524.965
722.733;25967.377;  -12.108;32987.043
723.306;26354.023;  -10.818;33066.301
723.880;28443.568;   -8.908;33399.500
724.453;30574.826;   -9.878;33468.297
725.026;29773.881;  -11.188;33816.637
725.599;27029.902;  -11.678;32797.996
726.172;27049.035;   -9.618;33187.434
726.745;28093.449;   -8.258;35136.613
727.318;29387.596;  -12.978;35751.730
727.891;30086.820;  -12.148;35890.430
728.463;29633.867;   -8.968;34822.090
729.036;28227.256;  -10.188;32895.086
729.609;28628.598;  -11.788;31823.225
730.182;25717.324;  -11.788;31445.283
730.754;23254.861;  -10.268;32373.223
731.327;23654.613;   -9.998;33676.820
731.900;24243.168;  -12.228;33417.000
732.472;25167.406;  -13.848;31978.498
733.045;26803.277;   -8.698;30368.777
733.617;26783.074;  -10.607;30574.215
734.190;26986.455;  -11.507;31280.975
734.762;24615.828;  -13.647;31674.412
735.334;22675.340;   -9.767;31247.291
735.907;23018.324;   -9.897;29876.211
736.479;23264.768;  -11.637;29808.488
737.051;23031.889;   -9.567;30233.547
737.623;23593.596;   -8.187;31469.086
738.195;23970.479;  -11.187;31784.225
738.768;26173.230;  -12.337;32120.523
739.340;27066.008;  -12.227;32094.342
739.912;26074.729;  -11.057;31312.680
740.484;24605.223;  -10.207;31946.238
741.056;23086.555;  -10.047;32984.059
741.628;24336.275;  -13.627;33897.715
742.199;26535.328;   -7.177;33213.016
742.771;25210.033;  -10.797;31369.113
743.343;23089.334;  -11.997;31865.473
743.915;22062.004;  -12.867;32388.631
744.487;21913.512;   -7.617;31079.568
745.058;21816.318;   -9.557;30570.107
745.630;22398.156;   -9.877;29970.127
746.201;23791.076;  -14.177;29186.766
746.773;24784.275;   -9.237;28805.723
747.344;24617.771;   -9.847;29591.223
747.916;22745.133;  -11.657;31412.201
748.487;22659.299;  -10.587;32194.898
749.059;24026.570;   -8.707;32533.719
749.630;24873.668;  -10.537;32158.518
750.201;24110.945;  -11.687;30855.395
750.773;22345.326;  -11.647;28622.555
751.344;22008.174;   -7.147;28405.732
751.915;22931.990;   -9.757;28461.551
752.486;23015.002;  -12.427;27842.850
753.057;20922.992;  -12.227;27845.008
753.628;19670.307;  -10.417;27728.107
754.199;20585.186;  -11.767;27381.086
754.770;21647.615;  -11.187;25882.203
755.341;21858.820;  -10.507;25886.184
755.912;22079.488;   -9.387;26050.861
756.483;21724.564;  -10.647;26798.779
757.054;19916.311;  -11.837;27048.238
757.625;18392.244;  -12.716;26294.838
758.195;18182.357;   -9.666;26142.076
758.766;17926.186;   -8.656;26392.234
759.337;18492.490;  -12.856;26334.594
759.907;19948.543;  -13.366;27579.652
760.478;20876.475;   -8.576;28352.770
761.048;20372.826;  -10.526;27325.088
761.619;19358.271;  -11.116;26460.428
762.189;19469.787;  -12.136;26029.826
762.760;20534.168;   -9.456;26430.145
763.330;21630.104;   -7.136;26670.902
763.900;21201.057;  -11.786;26603.021
764.471;18730.035;  -11.546;25542.740
765.041;17221.533;   -8.096;24358.459
765.611;17025.795;   -8.876;23991.297
766.181;17392.867;  -12.196;24470.236
766.751;18625.371;  -11.636;24845.975
767.321;18397.277;  -10.156;24533.633
767.891;16228.398;  -11.766;24916.492
768.461;15573.664;  -14.936;24776.771
769.031;16117.022;  -12.356;24757.988
769.601;17850.291;   -7.526;24181.088
770.171;18010.250;  -10.766;23670.387
770.741;17164.457;  -13.176;22960.045
771.311;17219.689;  -10.616;22917.523
771.880;17786.627;   -9.576;23562.941
772.450;17745.160;  -10.336;24216.500
773.020;17754.234;  -13.516;24140.398
773.589;16900.096;  -13.466;24414.857
774.159;16183.309;   -8.686;23858.717
774.729;15770.357;   -9.476;22942.135
775.298;15380.629;  -13.666;22324.033
775.867;14928.750;  -11.716;21140.313
776.437;15091.103;   -9.906;20838.092
777.006;14896.871;  -12.166;20599.510
777.576;14555.700;  -12.356;20508.809
778.145;14491.329;  -11.646;20732.947
778.714;14533.081;   -8.226;21062.465
779.283;14062.620;   -9.556;20949.664
779.853;13539.196;  -14.116;20508.623
780.422;13944.376;  -11.506;20649.082
780.991;13528.841;   -9.556;21527.520
781.560;12192.519;   -9.095;22632.658
782.129;11919.950;  -12.135;23048.277
782.698;11929.346;  -10.865;23438.555
783.267;11538.550;   -9.335;23267.734
783.836;11478.108;  -11.045;22415.133
784.404;12496.209;  -13.865;20443.152
784.973;13179.009;  -13.095;19699.150
785.542;13238.845;  -11.575;19763.828
786.111;13055.227;   -9.705;20341.408
786.679;12574.663;  -12.105;20207.967
787.248;12338.940;  -12.455;19516.465
787.817;12152.201;  -11.535;18900.363
788.385;11741.224;   -9.765;17879.121
788.954;11150.810;  -14.005;17658.301
789.522;10544.766;  -11.955;17788.879
790.090;10961.714;  -10.135;18118.277
790.659;11561.304;  -10.975;18338.736
791.227;11155.131;  -13.375;18508.615
791.795;11509.366;  -12.375;17898.254
792.364;11810.779;  -10.725;17295.133
792.932;12169.737;   -9.715;16822.051
793.500;12494.809;  -12.675;17040.148
794.068;12774.359;  -13.495;17179.787
794.636;12954.871;  -10.885;16664.246
795.204;12245.720;  -11.045;16524.545
795.772;12223.770;  -13.175;17274.564
796.340;11763.558;  -12.445;17891.002
796.908;11504.120;   -9.735;17648.561
797.476;11348.802;   -9.815;17064.080
798.044;10903.666;  -13.985;16672.777
798.612;10182.582;  -13.115;17023.996
799.180; 9798.425;  -10.185;16561.615
799.747; 9630.675;   -9.055;15962.773
800.315; 9352.188;  -12.385;15296.992
800.883; 9149.558;  -15.035;14801.771
801.450; 9333.216;  -10.365;14534.430
802.018; 9446.798;   -9.855;14173.248
802.585; 9438.480;  -11.905;14029.547
803.153; 9423.587;  -11.585;13836.846
803.720; 9244.419;   -9.095;13567.324
804.287; 8707.752;   -9.135;13360.622
804.855; 8195.830;  -11.604;13681.981
805.422; 8098.364;  -11.794;13536.560
805.989; 8192.872;  -10.734;13355.958
806.556; 8443.910;  -10.444;13747.896
807.124; 8729.237;  -12.764;13987.376
807.691; 8687.645;  -12.964;14038.674
808.258; 8475.721;  -11.134;14120.152
808.825; 8065.943;   -9.854;13860.111
809.392; 8172.975;  -10.504;13268.790
809.959; 7767.619;  -13.054;12680.389
810.526; 7272.237;   -8.294;12427.308
811.093; 7231.565;   -8.394;12030.105
811.659; 7827.002;  -12.304;11653.664
812.226; 8379.147;  -13.944;11637.183
812.793; 8112.815;  -10.484;11611.521
813.360; 7463.800;  -10.144;11885.181
813.926; 7143.083;  -11.684;12770.539
814.493; 6957.357;  -13.644;12677.638
815.060; 6586.140;   -9.724;11974.336
815.626; 6523.226;   -9.854;11594.715
816.193; 6891.715;  -13.254;11579.474
816.759; 6934.762;  -13.204;11666.972
817.325; 6957.720;   -9.434;11325.530
817.892; 7292.113;  -10.134;11105.369
818.458; 7729.221;  -13.474;10843.928
819.024; 7363.313;  -11.854;10714.406
819.591; 7074.681;  -10.244;10469.165
820.157; 6906.096;  -10.704;10235.523
820.723; 6423.521;  -12.324;10847.563
821.289; 6124.717;   -9.444;11040.980
821.855; 6061.708;   -8.374;10357.100
822.421; 6002.749;  -10.234; 9978.918
822.987; 5938.254;  -13.294; 9754.177
823.553; 5545.042;  -10.884;10065.755
824.119; 5351.494;   -8.884;10036.294
824.685; 5508.091;   -6.784;10029.192
825.251; 5643.733;  -12.004;10199.230
825.816; 5589.716;  -11.474; 9820.189
826.382; 5303.457;   -9.174; 9297.248
826.948; 5441.740;   -9.214; 9381.347
827.513; 5851.083;  -10.774; 9450.726
828.079; 5724.946;  -11.924; 9472.444
828.645; 5127.597;  -10.543; 9292.643
829.210; 4943.466;  -10.533; 9065.341
829.776; 4910.899;  -10.753; 9132.620
830.341; 4804.462;  -10.173; 9092.878
830.906; 4962.950;  -10.743; 9078.557
831.472; 5311.145;  -11.113; 8534.535
832.037; 5129.549;  -10.603; 8677.874
832.602; 4606.299;  -13.323; 8628.692
833.167; 4343.158;  -10.823; 8879.031
833.733; 4280.166;  -10.113; 9189.790
834.298; 4412.381;  -13.583; 9052.608
834.863; 4544.457;  -12.703; 8895.087
835.428; 4571.290;  -10.523; 8824.266
835.993; 4429.778;   -6.963; 8845.385
836.558; 4254.668;  -10.763; 8888.563
837.123; 4328.287;   -9.903; 8966.582
837.688; 4585.590;   -9.913; 8617.860
838.253; 4832.163;  -10.283; 8590.699
838.817; 5010.205;  -12.963; 8443.797
839.382; 4948.337;  -14.243; 8799.356
839.947; 4640.685;  -10.733; 8810.595
840.511; 4330.155;   -9.383; 8796.394
841.076; 3936.152;  -12.563; 8347.231
841.641; 3973.524;  -12.953; 8224.330
842.205; 4066.606;   -7.043; 8223.349
842.770; 4101.035;   -8.163; 8622.107
843.334; 4252.372;  -12.503; 8410.386
843.898; 4219.278;  -11.693; 8337.465
844.463; 4220.200;  -10.203; 8506.283
845.027; 4017.080;   -9.533; 8280.962
845.591; 3842.546;  -13.443; 8231.141
846.156; 3841.983;  -13.143; 7969.179
846.720; 3760.572;   -9.433; 7768.278
847.284; 3656.219;  -11.033; 7630.957
847.848; 3518.617;  -10.403; 7472.395
848.412; 3412.360;  -11.553; 7437.394
848.976; 3442.650;   -8.393; 7674.592
849.540; 3364.535;   -8.713; 7836.011
850.104; 3408.874;  -12.463; 7913.669
850.668; 3766.531;  -12.973; 7694.508
851.232; 3937.401;  -10.793; 7756.887
851.796; 3803.376;  -10.662; 7926.545
852.359; 3483.243;  -13.082; 7827.844
852.923; 3300.740;  -12.192; 7641.163
853.487; 3156.269;  -11.912; 7342.501
854.050; 3143.717;  -10.892; 7042.820
854.614; 3280.140;  -13.992; 7151.338
855.177; 3388.688;  -11.732; 7105.077
855.741; 3428.975;   -8.962; 6989.675
856.304; 3337.906;   -9.442; 6596.634
856.868; 3320.381;  -14.192; 6356.272
857.431; 3441.365;  -12.702; 6468.571
857.995; 3573.937;   -9.942; 6373.210
858.558; 3605.872;   -9.112; 6324.448
859.121; 3337.148;  -12.932; 6408.327
859.684; 3151.625;  -13.442; 6347.886
860.247; 3241.236;  -10.632; 6321.264
860.810; 3267.570;  -11.272; 6301.903
861.374; 3026.676;   -9.832; 6607.881
861.937; 2756.253;  -11.762; 6408.200
862.500; 2749.365;   -9.722; 6572.639
863.062; 2902.167;  -10.512; 6387.297
863.625; 3041.738;  -11.232; 6190.836
864.188; 3203.347;  -14.112; 5807.254
864.751; 3298.423;  -11.302; 5682.413
865.314; 3228.324;  -10.112; 5547.492
865.876; 3004.518;  -12.182; 5500.150
866.439; 2970.740;  -10.722; 5415.909
867.002; 2933.244;   -9.252; 5501.567
867.564; 2740.913;   -9.572; 5413.946
868.127; 2521.465;  -13.142; 5160.325
868.689; 2394.655;  -12.902; 5133.183
869.252; 2281.362;   -9.732; 5252.382
869.814; 2172.897;   -9.432; 5297.141
870.377; 2183.013;  -11.552; 5390.919
870.939; 2256.970;   -9.052; 5599.898
871.501; 2341.708;  -10.982; 5248.336
872.063; 2356.967;  -12.292; 4854.235
872.626; 2292.764;  -14.912; 4817.074
873.188; 2285.599;  -13.112; 4987.732
873.750; 2265.253;  -13.442; 4868.651
874.312; 2184.717;   -9.402; 4779.330
874.874; 2101.168;  -11.062; 4866.348
875.436; 2015.302;  -13.931; 4718.887
875.998; 2007.452;   -9.561; 4660.005
876.560; 2037.837;  -11.321; 4462.964
877.122; 1980.488;  -12.221; 4145.042
877.683; 1875.666;  -12.191; 4056.481
878.245; 1798.877;  -12.101; 3950.740
878.807; 1837.816;   -8.971; 4058.958
879.369; 1864.432;  -12.071; 3954.677
879.930; 1782.095;  -14.621; 3941.495
880.492; 1725.323;  -10.311; 4067.014
881.053; 1699.168;  -10.901; 3859.633
881.615; 1592.962;  -14.411; 3776.071
882.176; 1489.273;  -13.761; 3734.750
882.738; 1433.286;   -9.181; 3678.489
883.299; 1421.541;  -11.791; 3405.407
883.860; 1454.719;  -13.121; 3351.106
884.422; 1512.257;  -11.211; 3394.044
884.983; 1526.831;  -10.091; 3166.443
885.544; 1399.510;   -8.461; 3189.802
886.105; 1127.582;  -12.361; 3160.360
886.666;  836.688;  -14.141; 3093.059
887.227;  644.617;  -11.361; 2941.957
887.788;  572.948;  -11.401; 2974.836
888.349;  561.158;  -13.791; 2721.214
888.910;  592.876;  -13.191; 2696.493
889.471;  630.868;   -9.881; 2560.172
890.032;  647.032;   -9.881; 2558.190
890.593;  652.628;  -10.371; 2567.669
891.153;  652.445;  -13.301; 2460.307
891.714;  633.124;  -11.431; 2372.046
892.275;  618.757;  -11.291; 2309.505
892.835;  600.145;  -11.471; 2382.543
893.396;  562.068;  -11.541; 2295.502
893.956;  516.665;  -11.181; 2162.420
894.517;  482.199;  -11.741; 2125.439
895.077;  479.087;  -11.671; 2086.978
895.638;  483.444;  -11.311; 2126.316
896.198;  460.468;   -9.831; 1838.275
896.758;  422.953;   -8.421; 1892.813
897.319;  396.484;  -12.351; 1792.232
897.879;  383.406;  -13.511; 1762.751
898.439;  360.432;  -12.001; 1661.149
898.999;  337.674;  -10.180; 1781.468
899.559;  329.441;  -12.030; 1703.347
900.119;  325.780;  -15.710; 1537.525
900.679;  322.422;   -8.900; 1638.384
901.239;  309.346;   -8.340; 1527.902
901.799;  300.953;  -13.910; 1456.441
902.359;  294.565;  -13.460; 1357.140
902.919;  287.814;  -11.490; 1331.118
903.479;  276.865;  -12.110; 1317.257
904.038;  257.094;  -11.720; 1262.595
904.598;  242.676;  -13.610; 1152.034
905.158;  238.837;  -11.040; 1240.893
905.717;  233.451;  -10.900; 1233.691
906.277;  223.036;  -15.080; 1217.330
906.836;  212.146;  -13.380; 1222.408
907.396;  201.875;  -10.780; 1193.047
907.955;  193.950;   -8.500; 1182.526
908.515;  188.066;  -12.760; 1099.364
909.074;  182.421;  -11.900; 1092.863
909.633;  177.082;   -8.950; 1069.121
910.192;  174.732;   -8.770; 1196.460
910.752;  170.563;  -12.390; 1029.960
911.311;  166.496;  -13.680; 1009.780
911.870;  163.715;  -12.370;  971.460
912.429;  165.274;  -10.900; 1094.080
912.988;  164.530;  -11.690; 1081.060
913.547;  160.101;  -13.240;  940.380
914.106;  154.777;  -11.990;  999.420
914.665;  152.345;   -9.990;  984.020
915.224;  152.390;  -12.880; 1035.760
915.782;  150.842;  -12.350;  922.560
916.341;  150.655;   -9.110; 1049.840
916.900;  147.554;   -9.270;  925.260
917.458;  145.628;  -13.240;  884.220
918.017;  145.395;  -13.550;  942.600
918.576;  143.816;  -12.320;  904.440
919.134;  142.557;  -11.490;  837.980
919.693;  141.062;  -13.670;  893.060
920.251;  139.252;  -15.470;  876.500
920.809;  138.304;  -11.290;  839.580
921.368;  138.590;  -10.210;  885.360
921.926;  138.398;  -12.140;  842.940
922.484;  136.398;  -13.080;  903.360
923.042;  135.252;  -11.720;  880.340
923.601;  138.661;   -7.480;  998.680
924.159;  137.118;  -11.570;  935.560
924.717;  133.640;  -13.840;  841.080
925.275;  132.833;  -10.640;  903.240
925.833;  133.085;  -11.540;  779.320
926.391;  134.418;  -12.960;  938.380
926.949;  132.390;  -14.130;  857.680
927.506;  132.778;  -11.750;  903.500
928.064;  132.642;  -10.250;  877.580
928.622;  132.981;  -13.030;  880.100
929.180;  131.367;  -13.400;  814.180
929.737;  132.289;  -10.700;  808.540
930.295;  136.571;  -10.070;  928.480
930.853;  138.063;  -11.960;  849.100
931.410;  138.574;  -13.120;  821.120
931.968;  138.094;  -10.770;  940.660
932.525;  137.721;  -10.680;  909.380
933.082;  138.588;  -13.130;  811.440
933.640;  139.323;  -13.210;  925.900
934.197;  135.865;  -11.060;  886.360
934.754;  138.157;   -9.580;  897.780
935.312;  141.487;  -14.000;  863.340
935.869;  145.822;  -10.710; 1012.980
936.426;  145.005;   -9.860;  872.800
936.983;  146.829;   -9.710;  889.020
937.540;  146.431;  -13.990;  838.280
938.097;  145.510;  -14.040;  940.120
938.654;  145.369;  -10.310;  898.860
939.211;  147.542;  -10.560;  952.480
939.768;  151.924;  -13.900;  915.420
940.324;  155.713;  -14.760;  904.200
940.881;  155.912;  -10.370;  878.500
941.438;  157.472;   -8.260; 1021.200
941.995;  154.434;  -12.540;  992.560
942.551;  150.783;  -14.670;  875.620
943.108;  150.365;  -10.450;  937.920
943.664;  152.338;  -10.750;  869.340
944.221;  156.578;  -11.550; 1088.140
944.777;  153.447;  -14.770;  869.680
945.334;  152.771;  -12.820;  884.840
945.890;  155.636;  -10.130;  946.480
946.446;  156.551;  -13.470;  947.020
947.003;  157.988;  -12.120;  964.940
947.559;  159.617;   -9.980; 1063.040
948.115;  159.296;   -9.080; 1026.540
948.671;  157.885;  -10.830;  967.300
949.227;  155.099;  -12.440;  859.560
949.783;  152.200;  -12.910;  858.900
950.339;  154.318;  -10.270;  991.000
950.895;  156.087;  -13.630; 1023.840
951.451;  153.834;  -15.100;  925.280
952.007;  152.289;  -11.330;  998.540
952.563;  152.833;  -10.580;  937.780
953.118;  152.607;  -13.440;  904.940
953.674;  151.495;  -12.710;  935.780
954.230;  150.236;  -10.350;  949.640
954.785;  148.596;   -9.190;  936.640
955.341;  147.928;  -11.200;  998.160
955.897;  144.293;  -16.560;  834.660
956.452;  146.630;  -12.570;  953.840
957.008;  145.739;   -7.970; 1083.640
957.563;  144.454;  -11.940; 1009.540
958.118;  139.219;  -13.450;  877.700
958.674;  139.869;  -12.030;  946.780
959.229;  140.768;   -9.410; 1013.980
959.784;  139.372;  -12.000;  832.400
960.339;  138.232;  -14.780; 1001.280
960.894;  133.930;   -9.860;  963.760
961.449;  130.091;   -9.970;  859.960
962.004;  130.867;  -10.900; 1212.840
962.559;  124.818;  -13.150;  860.140
963.114;  121.831;  -13.740;  742.480
963.669;  121.719;   -9.820;  915.500
964.224;  120.796;  -13.890;  874.340
964.779;  119.581;  -12.600;  828.420
965.334;  118.782;  -10.950; 1017.860
965.888;  118.941;  -11.170;  875.360
966.443;  122.698;  -12.540;  972.380
966.998;  122.108;  -15.780;  819.460
967.552;  121.246;   -9.760;  908.380
968.107;  116.354;   -9.060;  868.300
968.661;  119.469;  -11.950;  922.440
969.216;  118.890;  -12.800;  856.280
969.770;  117.978;  -11.210;  917.200
970.324;  117.850;  -11.610;  923.140
970.879;  115.297;  -11.370;  947.180
971.433;  111.649;  -12.540;  952.720
971.987;  105.560;  -11.320;  895.340
972.541;  102.942;  -10.720;  917.100
973.095;  103.393;   -9.680; 1009.460
973.649;  101.084;  -11.440;  809.480
974.203;  100.136;  -11.210;  829.040
974.757;  100.279;  -10.240;  855.220
975.311;  101.013;  -13.720;  872.600
975.865;  100.045;  -13.770;  881.820
976.419;   98.553;  -11.690;  857.400
976.973;   98.507;   -9.510;  849.620
977.526;   99.908;  -12.620;  949.920
978.080;   98.506;  -12.010;  796.780
978.634;   99.782;  -10.170;  921.320
979.187;   98.213;   -9.020;  905.400
979.741;   96.300;   -9.820; 1018.380
980.294;   91.291;  -14.870;  789.160
980.848;   88.656;  -12.380;  717.220
981.401;   91.019;  -10.350;  816.540
981.955;   94.325;  -13.720;  844.300
982.508;   92.070;  -11.490;  746.340
983.061;   91.212;  -10.000;  915.260
983.615;   88.130;  -11.480;  798.800
984.168;   85.883;  -13.220;  770.080
984.721;   85.398;  -13.960;  880.760
985.274;   83.559;  -10.870;  867.500
985.827;   83.033;   -9.790;  834.220
986.380;   80.817;  -13.120;  721.340
986.933;   79.753;  -12.450;  864.800
987.486;   77.694;  -10.210;  861.920
988.039;   77.350;   -8.430;  863.100
988.591;   75.845;  -10.520;  893.260
989.144;   72.971;  -14.860;  737.260
989.697;   71.364;  -13.080;  758.740
990.250;   72.150;  -10.150;  858.100
990.802;   72.066;  -13.430;  755.860
991.355;   71.636;  -12.750;  974.880
991.907;   69.430;  -12.040;  864.320
992.460;   67.224;  -11.330;  753.760
993.012;   67.280;  -13.610;  749.540
993.565;   66.094;  -13.460;  711.360
994.117;   67.139;   -9.360;  950.780
994.669;   64.027;  -11.300;  701.320
995.221;   62.814;  -13.540;  791.920
995.774;   60.814;  -13.430;  787.580
996.326;   59.346;  -12.520;  740.220
996.878;   58.883;  -10.950;  838.420
997.430;   56.592;  -14.300;  699.860
997.982;   56.269;  -13.760;  750.140
998.534;   55.008;  -11.530;  739.060
999.086;   54.201;  -10.310;  738.220
999.638;   53.358;  -12.530;  661.380
1000.190;   52.800;  -11.840;  699.320
1000.741;   51.161;  -10.260;  742.700
1001.293;   51.364;   -8.860;  686.020
1001.845;   51.393;  -13.700;  676.640
1002.396;   50.850;  -12.100;  743.400
1002.948;   49.322;  -12.760;  737.400
1003.500;   48.167;  -10.380;  723.780
1004.051;   49.388;  -11.900;  907.580
1004.603;   46.777;  -12.250;  791.820
1005.154;   42.371;  -13.210;  608.980
1005.705;   42.294;  -10.950;  723.960
1006.257;   42.710;  -13.880;  707.220
1006.808;   41.692;  -12.840;  685.460
1007.359;   40.709;  -10.570;  763.240
1007.910;   39.632;   -9.620;  646.640
1008.461;   40.202;  -13.630;  732.940
1009.013;   39.164;  -17.200;  588.340
1009.564;   39.767;  -10.200;  793.520
1010.115;   37.070;  -12.570;  597.040
1010.665;   37.652;  -15.150;  602.160
1011.216;   38.028;  -14.480;  667.920
1011.767;   36.666;  -11.340;  697.920
1012.318;   37.579;   -9.780;  736.980
1012.869;   36.921;  -12.380;  679.000
1013.419;   35.733;  -15.560;  603.120
1013.970;   35.356;  -11.010;  666.640
1014.521;   34.870;  -11.610;  620.620
1015.071;   35.739;  -13.450;  670.380
1015.622;   34.837;  -13.870;  635.460
1016.172;   33.789;  -11.610;  596.820
1016.723;   33.538;  -12.120;  614.380
1017.273;   34.159;  -13.620;  604.160
1017.823;   32.855;  -14.140;  650.340
1018.374;   32.876;  -12.800;  611.760
1018.924;   32.424;  -12.340;  716.880
1019.474;   33.396;  -11.410;  718.880
1020.024;   32.777;  -14.770;  657.580
1020.574;   32.381;   -9.780;  726.160
1021.124;   33.140;   -8.560;  673.580
1021.674;   31.636;  -15.190;  559.120
1022.224;   33.135;  -13.530;  708.940
1022.774;   30.845;  -13.280;  668.820
1023.324;   31.828;  -10.690;  753.520
1023.874;   34.251;  -10.240;  875.760
1024.423;   30.760;  -12.540;  613.700
1024.973;   30.024;  -10.010;  610.760
1025.523;   29.932;  -10.550;  620.960
1026.072;   30.344;  -13.560;  606.420
1026.622;   29.618;  -15.120;  675.740
1027.172;   30.903;  -11.260;  715.660
1027.721;   29.422;  -11.410;  601.220
1028.270;   30.164;  -13.530;  663.400
1028.820;   29.722;  -13.680;  638.080
1029.369;   28.429;  -13.520;  612.700
1029.918;   28.943;  -10.980;  649.840
1030.468;   29.001;  -13.530;  564.780
1031.017;   29.200;  -13.170;  634.800
1031.566;   27.716;  -12.200;  608.900
1032.115;   28.270;   -9.960;  694.500
1032.664;   28.046;  -13.210;  596.480
1033.213;   28.641;  -12.500;  735.420
1033.762;   26.778;  -11.910;  635.620
1034.311;   27.459;   -9.640;  677.220
1034.860;   28.016;  -13.310;  691.000
1035.408;   27.791;  -11.830;  722.720
1035.957;   27.483;  -12.000;  719.540
1036.506;   25.874;  -11.690;  530.800
1037.055;   28.689;  -10.990;  844.320
1037.603;   26.934;  -15.120;  664.000
1038.152;   24.403;  -12.450;  534.760
1038.700;   25.331;  -10.560;  585.740
1039.249;   26.164;  -11.080;  681.220
1039.797;   25.841;  -12.540;  633.360
1040.345;   25.077;  -11.920;  705.420
1040.894;   24.814;  -11.410;  625.300
1041.442;   25.188;  -14.320;  632.200
1041.990;   24.128;  -16.240;  559.160
1042.538;   23.230;  -11.680;  536.180
1043.087;   24.026;  -10.760;  570.860
1043.635;   24.840;  -11.850;  670.500
1044.183;   24.452;  -15.480;  586.400
1044.731;   23.177;  -11.770;  576.000
1045.279;   22.620;  -13.090;  674.920
1045.827;   25.471;  -12.440;  892.400
1046.374;   22.754;  -13.840;  515.420
1046.922;   21.060;  -13.220;  590.580
1047.470;   24.020;  -10.230;  691.300
1048.018;   23.673;  -14.590;  647.960
1048.565;   24.183;  -12.050;  708.600
1049.113;   21.831;  -11.650;  557.000
1049.660;   22.050;  -10.510;  629.660
1050.208;   22.476;  -13.310;  675.640
1050.755;   21.409;  -15.900;  606.580
1051.303;   21.783;  -11.430;  686.820
1051.850;   20.933;   -8.480;  635.120
1052.397;   20.623;  -15.010;  473.960
1052.945;   20.623;  -13.960;  617.760
1053.492;   22.230;  -13.150;  741.840
1054.039;   21.888;   -9.630;  720.180
1054.586;   20.971;  -13.680;  557.240
1055.133;   21.107;  -14.570;  693.140
1055.680;   20.181;  -13.820;  646.620
1056.227;   20.651;  -11.730;  542.780
1056.774;   21.356;  -12.480;  794.980
1057.321;   20.429;  -13.930;  523.260
1057.868;   19.110;  -11.690;  651.320
1058.415;   19.040;   -9.520;  651.980
1058.961;   20.719;  -13.160;  678.940
1059.508;   20.626;  -12.920;  643.820
1060.055;   18.726;  -11.920;  581.780
1060.601;   20.028;  -11.500;  624.300
1061.148;   20.220;  -14.330;  616.820
1061.694;   19.414;  -16.870;  592.580
1062.241;   18.102;  -10.330;  596.320
1062.787;   18.671;  -10.620;  663.140
1063.334;   20.960;  -10.110;  808.560
1063.880;   19.428;  -13.400;  668.360
1064.426;   18.421;  -10.680;  706.820
1064.972;   17.635;   -9.920;  601.340
1065.518;   16.948;  -10.980;  566.640
1066.065;   18.508;  -14.890;  624.460
1066.611;   17.059;  -12.870;  598.800
1067.157;   18.246;  -12.950;  641.860
1067.703;   18.122;  -13.540;  668.480
1068.249;   18.393;  -13.540;  605.220
1068.794;   17.372;  -12.600;  626.880
1069.340;   16.469;  -10.620;  578.960
1069.886;   17.590;  -12.830;  590.700
1070.432;   15.881;  -14.870;  541.720
1070.977;   16.799;  -11.980;  601.080
1071.523;   16.311;   -8.200;  573.060
1072.068;   17.083;  -12.330;  582.000
1072.614;   16.032;  -16.370;  527.760
1073.160;   16.729;  -11.100;  687.040
1073.705;   15.947;  -10.480;  572.520
1074.250;   16.273;  -14.520;  559.900
1074.796;   16.500;  -11.460;  655.160
1075.341;   16.143;  -11.950;  664.100
1075.886;   15.937;  -11.460;  594.240
1076.431;   15.881;  -13.770;  649.880
1076.976;   15.722;  -12.680;  639.220
1077.521;   14.227;  -13.170;  583.080
1078.067;   13.828;  -10.860;  579.400
1078.612;   15.787;  -13.920;  661.620
1079.156;   15.139;  -13.880;  601.540
1079.701;   15.179;  -13.120;  693.260
1080.246;   15.383;   -9.940;  696.300
1080.791;   15.361;  -14.740;  625.020
1081.336;   15.558;  -13.750;  659.320
1081.880;   14.308;  -13.400;  649.680
1082.425;   13.372;  -12.220;  573.480
1082.970;   15.553;  -11.610;  717.040
1083.514;   14.068;  -13.580;  597.000
1084.059;   12.797;  -12.810;  586.720
1084.603;   12.850;  -12.320;  565.840
1085.147;   14.439;  -13.190;  645.220
1085.692;   15.073;  -12.480;  716.800
1086.236;   11.670;  -13.020;  503.140
1086.780;   14.154;   -9.190;  751.440
1087.325;   14.295;  -12.480;  654.620
1087.869;   13.607;  -12.450;  610.700
1088.413;   13.084;  -12.240;  705.040
1088.957;   11.498;   -9.020;  543.400
1089.501;   14.221;  -10.320;  766.640
1090.045;   13.358;  -12.720;  726.480
1090.589;   10.996;  -13.690;  569.920
1091.133;   12.721;  -10.020;  673.340
1091.676;   13.282;  -12.330;  591.940
1092.220;   12.297;  -14.970;  600.920
1092.764;   12.119;  -12.430;  706.960
1093.307;   12.262;   -9.800;  673.780
1093.851;   11.470;  -14.970;  556.540
1094.395;   13.044;  -15.310;  683.140
1094.938;   10.346;  -10.370;  632.520
1095.482;   10.585;  -11.050;  559.800
1096.025;   12.264;  -11.840;  710.880
1096.568;   12.786;  -12.840;  779.280
1097.112;    9.242;  -14.700;  508.180
1097.655;   11.353;   -8.720;  603.000
1098.198;   10.573;  -13.610;  600.180
1098.741;   10.110;  -13.350;  612.860
1099.285;   10.573;  -11.230;  657.300
1099.828;    9.284;  -11.840;  439.400
1100.371;   10.691;  -10.840;  608.160
1100.914;   10.640;  -14.190;  682.660
1101.457;    9.931;  -11.240;  679.900
1101.999;    9.353;  -11.270;  584.680
1102.542;   11.203;  -11.480;  641.440
1103.085;    9.669;  -11.750;  658.500
1103.628;    9.961;  -11.400;  762.060
1104.170;    8.670;  -10.490;  588.280
1104.713;   10.023;  -10.600;  646.700
1105.256;   10.047;  -14.360;  557.440
1105.798;    7.712;  -13.210;  499.980
1106.341;   10.396;  -10.270;  728.900
1106.883;    9.129;  -12.200;  521.340
1107.425;    9.484;  -13.110;  668.180
1107.968;    8.029;  -12.840;  612.380
1108.510;    8.377;   -6.480;  684.960
1109.052;    8.404;  -13.940;  612.620
1109.594;    8.268;  -13.690;  554.440
1110.136;    8.952;  -11.880;  643.220
1110.679;    7.699;   -9.500;  633.080
1111.221;    8.945;  -14.160;  604.460
1111.763;    7.402;  -13.980;  559.220
1112.304;    7.278;  -13.880;  547.140
1112.846;    7.594;  -12.210;  666.240
1113.388;   11.128;  -11.390;  942.180
1113.930;    8.459;  -14.540;  694.200
1114.472;    6.364;  -12.640;  606.540
1115.013;    6.337;  -11.620;  551.280
1115.555;    6.717;  -13.640;  587.100
1116.097;    6.680;  -15.380;  579.480
1116.638;    7.345;  -12.640;  684.600
1117.180;    7.143;   -9.850;  667.740
1117.721;    7.655;  -13.690;  568.580
1118.262;    7.878;  -12.680;  677.960
1118.804;    7.375;  -12.530;  637.340
1119.345;    5.811;  -11.690;  578.400
1119.886;    7.604;  -13.380;  704.040
1120.427;    5.905;  -14.070;  589.020
1120.969;    5.743;  -13.500;  597.920
1121.510;    5.436;  -11.480;  563.060
1122.051;    6.758;  -12.830;  723.580
1122.592;    5.882;  -14.290;  655.420
1123.133;    3.926;  -12.400;  547.940
1123.673;    6.371;  -10.130;  706.480
1124.214;    5.580;  -12.930;  612.460
1124.755;    7.128;  -14.380;  639.460
1125.296;    5.379;  -14.000;  627.320
1125.836;    6.250;  -10.070;  691.500
1126.377;    5.999;  -12.640;  599.660
1126.918;    6.154;  -12.960;  614.980
1127.458;    4.235;  -13.350;  622.220
1127.999;    4.911;  -10.750;  656.980
1128.539;    6.689;  -12.350;  694.240
1129.079;    4.739;  -14.860;  632.720
1129.620;    3.852;  -13.840;  558.100
1130.160;    3.874;  -12.330;  539.480
1130.700;    5.335;  -14.530;  640.840
1131.240;    5.735;  -12.530;  643.700
1131.781;    4.317;  -14.450;  619.680
1132.321;    3.849;   -9.790;  599.120
1132.861;    3.437;  -14.860;  564.200
1133.401;    3.699;  -14.290;  593.940
1133.941;    3.676;  -11.750;  626.280
1134.481;    3.800;   -9.920;  597.580
1135.020;    4.291;  -12.290;  609.160
1135.560;    4.068;  -11.650;  674.940
1136.100;    3.407;  -16.270;  501.160
1136.640;    2.503;  -10.890;  510.480
1137.179;    3.797;  -14.180;  537.960
1137.719;    4.397;  -16.250;  605.400
1138.258;    2.978;  -14.230;  587.360
1138.798;    2.696;   -9.090;  663.780
1139.337;    3.110;  -15.130;  482.840
1139.877;    3.465;  -13.680;  642.360
1140.416;    4.516;  -11.320;  878.060
1140.955;    2.449;  -10.860;  535.380
1141.494;    4.034;  -12.920;  669.280
1142.034;    2.752;  -13.930;  583.520
1142.573;    3.273;  -11.440;  646.280
1143.112;    2.236;  -12.000;  553.480
1143.651;    2.772;  -13.670;  536.480
1144.190;    3.691;  -12.730;  691.640
1144.729;    2.203;  -14.560;  607.420
1145.267;    1.769;  -11.830;  584.900
1145.806;    3.198;  -12.230;  637.040
1146.345;    2.288;  -14.130;  635.020
1146.884;    1.689;  -11.590;  622.500
1147.422;    1.069;  -12.550;  533.060
1147.961;    3.636;  -11.180;  708.460
1148.500;    2.183;  -11.510;  669.720
1149.038;    2.514;  -11.640;  632.500
1149.577;    2.413;  -10.130;  698.640
1150.115;    1.074;  -13.970;  452.280
1150.653;    2.686;  -14.520;  607.340
1151.192;    0.996;  -12.810;  552.920
1151.730;    0.940;   -9.100;  652.560
1152.268;    1.815;  -12.220;  589.520
1152.806;    1.288;  -14.140;  571.180
1153.344;   -0.792;  -12.350;  577.640
1153.882;    0.785;   -8.980;  600.060
1154.421;    0.227;  -15.190;  470.620
1154.958;    0.369;  -15.210;  595.240
1155.496;    1.663;  -12.850;  645.280
1156.034;    0.987;   -9.940;  721.880
1156.572;    2.782;  -13.570;  667.060
1157.110;    0.040;  -14.590;  473.940
1157.647;    1.092;  -13.030;  676.960
1158.185;   -0.298;  -12.140;  564.320
1158.723;   -0.249;  -14.390;  509.200
1159.260;    1.292;  -14.090;  701.700
1159.798;    0.149;  -11.920;  658.160
1160.335;    0.185;  -11.110;  631.820

