
Integration time [ms]:   3.276
Averaging Nr. [scans]: 1000
Smoothing Nr. [pixels]: 0
Data measured with spectrometer [name]: 7414430SP
Wave   ;Sample   ;Dark     ;Reference
[nm]   ;[counts] ;[counts] ;[counts] 

288.544;  151.029;    7.793;  793.890
289.143;  155.318;    7.462;  681.602
289.742;  155.636;    8.602;  828.814
290.341;  140.869;    1.321;  789.841
290.940;  130.001;   -0.709;  730.702
291.538;  131.124;    0.881;  881.108
292.137;  131.523;    0.122;  792.581
292.736;  135.657;   -1.929;  975.101
293.335;  131.807;   -8.229;  735.086
293.934;  131.748;   -5.279;  781.677
294.532;  130.135;   -1.369; 1031.958
295.131;  116.477;   -7.641;  834.394
295.730;  117.230;   -8.420;  809.588
296.328;  116.136;   -5.611;  783.442
296.927;  116.826;   -5.781;  779.652
297.525;  117.221;   -6.361;  781.236
298.124;  108.482;  -11.382;  654.009
298.722;  110.831;   -7.641;  761.933
299.321;  109.854;   -6.811;  708.597
299.919;  107.410;   -6.991;  751.918
300.518;  104.268;  -10.362;  689.338
301.116;  106.162;   -9.581;  691.381
301.715;  105.551;   -4.891;  730.222
302.313;  105.079;   -8.801;  704.943
302.911;  100.942;   -8.522;  733.830
303.509;  106.203;   -6.171;  925.627
304.108;  103.789;   -7.311;  760.383
304.706;  102.718;   -8.321;  801.664
305.304;   96.922;  -10.222;  796.707
305.902;  102.226;   -6.021;  784.484
306.500;   98.403;   -4.971;  728.200
307.098;   96.106;   -7.061;  746.560
307.696;   94.889;   -8.801;  780.432
308.294;   94.383;   -6.411;  731.359
308.892;   98.121;   -2.901;  759.769
309.490;   92.984;   -5.041;  712.161
310.088;   91.492;   -5.002;  788.444
310.686;   95.678;   -2.041;  821.749
311.284;   91.597;   -2.351;  766.040
311.882;   89.743;   -4.422;  731.225
312.480;   85.481;   -4.192;  697.167
313.078;   86.934;   -1.172;  808.331
313.675;   88.609;   -2.601;  691.600
314.273;   83.860;   -1.312;  797.837
314.871;   82.232;   -3.942;  589.829
315.468;   80.817;   -2.802;  652.090
316.066;   84.116;   -0.701;  694.427
316.664;   76.348;   -4.362;  656.351
317.261;   80.268;   -2.872;  910.128
317.859;   75.815;   -2.022;  768.735
318.456;   76.258;   -0.531;  830.096
319.054;   72.351;   -3.912;  787.828
319.651;   71.086;   -4.752;  759.928
320.249;   70.281;   -2.602;  810.188
320.846;   68.857;   -0.821;  714.286
321.443;   65.057;   -4.642;  832.135
322.041;   62.301;   -5.002;  812.315
322.638;   61.130;   -3.982;  701.456
323.235;   61.322;   -3.411;  665.683
323.833;   59.928;   -7.361;  740.354
324.430;   54.316;   -8.611;  615.900
325.027;   55.333;   -4.061;  876.855
325.624;   55.686;   -4.031;  644.532
326.221;   52.700;   -7.481;  689.717
326.818;   51.699;   -5.281;  818.332
327.415;   55.144;   -7.460;  748.828
328.012;   54.330;   -5.510;  690.585
328.609;   53.069;   -7.880;  731.389
329.206;   51.053;   -8.331;  778.621
329.803;   51.352;   -5.121;  737.841
330.400;   54.482;   -4.510;  704.260
330.997;   56.035;   -6.441;  817.147
331.594;   54.356;   -8.831;  788.185
332.191;   59.457;   -7.621;  728.722
332.787;   62.375;   -4.591;  844.463
333.384;   60.774;   -7.412;  763.093
333.981;   59.496;   -8.293;  815.687
334.578;   61.915;   -7.052;  708.378
335.174;   65.312;   -3.102;  731.469
335.771;   64.228;   -5.943;  836.456
336.367;   61.269;   -7.393;  710.631
336.964;   65.032;   -4.063;  793.266
337.561;   62.908;   -3.813;  731.112
338.157;   59.050;   -4.654;  911.916
338.754;   56.481;   -7.934;  796.589
339.350;   53.791;   -4.414;  722.493
339.946;   56.242;   -4.664;  773.135
340.543;   48.135;   -6.375;  846.136
341.139;   42.618;   -9.815;  720.836
341.735;   41.357;   -4.526;  772.593
342.332;   40.406;   -4.895;  691.472
342.928;   40.063;   -4.295;  795.394
343.524;   34.048;   -5.476;  761.684
344.120;   30.893;   -5.856;  738.562
344.716;   34.054;   -2.155;  723.717
345.313;   31.716;   -6.275;  795.342
345.909;   25.715;   -8.815;  627.336
346.505;   28.034;   -5.305;  740.247
347.101;   29.160;   -2.674;  827.864
347.697;   29.259;   -4.344;  785.398
348.293;   23.663;   -9.975;  627.244
348.889;   24.491;   -5.774;  745.914
349.485;   24.374;   -5.004;  688.205
350.081;   24.453;   -4.704;  772.592
350.676;   19.851;   -6.635;  691.606
351.272;   24.711;   -4.504;  809.530
351.868;   24.015;   -3.914;  780.497
352.464;   21.387;   -9.044;  723.932
353.059;   17.336;   -8.314;  646.017
353.655;   20.759;   -7.024;  777.063
354.251;   21.250;   -5.343;  759.845
354.846;   16.232;   -8.604;  740.646
355.442;   13.762;   -6.945;  753.071
356.038;   15.741;   -7.564;  751.708
356.633;   16.462;   -5.814;  728.594
357.229;   13.871;   -7.364;  724.757
357.824;   12.771;   -8.024;  703.600
358.420;   10.789;   -9.384;  679.726
359.015;   12.064;   -5.104;  695.357
359.610;   13.597;   -6.854;  763.920
360.206;    6.781;  -10.185;  603.240
360.801;    9.762;   -7.054;  646.503
361.396;   12.451;   -5.034;  725.975
361.992;    7.830;   -8.284;  668.220
362.587;    5.047;   -8.625;  670.160
363.182;    7.273;   -7.674;  689.631
363.777;    8.278;   -5.164;  738.242
364.372;    7.182;   -8.604;  737.314
364.967;    3.498;   -9.055;  680.744
365.563;    7.985;   -6.114;  815.567
366.158;    5.798;   -5.814;  685.161
366.753;    5.505;   -7.854;  649.263
367.348;    3.971;   -7.804;  746.056
367.942;    4.002;   -7.954;  697.298
368.537;    3.103;   -4.984;  754.245
369.132;    3.218;   -8.564;  703.428
369.727;   -1.166;   -8.855;  638.079
370.322;    0.879;   -6.245;  580.186
370.917;    0.822;   -6.425;  710.646
371.511;    2.079;   -6.294;  861.834
372.106;   -0.721;   -7.685;  776.964
372.701;   -2.905;   -7.335;  585.988
373.296;    2.224;   -4.564;  863.135
373.890;   -2.149;  -10.235;  647.840
374.485;   -4.808;   -7.885;  691.199
375.079;   -0.798;   -7.324;  738.685
375.674;    0.314;   -3.494;  812.970
376.268;   -3.687;   -8.525;  691.759
376.863;   -9.381;  -10.086;  580.327
377.457;   -3.560;   -7.025;  662.490
378.052;   -5.133;   -3.585;  764.884
378.646;   -5.864;   -7.595;  741.167
379.240;   -6.562;   -8.335;  721.176
379.835;   -5.439;   -5.785;  636.978
380.429;   -6.413;   -4.335;  562.557
381.023;   -7.104;   -6.805;  779.205
381.617;   -9.488;   -9.195;  680.106
382.212;   -6.196;   -6.905;  685.303
382.806;   -5.236;   -3.745;  760.690
383.400;   -8.590;   -7.745;  672.281
383.994;  -10.662;   -9.765;  664.870
384.588;   -6.417;   -6.564;  697.701
385.182;   -5.099;   -5.344;  726.624
385.776;   -6.744;   -8.514;  706.875
386.370;  -10.046;   -9.555;  681.968
386.964;   -8.042;   -8.715;  684.155
387.558;   -6.788;   -6.174;  598.360
388.152;  -10.497;   -8.725;  681.959
388.745;   -9.218;   -7.965;  814.707
389.339;   -6.899;   -5.924;  747.642
389.933;   -5.337;   -5.524;  695.370
390.527;   -7.416;   -7.114;  859.029
391.120;  -13.941;  -10.725;  595.318
391.714;  -10.081;   -8.035;  711.633
392.308;   -6.668;   -3.574;  780.253
392.901;  -10.928;   -7.245;  642.460
393.495;  -12.458;   -9.285;  595.414
394.089;   -9.966;   -5.895;  760.452
394.682;  -10.495;   -4.295;  697.188
395.275;  -11.686;   -9.875;  719.927
395.869;  -13.390;   -8.485;  667.314
396.462;  -11.350;   -7.455;  616.609
397.056;   -6.527;   -5.424;  776.621
397.649;  -12.231;   -6.605;  731.575
398.242;   -9.664;   -8.224;  712.645
398.836;   -8.617;   -7.474;  766.408
399.429;   -9.881;   -7.094;  631.041
400.022;  -13.446;   -9.475;  665.902
400.615;  -11.198;   -7.145;  805.609
401.208;   -8.978;   -7.174;  691.451
401.802;  -10.148;   -5.515;  699.329
402.395;  -12.120;   -9.875;  683.502
402.988;  -13.228;   -8.845;  696.627
403.581;   -9.867;   -8.874;  646.878
404.174;   -7.825;   -5.324;  686.568
404.767;   -9.845;   -9.575;  638.583
405.360;  -12.618;  -10.965;  621.445
405.953;   -7.609;   -8.764;  759.034
406.545;   -6.603;   -7.514;  725.342
407.138;  -11.383;  -10.025;  618.350
407.731;  -10.089;  -10.034;  613.303
408.324;   -6.170;   -9.374;  660.554
408.917;   -6.225;   -6.534;  681.864
409.509;   -8.344;   -8.004;  740.396
410.102;  -10.874;   -9.875;  643.948
410.695;   -4.721;   -8.604;  665.758
411.287;   -5.044;   -6.794;  599.821
411.880;   -7.438;   -9.334;  585.421
412.472;   -9.432;  -10.254;  613.092
413.065;   -7.113;   -6.714;  629.408
413.657;   -5.036;   -7.234;  576.678
414.250;   -3.610;  -10.544;  646.681
414.842;   -6.649;   -9.744;  676.353
415.434;   -4.134;   -6.994;  570.463
416.027;    0.767;   -5.893;  652.196
416.619;   -2.320;   -7.264;  713.400
417.211;   -3.181;  -10.374;  599.352
417.804;    0.055;   -7.993;  628.499
418.396;   -2.198;   -7.234;  607.643
418.988;   -0.732;   -9.443;  659.238
419.580;   -4.415;  -10.724;  568.276
420.172;   -1.917;  -10.323;  536.196
420.764;    3.045;   -8.793;  672.482
421.356;    1.451;  -11.143;  636.898
421.948;   -0.032;   -8.293;  677.661
422.540;    4.978;   -7.893;  680.027
423.132;    4.456;   -7.082;  600.641
423.724;    1.869;   -8.653;  561.267
424.316;    3.327;  -10.213;  621.345
424.908;    6.368;   -9.762;  591.517
425.500;    7.709;   -5.572;  647.978
426.092;    8.107;   -8.422;  648.268
426.683;    6.618;   -9.283;  684.836
427.275;   10.398;   -7.852;  641.471
427.867;   11.814;   -5.272;  668.948
428.458;   12.541;   -7.682;  732.344
429.050;   10.400;  -10.612;  680.749
429.642;   12.346;   -9.882;  743.124
430.233;   13.564;   -6.962;  569.356
430.825;   14.910;   -6.842;  724.809
431.416;   11.566;   -9.672;  698.241
432.008;   15.660;   -6.552;  651.723
432.599;   16.841;   -6.891;  656.073
433.190;   13.027;  -10.912;  637.670
433.782;   12.535;  -11.172;  590.395
434.373;   20.059;   -6.061;  884.765
434.964;   19.098;   -8.251;  602.920
435.556;   16.690;   -9.722;  634.537
436.147;   19.208;   -9.082;  758.490
436.738;   19.238;   -8.041;  701.099
437.329;   25.522;   -7.341;  721.723
437.920;   17.575;   -8.162;  666.688
438.511;   18.047;  -11.802;  564.526
439.103;   24.209;  -10.191;  623.998
439.694;   25.945;   -7.601;  681.583
440.285;   26.268;   -8.541;  764.432
440.876;   24.784;   -9.751;  845.738
441.466;   25.251;   -9.401;  575.162
442.057;   30.405;   -7.760;  665.814
442.648;   28.995;   -9.971;  746.255
443.239;   27.010;  -11.001;  620.477
443.830;   31.714;   -7.990;  704.958
444.421;   34.384;   -7.910;  655.474
445.011;   30.392;   -8.131;  693.619
445.602;   28.658;   -7.111;  743.126
446.193;   31.597;  -10.920;  488.117
446.783;   36.632;   -6.500;  640.397
447.374;   31.883;   -8.671;  692.759
447.964;   32.757;  -10.781;  713.770
448.555;   41.136;   -9.650;  822.742
449.145;   37.593;   -8.660;  662.853
449.736;   37.922;   -8.990;  803.179
450.326;   38.300;   -9.500;  713.626
450.917;   42.818;   -8.680;  675.324
451.507;   42.640;   -7.520;  600.661
452.097;   43.483;   -8.590;  746.267
452.688;   43.820;  -11.340;  742.160
453.278;   43.777;  -10.100;  566.840
453.868;   48.399;   -6.019;  793.550
454.458;   46.229;   -9.440;  651.141
455.048;   46.686;  -10.560;  711.783
455.639;   48.271;  -11.799;  567.096
456.229;   52.003;   -6.899;  710.694
456.819;   53.749;   -7.389;  751.158
457.409;   53.527;  -11.119;  773.993
457.999;   56.731;   -9.289;  737.505
458.589;   56.684;   -6.139;  686.606
459.179;   56.668;   -8.729;  717.658
459.769;   55.144;   -9.789;  627.099
460.358;   59.279;  -10.259;  797.262
460.948;   60.309;   -7.299;  689.503
461.538;   61.935;  -10.289;  660.677
462.128;   58.999;  -11.269;  664.934
462.717;   66.267;   -9.368;  710.326
463.307;   70.216;   -7.908;  705.846
463.897;   65.534;   -9.599;  656.942
464.486;   64.614;   -9.769;  837.128
465.076;   69.069;   -8.048;  733.776
465.666;   72.750;   -9.358;  652.900
466.255;   70.170;   -7.919;  785.651
466.845;   69.223;  -11.689;  666.749
467.434;   72.730;   -7.818;  725.873
468.023;   73.864;   -7.678;  658.357
468.613;   71.168;  -10.939;  713.946
469.202;   75.465;  -10.118;  646.507
469.791;   80.454;   -9.108;  737.811
470.381;   82.139;   -6.058;  742.813
470.970;   81.542;  -10.428;  711.099
471.559;   81.317;  -10.268;  733.291
472.148;   84.536;   -8.448;  675.737
472.738;   87.014;   -6.917;  765.466
473.327;   87.019;  -11.978;  637.529
473.916;   86.633;  -11.888;  737.446
474.505;   91.112;   -9.437;  751.703
475.094;   94.128;   -6.747;  806.570
475.683;   93.564;   -9.367;  797.699
476.272;   93.805;  -12.637;  730.632
476.861;   97.048;  -10.027;  706.754
477.449;  104.470;   -8.716;  728.487
478.038;   97.998;   -9.577;  692.513
478.627;   98.624;   -9.718;  714.852
479.216;  105.774;   -8.947;  769.441
479.805;  109.560;   -6.256;  783.375
480.393;  109.249;   -7.937; 1008.945
480.982;  107.911;   -7.717;  874.501
481.571;  114.239;   -9.266;  858.333
482.159;  114.854;   -7.636;  705.386
482.748;  115.676;   -9.667;  821.385
483.336;  119.191;  -10.376;  858.209
483.925;  120.863;   -7.147;  774.373
484.513;  127.038;   -7.996;  758.962
485.102;  124.655;  -10.027;  810.965
485.690;  132.149;  -10.446; 1011.050
486.278;  135.418;   -8.446;  979.329
486.867;  136.203;   -6.356;  809.662
487.455;  137.703;   -9.136;  898.229
488.043;  139.332;  -10.646;  748.361
488.631;  148.224;   -7.456; 1005.079
489.220;  152.205;   -6.636;  908.626
489.808;  153.956;  -11.036;  741.415
490.396;  161.058;  -10.246;  914.645
490.984;  167.309;   -8.556;  830.161
491.572;  177.556;   -5.886;  940.315
492.160;  184.969;   -9.486;  919.081
492.748;  197.494;  -10.976;  884.341
493.336;  221.304;   -8.776; 1019.693
493.924;  249.796;   -5.465;  958.077
494.512;  279.670;   -9.986; 1066.638
495.100;  318.474;  -10.636; 1103.280
495.687;  377.660;  -10.885; 1206.373
496.275;  445.844;   -8.126; 1150.796
496.863;  519.679;  -10.586; 1281.171
497.451;  626.597;  -11.926; 1386.805
498.038;  768.898;  -10.885; 1556.729
498.626;  883.872;   -6.315; 1741.407
499.214; 1046.777;   -7.326; 2016.609
499.801; 1255.789;  -11.906; 2220.633
500.389; 1507.769;  -10.466; 2312.494
500.976; 1828.175;   -5.236; 2744.849
501.564; 2289.550;   -8.936; 3148.565
502.151; 2670.165;  -13.176; 3515.999
502.738; 3124.732;  -10.646; 3971.274
503.326; 3556.277;   -9.525; 4403.796
503.913; 3999.247;  -10.856; 5161.749
504.500; 4415.354;  -11.586; 5986.420
505.088; 4824.324;  -10.336; 6381.201
505.675; 5383.221;   -6.355; 6925.547
506.262; 6111.684;   -9.046; 7619.060
506.849; 6905.078;  -10.416; 8733.969
507.436; 7493.858;  -10.305; 9790.121
508.023; 8091.650;   -5.496; 9985.472
508.610; 8317.692;   -7.856;10434.618
509.197; 8984.891;  -10.097;11198.435
509.784;10401.824;  -10.886;12391.194
510.371;11658.568;   -9.315;13603.713
510.958;12497.898;   -9.936;14426.586
511.545;13251.016;   -9.326;15243.775
512.132;14116.110;  -10.075;15945.876
512.719;14702.999;   -7.796;16340.369
513.305;15960.241;  -10.606;18011.766
513.892;16714.471;  -11.486;19754.971
514.479;17955.127;   -9.126;20967.805
515.066;19501.713;   -6.026;22299.793
515.652;21170.449;   -8.466;22908.660
516.239;22500.109;  -10.886;23798.875
516.825;23457.139;  -11.496;25567.275
517.412;24635.109;   -5.796;28154.959
517.998;25388.818;  -10.506;28344.111
518.585;25301.512;  -10.076;27134.219
519.171;25904.484;   -8.315;27268.576
519.758;27976.098;   -8.596;28964.129
520.344;30087.504;   -8.466;30664.494
520.930;29758.594;  -11.006;32550.605
521.516;30961.088;  -10.495;35422.895
522.103;33038.246;   -5.526;38280.004
522.689;33745.352;   -8.746;37835.117
523.275;33169.203;  -11.376;37288.613
523.861;34892.465;  -11.156;37281.395
524.447;36779.422;   -8.135;37846.949
525.033;36567.160;   -7.896;38321.949
525.619;36906.570;  -12.476;38579.285
526.205;38294.828;   -9.516;40622.875
526.791;41112.730;   -6.926;42258.836
527.377;41019.219;   -8.346;42966.902
527.963;42132.438;   -8.717;42018.949
528.549;41348.125;  -11.016;42476.828
529.135;40059.852;   -8.536;41854.852
529.721;38893.582;   -9.666;41237.711
530.306;38241.164;  -10.066;41259.445
530.892;38045.246;  -11.356;41506.047
531.478;38885.371;   -6.596;43559.613
532.063;42401.918;   -8.836;47695.563
532.649;43716.422;  -10.047;50808.324
533.235;44429.094;   -9.746;51787.500
533.820;44892.945;   -6.566;52145.035
534.406;46274.781;  -10.817;51133.488
534.991;46005.656;   -9.416;49996.805
535.576;44368.848;   -9.036;48882.852
536.162;45188.047;   -6.156;46942.285
536.747;46423.570;  -11.607;45711.746
537.333;49408.164;  -11.787;48510.180
537.918;52255.984;  -12.437;50439.891
538.503;51576.191;   -7.196;50863.711
539.088;48149.008;  -10.556;50906.922
539.673;48307.488;   -8.767;52621.965
540.259;49062.051;  -10.026;52368.094
540.844;46290.215;   -7.416;50879.109
541.429;47749.574;   -9.467;52077.777
542.014;49923.473;   -9.527;52716.695
542.599;49185.105;   -9.946;52363.281
543.184;46017.641;   -7.927;53187.137
543.769;47068.484;   -9.297;54697.605
544.354;47458.539;  -10.127;53913.914
544.938;46018.184;   -9.267;49680.164
545.523;47759.586;   -6.506;47386.277
546.108;50674.652;   -9.787;49151.949
546.693;52545.004;  -11.587;51384.637
547.278;52749.324;  -10.986;51853.254
547.862;49602.508;   -8.206;51173.750
548.447;44852.641;  -10.067;51691.395
549.031;44045.078;   -9.637;52456.703
549.616;48961.590;   -9.926;52714.516
550.201;48867.066;   -6.347;52414.598
550.785;50238.648;   -7.917;52355.059
551.370;49462.277;  -10.867;54589.453
551.954;48888.625;   -9.047;58267.348
552.538;49735.605;   -7.827;59062.176
553.123;47995.207;  -10.287;58115.285
553.707;45596.457;  -12.178;56556.285
554.291;47139.012;   -8.717;56201.668
554.876;50276.848;   -7.457;55335.762
555.460;50285.934;  -10.387;54155.703
556.044;50465.789;   -9.618;53721.484
556.628;48380.488;  -11.567;53731.016
557.212;47258.844;   -8.097;54312.531
557.796;46001.027;  -11.077;53797.773
558.380;46084.391;  -11.108;56145.984
558.964;46254.445;   -9.057;57277.930
559.548;47188.672;   -6.977;56459.641
560.132;45255.160;  -11.457;54434.543
560.716;43777.492;  -11.378;54800.617
561.300;45114.836;   -9.577;57606.945
561.884;46343.336;   -7.127;58972.445
562.467;44193.348;   -7.118;57327.570
563.051;43120.551;  -13.358;54962.434
563.635;44500.691;  -10.178;52594.473
564.219;45424.723;   -7.837;50610.410
564.802;46159.102;  -11.398;49551.180
565.386;45595.230;  -12.788;48370.953
565.969;44908.727;   -9.077;48178.871
566.553;43828.680;   -6.207;49957.305
567.136;44759.828;   -8.568;50369.594
567.720;41399.832;  -11.868;49492.004
568.303;39274.191;   -8.268;50616.352
568.887;39130.992;   -8.698;50727.148
569.470;39718.512;   -6.808;51698.379
570.053;38850.211;  -13.188;52122.078
570.637;36339.398;  -12.037;52536.438
571.220;36019.965;   -8.577;51186.098
571.803;36969.762;   -8.498;51032.762
572.386;39328.766;  -10.498;49609.887
572.969;41996.512;   -9.388;48285.926
573.552;40248.773;   -8.338;47624.285
574.135;38765.727;   -8.518;45498.641
574.718;36077.902;  -13.628;41970.434
575.301;35276.434;  -10.893;41447.137
575.884;34474.965;   -8.158;40923.836
576.467;35665.949;  -10.328;45267.723
577.050;37208.410;  -13.058;48175.543
577.633;38438.656;   -9.458;47729.328
578.216;37630.266;   -8.928;47579.793
578.799;36751.715;   -9.358;47820.996
579.381;35647.602;  -11.388;48115.551
579.964;33392.512;  -11.718;47333.766
580.547;35355.395;   -8.588;46668.969
581.129;36267.039;   -8.859;44466.141
581.712;37214.477;  -10.729;44164.922
582.294;37698.762;  -11.118;46477.855
582.877;37748.715;   -5.218;48244.254
583.459;35835.582;   -8.679;47437.895
584.042;33609.586;  -10.709;46943.219
584.624;33568.930;  -11.669;46792.227
585.206;33445.223;   -8.218;46557.250
585.789;33944.438;  -10.569;45793.773
586.371;36325.141;  -11.859;43836.391
586.953;37001.000;  -10.719;42972.492
587.536;38018.594;   -7.198;42487.211
588.118;38452.617;   -8.720;42086.414
588.700;34400.289;  -10.439;43389.930
589.282;33340.566;   -9.198;43646.039
589.864;34376.668;   -9.199;43438.109
590.446;35714.078;  -11.319;43151.926
591.028;35422.406;  -11.159;42781.867
591.610;34064.164;  -11.779;42839.098
592.192;31482.650;   -7.668;42820.402
592.774;30094.637;  -11.949;40724.277
593.356;29139.699;  -12.129;39874.789
593.937;28196.482;  -10.669;39980.648
594.519;30565.740;   -6.509;42069.633
595.101;32619.883;  -10.849;42976.031
595.683;32629.463;  -11.679;44084.441
596.264;33481.594;   -9.049;43478.797
596.846;33071.914;   -8.849;43803.672
597.427;32835.492;   -9.570;42986.934
598.009;33986.074;  -12.620;42832.219
598.591;34388.938;  -10.039;42580.086
599.172;34125.930;  -10.369;43061.805
599.753;34376.965;   -9.140;41691.469
600.335;35668.270;  -11.430;40692.520
600.916;33833.664;   -9.939;39982.422
601.498;31720.379;   -8.479;40318.617
602.079;30176.969;  -10.920;40670.609
602.660;29891.813;  -11.480;41450.898
603.241;31565.398;  -11.699;41137.738
603.823;30109.088;   -9.579;38868.797
604.404;29385.568;  -10.620;38182.785
604.985;31249.270;  -10.450;38078.047
605.566;31248.596;   -9.129;38056.633
606.147;31261.773;   -7.510;37020.418
606.728;32791.270;  -10.660;37883.359
607.309;31359.430;  -11.740;38748.273
607.890;31075.805;   -9.759;38850.230
608.471;30612.443;   -8.250;37457.918
609.051;29995.400;   -9.240;36066.457
609.632;28788.258;  -12.120;35991.074
610.213;29054.842;   -9.110;37402.641
610.794;29933.365;   -8.030;38383.363
611.374;29916.271;   -8.110;40562.387
611.955;30659.596;  -13.560;38533.727
612.536;32056.074;  -11.400;36951.789
613.116;31733.934;   -8.070;37197.891
613.697;31947.602;  -10.830;38411.125
614.277;30177.902;  -11.641;38673.938
614.858;30892.871;  -13.310;37075.863
615.438;30441.750;   -7.460;35092.906
616.019;28157.328;   -7.601;33666.301
616.599;28323.314;  -12.020;34189.023
617.179;29866.184;  -11.780;36952.047
617.760;30922.744;   -8.570;39582.574
618.340;31778.242;  -11.471;38943.977
618.920;32678.658;  -11.170;37594.156
619.500;32723.580;  -11.071;37866.938
620.080;31869.832;   -7.750;37869.043
620.660;33053.883;  -12.711;36868.617
621.241;35011.078;  -10.211;36352.309
621.821;35409.469;  -10.961;35459.520
622.401;33990.797;   -7.720;35207.414
622.980;32793.039;   -8.981;35980.422
623.560;31338.801;   -9.331;37351.328
624.140;30196.307;   -9.850;34388.582
624.720;25347.500;   -7.451;32368.764
625.300;21857.211;   -9.070;32638.629
625.880;25239.436;  -12.601;34599.035
626.459;29412.869;  -11.751;36831.738
627.039;32308.721;   -9.281;38299.098
627.619;32145.078;   -8.801;38289.574
628.198;30486.920;  -12.071;37220.695
628.778;29483.604;   -9.461;37632.563
629.357;30291.734;   -8.491;38003.012
629.937;30636.713;   -9.721;38402.039
630.516;30131.322;   -9.951;37868.801
631.096;29783.873;  -11.731;35760.410
631.675;32032.836;   -8.572;35225.219
632.254;37254.363;  -11.282;35130.289
632.834;36736.215;  -13.322;35794.570
633.413;35085.754;  -10.301;35788.922
633.992;32466.348;   -8.582;34532.863
634.571;32957.500;   -8.352;33590.113
635.151;35483.410;  -11.912;34943.863
635.730;34045.766;  -10.511;35352.523
636.309;30741.340;   -7.731;35366.605
636.888;28242.088;   -9.952;36165.637
637.467;28700.389;  -11.672;37515.902
638.046;30197.859;   -8.901;39288.695
638.625;33137.801;   -7.912;38279.699
639.204;33125.410;  -10.022;37741.598
639.782;32061.029;  -12.252;38364.551
640.361;28130.105;  -10.041;36740.621
640.940;25395.107;  -11.161;34950.082
641.519;26076.121;   -9.701;34137.398
642.097;29055.824;  -11.271;35654.258
642.676;31919.313;   -8.651;35637.957
643.255;33017.695;   -8.711;36567.074
643.833;32185.635;   -9.581;37809.434
644.412;32195.738;  -13.711;37337.293
644.990;31172.676;  -11.811;37018.531
645.569;31084.227;   -9.411;36518.469
646.147;30648.564;  -10.291;36186.430
646.726;30563.959;  -12.401;36267.688
647.304;31522.984;  -10.411;36647.625
647.882;32931.844;   -9.651;39286.742
648.461;34603.203;   -9.631;39157.703
649.039;33022.918;  -11.881;35412.883
649.617;31968.795;   -9.661;34744.918
650.195;31270.248;   -9.301;35403.098
650.773;29901.926;  -10.511;35053.797
651.352;27651.857;  -11.521;33756.816
651.930;25339.586;  -12.211;31868.773
652.508;23615.697;   -9.171;33121.551
653.086;27520.213;   -9.371;33564.793
653.663;30564.314;  -13.161;34054.668
654.241;29276.340;  -13.031;35693.309
654.819;30790.209;   -9.371;36422.906
655.397;30609.703;  -10.511;38213.484
655.975;29995.861;  -10.371;39507.625
656.553;29698.289;  -10.051;39498.223
657.130;28383.713;  -10.061;40395.480
657.708;27684.512;   -9.561;39242.020
658.286;27738.688;  -11.511;38920.020
658.863;28873.598;  -10.261;40202.898
659.441;32222.811;   -7.531;39677.938
660.018;32243.535;   -9.501;40413.355
660.596;30831.412;  -13.301;39931.414
661.173;32460.984;  -11.211;39604.531
661.750;33001.289;   -9.951;39700.070
662.328;32105.814;   -9.390;39292.809
662.905;31096.971;  -11.330;38235.648
663.482;26561.143;   -9.050;36212.305
664.060;24539.486;   -8.240;35944.945
664.637;27523.080;  -10.050;35170.785
665.214;29004.355;  -11.760;34197.523
665.791;30637.600;  -10.530;34549.520
666.368;29844.811;   -9.690;35118.578
666.945;30233.391;   -9.320;36019.418
667.522;31713.320;  -11.860;36048.438
668.099;31528.078;  -10.770;36243.914
668.676;30122.746;   -6.260;35958.875
669.253;28754.289;   -7.000;37384.730
669.830;29020.818;  -10.190;36779.629
670.407;29080.395;   -9.550;35231.289
670.984;29073.559;   -9.260;35544.270
671.560;29792.121;   -9.280;35466.867
672.137;29007.707;  -11.810;34280.863
672.714;30125.787;  -11.490;34632.863
673.290;31364.363;   -7.740;35135.422
673.867;31296.842;  -10.660;36114.480
674.443;31068.332;  -12.230;36152.859
675.020;28955.703;  -10.450;35327.238
675.596;29976.574;   -9.260;35795.176
676.173;30714.393;  -10.780;35430.355
676.749;30261.004;  -13.690;33549.516
677.326;29928.549;  -11.980;32210.012
677.902;29825.221;   -8.630;32068.871
678.478;29255.154;  -10.730;32583.891
679.054;28423.305;  -10.520;32088.928
679.631;28826.412;  -11.920;30978.848
680.207;30305.248;   -7.490;33160.887
680.783;31786.721;   -9.860;35570.363
681.359;30887.125;  -13.380;36125.184
681.935;30648.752;  -12.480;35240.922
682.511;30460.158;   -7.900;34429.961
683.087;30741.646;   -7.710;34463.680
683.663;30023.918;  -11.480;34648.898
684.239;28566.750;  -14.090;34546.457
684.815;27782.881;   -7.560;35586.375
685.390;27732.803;   -9.910;35821.895
685.966;28264.402;  -11.159;35085.871
686.542;30888.979;  -11.169;34198.230
687.118;33326.480;   -5.959;32847.707
687.693;33736.176;  -10.329;32794.027
688.269;33456.063;  -12.059;33072.367
688.844;31656.389;  -10.909;33141.664
689.420;29632.869;   -8.019;33965.742
689.995;27856.193;   -8.399;34655.523
690.571;26560.834;  -10.949;33576.742
691.146;26538.461;   -9.619;32657.219
691.722;26264.619;   -8.999;32526.979
692.297;26037.721;  -11.589;33014.617
692.872;27381.416;  -11.739;34012.254
693.448;27137.004;  -11.059;34237.434
694.023;26148.906;  -10.139;34142.672
694.598;28168.061;   -9.029;34132.031
695.173;28957.859;  -13.319;34205.250
695.748;27945.477;  -10.169;32882.488
696.323;27687.436;   -8.339;32864.906
696.898;27782.270;   -8.169;33170.004
697.473;27925.418;  -12.309;32432.984
698.048;27236.650;  -10.989;31649.303
698.623;26945.391;   -9.329;30778.141
699.198;28453.496;   -9.849;31140.119
699.773;29858.941;  -12.329;31764.299
700.348;28681.299;  -10.389;31780.816
700.922;28596.270;   -9.269;32046.375
701.497;29542.309;   -9.329;32603.574
702.072;29706.768;  -10.789;34799.871
702.646;28388.619;  -10.839;35793.172
703.221;26282.469;   -9.099;35201.590
703.795;28141.590;  -10.939;34764.527
704.370;28621.910;  -12.859;34307.367
704.944;28771.016;  -11.559;33509.887
705.519;29437.998;   -7.939;31388.584
706.093;30646.381;  -10.499;31340.104
706.668;31038.693;  -11.289;32630.281
707.242;30029.938;  -11.509;32728.779
707.816;28838.566;   -9.639;32947.238
708.390;27311.854;  -11.429;33277.855
708.965;27720.525;  -11.869;33834.336
709.539;27752.254;  -11.689;33709.273
710.113;27786.727;  -10.478;33044.313
710.687;27258.641;  -10.228;31953.992
711.261;25721.293;  -13.698;30505.949
711.835;25698.932;  -13.378;30262.369
712.409;26190.266;   -9.698;31254.447
712.983;28188.277;  -11.898;32754.986
713.557;29488.600;  -15.138;34018.824
714.131;29357.809;  -14.098;34579.625
714.704;28339.686;   -9.958;33890.262
715.278;25800.820;  -10.028;33531.102
715.852;24622.170;  -11.148;33601.660
716.425;25724.912;   -9.068;33515.117
716.999;26804.670;  -10.038;33185.555
717.573;27621.395;   -9.798;33905.996
718.146;28530.230;  -12.378;35199.293
718.720;28639.938;  -11.918;35060.551
719.293;28504.990;   -8.088;34973.230
719.867;31317.211;  -10.888;36394.449
720.440;31069.967;  -11.938;36663.008
721.013;29214.334;  -12.818;35102.426
721.587;27698.162;  -10.298;33985.266
722.160;26537.924;  -10.048;33524.965
722.733;25565.512;  -12.108;32987.043
723.306;25911.180;  -10.818;33066.301
723.880;27951.021;   -8.908;33399.500
724.453;30063.771;   -9.878;33468.297
725.026;29342.543;  -11.188;33816.637
725.599;26633.051;  -11.678;32797.996
726.172;26572.992;   -9.618;33187.434
726.745;27556.793;   -8.258;35136.613
727.318;28843.982;  -12.978;35751.730
727.891;29538.701;  -12.148;35890.430
728.463;29045.344;   -8.968;34822.090
729.036;27685.678;  -10.188;32895.086
729.609;28262.063;  -11.788;31823.225
730.182;25531.158;  -11.788;31445.283
730.754;23233.352;  -10.268;32373.223
731.327;23599.467;   -9.998;33676.820
731.900;24005.004;  -12.228;33417.000
732.472;24757.189;  -13.848;31978.498
733.045;26281.781;   -8.698;30368.777
733.617;26249.582;  -10.607;30574.215
734.190;26478.773;  -11.507;31280.975
734.762;24140.082;  -13.647;31674.412
735.334;22214.105;   -9.767;31247.291
735.907;22572.426;   -9.897;29876.211
736.479;22817.912;  -11.637;29808.488
737.051;22577.863;   -9.567;30233.547
737.623;23169.008;   -8.187;31469.086
738.195;23536.031;  -11.187;31784.225
738.768;25596.459;  -12.337;32120.523
739.340;26489.648;  -12.227;32094.342
739.912;25592.021;  -11.057;31312.680
740.484;24129.877;  -10.207;31946.238
741.056;22593.369;  -10.047;32984.059
741.628;23837.137;  -13.627;33897.715
742.199;26043.004;   -7.177;33213.016
742.771;24714.080;  -10.797;31369.113
743.343;22579.109;  -11.997;31865.473
743.915;21642.674;  -12.867;32388.631
744.487;21635.539;   -7.617;31079.568
745.058;21634.271;   -9.557;30570.107
745.630;22163.824;   -9.877;29970.127
746.201;23442.633;  -14.177;29186.766
746.773;24333.232;   -9.237;28805.723
747.344;24142.127;   -9.847;29591.223
747.916;22351.330;  -11.657;31412.201
748.487;22251.469;  -10.587;32194.898
749.059;23576.514;   -8.707;32533.719
749.630;24393.205;  -10.537;32158.518
750.201;23614.779;  -11.687;30855.395
750.773;21859.277;  -11.647;28622.555
751.344;21454.039;   -7.147;28405.732
751.915;22355.391;   -9.757;28461.551
752.486;22505.293;  -12.427;27842.850
753.057;20515.490;  -12.227;27845.008
753.628;19288.135;  -10.417;27728.107
754.199;20149.871;  -11.767;27381.086
754.770;21134.639;  -11.187;25882.203
755.341;21279.082;  -10.507;25886.184
755.912;21523.561;   -9.387;26050.861
756.483;21221.838;  -10.647;26798.779
757.054;19480.680;  -11.837;27048.238
757.625;17976.934;  -12.716;26294.838
758.195;17732.836;   -9.666;26142.076
758.766;17488.268;   -8.656;26392.234
759.337;18053.621;  -12.856;26334.594
759.907;19447.771;  -13.366;27579.652
760.478;20332.156;   -8.576;28352.770
761.048;19825.324;  -10.526;27325.088
761.619;18844.803;  -11.116;26460.428
762.189;18963.346;  -12.136;26029.826
762.760;20012.320;   -9.456;26430.145
763.330;21114.225;   -7.136;26670.902
763.900;20755.291;  -11.786;26603.021
764.471;18356.799;  -11.546;25542.740
765.041;16826.510;   -8.096;24358.459
765.611;16591.619;   -8.876;23991.297
766.181;16948.508;  -12.196;24470.236
766.751;18170.131;  -11.636;24845.975
767.321;17956.520;  -10.156;24533.633
767.891;15812.146;  -11.766;24916.492
768.461;15151.556;  -14.936;24776.771
769.031;15658.604;  -12.356;24757.988
769.601;17344.219;   -7.526;24181.088
770.171;17574.336;  -10.766;23670.387
770.741;16797.598;  -13.176;22960.045
771.311;16853.166;  -10.616;22917.523
771.880;17398.406;   -9.576;23562.941
772.450;17331.480;  -10.336;24216.500
773.020;17292.734;  -13.516;24140.398
773.589;16425.109;  -13.466;24414.857
774.159;15699.346;   -8.686;23858.717
774.729;15335.683;   -9.476;22942.135
775.298;15009.702;  -13.666;22324.033
775.867;14565.824;  -11.716;21140.313
776.437;14696.638;   -9.906;20838.092
777.006;14488.895;  -12.166;20599.510
777.576;14148.436;  -12.356;20508.809
778.145;14066.365;  -11.646;20732.947
778.714;14107.105;   -8.226;21062.465
779.283;13670.437;   -9.556;20949.664
779.853;13150.864;  -14.116;20508.623
780.422;13544.278;  -11.506;20649.082
780.991;13130.791;   -9.556;21527.520
781.560;11841.990;   -9.095;22632.658
782.129;11593.356;  -12.135;23048.277
782.698;11589.700;  -10.865;23438.555
783.267;11208.912;   -9.335;23267.734
783.836;11151.042;  -11.045;22415.133
784.404;12134.331;  -13.865;20443.152
784.973;12819.165;  -13.095;19699.150
785.542;12876.481;  -11.575;19763.828
786.111;12701.756;   -9.705;20341.408
786.679;12240.269;  -12.105;20207.967
787.248;11995.966;  -12.455;19516.465
787.817;11798.286;  -11.535;18900.363
788.385;11407.497;   -9.765;17879.121
788.954;10828.937;  -14.005;17658.301
789.522;10236.803;  -11.955;17788.879
790.090;10640.294;  -10.135;18118.277
790.659;11221.201;  -10.975;18338.736
791.227;10812.617;  -13.375;18508.615
791.795;11169.172;  -12.375;17898.254
792.364;11478.795;  -10.725;17295.133
792.932;11805.777;   -9.715;16822.051
793.500;12117.633;  -12.675;17040.148
794.068;12396.308;  -13.495;17179.787
794.636;12571.072;  -10.885;16664.246
795.204;11850.774;  -11.045;16524.545
795.772;11808.167;  -13.175;17274.564
796.340;11369.866;  -12.445;17891.002
796.908;11130.367;   -9.735;17648.561
797.476;11009.503;   -9.815;17064.080
798.044;10583.150;  -13.985;16672.777
798.612; 9871.908;  -13.115;17023.996
799.180; 9472.552;  -10.185;16561.615
799.747; 9306.418;   -9.055;15962.773
800.315; 9023.316;  -12.385;15296.992
800.883; 8824.384;  -15.035;14801.771
801.450; 9009.438;  -10.365;14534.430
802.018; 9123.423;   -9.855;14173.248
802.585; 9112.199;  -11.905;14029.547
803.153; 9089.161;  -11.585;13836.846
803.720; 8932.554;   -9.095;13567.324
804.287; 8445.260;   -9.135;13360.622
804.855; 7960.267;  -11.604;13681.981
805.422; 7855.418;  -11.794;13536.560
805.989; 7950.011;  -10.734;13355.958
806.556; 8193.771;  -10.444;13747.896
807.124; 8478.117;  -12.764;13987.376
807.691; 8433.475;  -12.964;14038.674
808.258; 8217.326;  -11.134;14120.152
808.825; 7818.048;   -9.854;13860.111
809.392; 7919.209;  -10.504;13268.790
809.959; 7534.750;  -13.054;12680.389
810.526; 7062.924;   -8.294;12427.308
811.093; 7025.801;   -8.394;12030.105
811.659; 7600.833;  -12.304;11653.664
812.226; 8121.112;  -13.944;11637.183
812.793; 7845.120;  -10.484;11611.521
813.360; 7219.228;  -10.144;11885.181
813.926; 6907.571;  -11.684;12770.539
814.493; 6727.766;  -13.644;12677.638
815.060; 6368.524;   -9.724;11974.336
815.626; 6306.864;   -9.854;11594.715
816.193; 6671.667;  -13.254;11579.474
816.759; 6712.512;  -13.204;11666.972
817.325; 6738.327;   -9.434;11325.530
817.892; 7069.213;  -10.134;11105.369
818.458; 7494.231;  -13.474;10843.928
819.024; 7150.452;  -11.854;10714.406
819.591; 6875.768;  -10.244;10469.165
820.157; 6703.419;  -10.704;10235.523
820.723; 6217.178;  -12.324;10847.563
821.289; 5919.485;   -9.444;11040.980
821.855; 5849.423;   -8.374;10357.100
822.421; 5800.238;  -10.234; 9978.918
822.987; 5740.592;  -13.294; 9754.177
823.553; 5360.173;  -10.884;10065.755
824.119; 5170.803;   -8.884;10036.294
824.685; 5328.200;   -6.784;10029.192
825.251; 5459.286;  -12.004;10199.230
825.816; 5411.697;  -11.474; 9820.189
826.382; 5138.173;   -9.174; 9297.248
826.948; 5271.935;   -9.214; 9381.347
827.513; 5661.550;  -10.774; 9450.726
828.079; 5528.433;  -11.924; 9472.444
828.645; 4949.372;  -10.543; 9292.643
829.210; 4772.195;  -10.533; 9065.341
829.776; 4737.380;  -10.753; 9132.620
830.341; 4627.774;  -10.173; 9092.878
830.906; 4781.938;  -10.743; 9078.557
831.472; 5119.972;  -11.113; 8534.535
832.037; 4947.880;  -10.603; 8677.874
832.602; 4443.467;  -13.323; 8628.692
833.167; 4183.274;  -10.823; 8879.031
833.733; 4125.660;  -10.113; 9189.790
834.298; 4246.909;  -13.583; 9052.608
834.863; 4370.134;  -12.703; 8895.087
835.428; 4398.570;  -10.523; 8824.266
835.993; 4266.837;   -6.963; 8845.385
836.558; 4094.015;  -10.763; 8888.563
837.123; 4154.744;   -9.903; 8966.582
837.688; 4401.086;   -9.913; 8617.860
838.253; 4646.244;  -10.283; 8590.699
838.817; 4831.221;  -12.963; 8443.797
839.382; 4772.070;  -14.243; 8799.356
839.947; 4470.475;  -10.733; 8810.595
840.511; 4173.504;   -9.383; 8796.394
841.076; 3795.344;  -12.563; 8347.231
841.641; 3824.536;  -12.953; 8224.330
842.205; 3916.275;   -7.043; 8223.349
842.770; 3946.893;   -8.163; 8622.107
843.334; 4091.644;  -12.503; 8410.386
843.898; 4059.887;  -11.693; 8337.465
844.463; 4058.025;  -10.203; 8506.283
845.027; 3863.831;   -9.533; 8280.962
845.591; 3684.939;  -13.443; 8231.141
846.156; 3684.947;  -13.143; 7969.179
846.720; 3609.176;   -9.433; 7768.278
847.284; 3507.014;  -11.033; 7630.957
847.848; 3367.333;  -10.403; 7472.395
848.412; 3269.799;  -11.553; 7437.394
848.976; 3307.281;   -8.393; 7674.592
849.540; 3230.247;   -8.713; 7836.011
850.104; 3267.894;  -12.463; 7913.669
850.668; 3608.451;  -12.973; 7694.508
851.232; 3768.503;  -10.793; 7756.887
851.796; 3643.597;  -10.662; 7926.545
852.359; 3335.415;  -13.082; 7827.844
852.923; 3164.659;  -12.192; 7641.163
853.487; 3032.681;  -11.912; 7342.501
854.050; 3021.141;  -10.892; 7042.820
854.614; 3154.477;  -13.992; 7151.338
855.177; 3257.025;  -11.732; 7105.077
855.741; 3287.113;   -8.962; 6989.675
856.304; 3196.687;   -9.442; 6596.634
856.868; 3175.072;  -14.192; 6356.272
857.431; 3285.670;  -12.702; 6468.571
857.995; 3407.145;   -9.942; 6373.210
858.558; 3434.602;   -9.112; 6324.448
859.121; 3177.087;  -12.932; 6408.327
859.684; 3001.783;  -13.442; 6347.886
860.247; 3089.475;  -10.632; 6321.264
860.810; 3123.961;  -11.272; 6301.903
861.374; 2895.725;   -9.832; 6607.881
861.937; 2635.657;  -11.762; 6408.200
862.500; 2628.314;   -9.722; 6572.639
863.062; 2776.184;  -10.512; 6387.297
863.625; 2910.376;  -11.232; 6190.836
864.188; 3069.164;  -14.112; 5807.254
864.751; 3156.772;  -11.302; 5682.413
865.314; 3085.536;  -10.112; 5547.492
865.876; 2867.355;  -12.182; 5500.150
866.439; 2828.464;  -10.722; 5415.909
867.002; 2786.920;   -9.252; 5501.567
867.564; 2600.112;   -9.572; 5413.946
868.127; 2393.717;  -13.142; 5160.325
868.689; 2273.096;  -12.902; 5133.183
869.252; 2165.501;   -9.732; 5252.382
869.814; 2064.154;   -9.432; 5297.141
870.377; 2064.501;  -11.552; 5390.919
870.939; 2127.782;   -9.052; 5599.898
871.501; 2205.893;  -10.982; 5248.336
872.063; 2223.537;  -12.292; 4854.235
872.626; 2159.671;  -14.912; 4817.074
873.188; 2149.474;  -13.112; 4987.732
873.750; 2127.583;  -13.442; 4868.651
874.312; 2044.363;   -9.402; 4779.330
874.874; 1966.310;  -11.062; 4866.348
875.436; 1885.533;  -13.931; 4718.887
875.998; 1879.600;   -9.561; 4660.005
876.560; 1905.287;  -11.321; 4462.964
877.122; 1850.490;  -12.221; 4145.042
877.683; 1750.099;  -12.191; 4056.481
878.245; 1675.830;  -12.101; 3950.740
878.807; 1707.990;   -8.971; 4058.958
879.369; 1730.908;  -12.071; 3954.677
879.930; 1649.750;  -14.621; 3941.495
880.492; 1586.375;  -10.311; 4067.014
881.053; 1555.284;  -10.901; 3859.633
881.615; 1454.557;  -14.411; 3776.071
882.176; 1360.184;  -13.761; 3734.750
882.738; 1312.966;   -9.181; 3678.489
883.299; 1290.659;  -11.791; 3405.407
883.860; 1277.020;  -13.121; 3351.106
884.422; 1262.315;  -11.211; 3394.044
884.983; 1222.243;  -10.091; 3166.443
885.544; 1156.938;   -8.461; 3189.802
886.105; 1086.943;  -12.361; 3160.360
886.666; 1024.605;  -14.141; 3093.059
887.227;  967.416;  -11.361; 2941.957
887.788;  905.615;  -11.401; 2974.836
888.349;  836.284;  -13.791; 2721.214
888.910;  830.253;  -13.191; 2696.493
889.471;  831.437;   -9.881; 2560.172
890.032;  813.548;   -9.881; 2558.190
890.593;  785.292;  -10.371; 2567.669
891.153;  761.226;  -13.301; 2460.307
891.714;  718.394;  -11.431; 2372.046
892.275;  685.951;  -11.291; 2309.505
892.835;  652.709;  -11.471; 2382.543
893.396;  603.070;  -11.541; 2295.502
893.956;  547.389;  -11.181; 2162.420
894.517;  507.446;  -11.741; 2125.439
895.077;  499.114;  -11.671; 2086.978
895.638;  499.918;  -11.311; 2126.316
896.198;  475.271;   -9.831; 1838.275
896.758;  433.995;   -8.421; 1892.813
897.319;  403.830;  -12.351; 1792.232
897.879;  388.715;  -13.511; 1762.751
898.439;  365.361;  -12.001; 1661.149
898.999;  339.992;  -10.180; 1781.468
899.559;  330.747;  -12.030; 1703.347
900.119;  326.571;  -15.710; 1537.525
900.679;  322.833;   -8.900; 1638.384
901.239;  308.259;   -8.340; 1527.902
901.799;  298.710;  -13.910; 1456.441
902.359;  292.385;  -13.460; 1357.140
902.919;  286.185;  -11.490; 1331.118
903.479;  273.787;  -12.110; 1317.257
904.038;  254.225;  -11.720; 1262.595
904.598;  239.316;  -13.610; 1152.034
905.158;  235.481;  -11.040; 1240.893
905.717;  230.398;  -10.900; 1233.691
906.277;  219.033;  -15.080; 1217.330
906.836;  210.023;  -13.380; 1222.408
907.396;  202.402;  -10.780; 1193.047
907.955;  195.976;   -8.500; 1182.526
908.515;  189.694;  -12.760; 1099.364
909.074;  183.391;  -11.900; 1092.863
909.633;  177.676;   -8.950; 1069.121
910.192;  174.173;   -8.770; 1196.460
910.752;  168.027;  -12.390; 1029.960
911.311;  164.410;  -13.680; 1009.780
911.870;  162.138;  -12.370;  971.460
912.429;  163.062;  -10.900; 1094.080
912.988;  161.769;  -11.690; 1081.060
913.547;  157.011;  -13.240;  940.380
914.106;  153.712;  -11.990;  999.420
914.665;  150.073;   -9.990;  984.020
915.224;  149.484;  -12.880; 1035.760
915.782;  149.039;  -12.350;  922.560
916.341;  148.864;   -9.110; 1049.840
916.900;  144.138;   -9.270;  925.260
917.458;  142.543;  -13.240;  884.220
918.017;  141.610;  -13.550;  942.600
918.576;  142.015;  -12.320;  904.440
919.134;  140.018;  -11.490;  837.980
919.693;  138.728;  -13.670;  893.060
920.251;  136.215;  -15.470;  876.500
920.809;  135.918;  -11.290;  839.580
921.368;  135.580;  -10.210;  885.360
921.926;  134.703;  -12.140;  842.940
922.484;  134.011;  -13.080;  903.360
923.042;  132.561;  -11.720;  880.340
923.601;  135.544;   -7.480;  998.680
924.159;  133.884;  -11.570;  935.560
924.717;  130.692;  -13.840;  841.080
925.275;  129.858;  -10.640;  903.240
925.833;  129.478;  -11.540;  779.320
926.391;  130.499;  -12.960;  938.380
926.949;  128.193;  -14.130;  857.680
927.506;  129.996;  -11.750;  903.500
928.064;  130.446;  -10.250;  877.580
928.622;  129.220;  -13.030;  880.100
929.180;  128.441;  -13.400;  814.180
929.737;  129.387;  -10.700;  808.540
930.295;  133.921;  -10.070;  928.480
930.853;  134.240;  -11.960;  849.100
931.410;  134.064;  -13.120;  821.120
931.968;  134.587;  -10.770;  940.660
932.525;  135.211;  -10.680;  909.380
933.082;  134.513;  -13.130;  811.440
933.640;  136.313;  -13.210;  925.900
934.197;  133.673;  -11.060;  886.360
934.754;  134.986;   -9.580;  897.780
935.312;  137.926;  -14.000;  863.340
935.869;  141.918;  -10.710; 1012.980
936.426;  141.664;   -9.860;  872.800
936.983;  144.022;   -9.710;  889.020
937.540;  143.363;  -13.990;  838.280
938.097;  141.341;  -14.040;  940.120
938.654;  142.092;  -10.310;  898.860
939.211;  143.694;  -10.560;  952.480
939.768;  147.599;  -13.900;  915.420
940.324;  150.580;  -14.760;  904.200
940.881;  152.994;  -10.370;  878.500
941.438;  154.042;   -8.260; 1021.200
941.995;  149.798;  -12.540;  992.560
942.551;  146.274;  -14.670;  875.620
943.108;  146.344;  -10.450;  937.920
943.664;  148.224;  -10.750;  869.340
944.221;  152.687;  -11.550; 1088.140
944.777;  149.312;  -14.770;  869.680
945.334;  149.360;  -12.820;  884.840
945.890;  152.133;  -10.130;  946.480
946.446;  151.589;  -13.470;  947.020
947.003;  153.614;  -12.120;  964.940
947.559;  156.578;   -9.980; 1063.040
948.115;  156.258;   -9.080; 1026.540
948.671;  153.005;  -10.830;  967.300
949.227;  150.073;  -12.440;  859.560
949.783;  149.284;  -12.910;  858.900
950.339;  150.914;  -10.270;  991.000
950.895;  151.411;  -13.630; 1023.840
951.451;  150.298;  -15.100;  925.280
952.007;  149.391;  -11.330;  998.540
952.563;  149.797;  -10.580;  937.780
953.118;  148.171;  -13.440;  904.940
953.674;  146.666;  -12.710;  935.780
954.230;  147.357;  -10.350;  949.640
954.785;  145.269;   -9.190;  936.640
955.341;  142.355;  -11.200;  998.160
955.897;  141.085;  -16.560;  834.660
956.452;  143.032;  -12.570;  953.840
957.008;  142.619;   -7.970; 1083.640
957.563;  140.565;  -11.940; 1009.540
958.118;  135.431;  -13.450;  877.700
958.674;  136.164;  -12.030;  946.780
959.229;  137.085;   -9.410; 1013.980
959.784;  135.050;  -12.000;  832.400
960.339;  133.804;  -14.780; 1001.280
960.894;  130.880;   -9.860;  963.760
961.449;  127.142;   -9.970;  859.960
962.004;  126.947;  -10.900; 1212.840
962.559;  121.958;  -13.150;  860.140
963.114;  118.583;  -13.740;  742.480
963.669;  119.191;   -9.820;  915.500
964.224;  117.118;  -13.890;  874.340
964.779;  116.239;  -12.600;  828.420
965.334;  117.040;  -10.950; 1017.860
965.888;  116.294;  -11.170;  875.360
966.443;  119.445;  -12.540;  972.380
966.998;  118.285;  -15.780;  819.460
967.552;  117.616;   -9.760;  908.380
968.107;  114.287;   -9.060;  868.300
968.661;  114.922;  -11.950;  922.440
969.216;  115.159;  -12.800;  856.280
969.770;  116.029;  -11.210;  917.200
970.324;  115.606;  -11.610;  923.140
970.879;  112.302;  -11.370;  947.180
971.433;  108.783;  -12.540;  952.720
971.987;  103.790;  -11.320;  895.340
972.541;  100.901;  -10.720;  917.100
973.095;   99.924;   -9.680; 1009.460
973.649;   97.941;  -11.440;  809.480
974.203;   97.740;  -11.210;  829.040
974.757;   98.121;  -10.240;  855.220
975.311;   98.704;  -13.720;  872.600
975.865;   97.297;  -13.770;  881.820
976.419;   96.185;  -11.690;  857.400
976.973;   96.585;   -9.510;  849.620
977.526;   97.672;  -12.620;  949.920
978.080;   96.107;  -12.010;  796.780
978.634;   98.251;  -10.170;  921.320
979.187;   95.672;   -9.020;  905.400
979.741;   93.119;   -9.820; 1018.380
980.294;   88.361;  -14.870;  789.160
980.848;   86.454;  -12.380;  717.220
981.401;   89.276;  -10.350;  816.540
981.955;   90.601;  -13.720;  844.300
982.508;   89.113;  -11.490;  746.340
983.061;   89.510;  -10.000;  915.260
983.615;   86.571;  -11.480;  798.800
984.168;   83.459;  -13.220;  770.080
984.721;   82.548;  -13.960;  880.760
985.274;   81.654;  -10.870;  867.500
985.827;   81.420;   -9.790;  834.220
986.380;   78.480;  -13.120;  721.340
986.933;   77.652;  -12.450;  864.800
987.486;   76.056;  -10.210;  861.920
988.039;   75.548;   -8.430;  863.100
988.591;   73.683;  -10.520;  893.260
989.144;   71.068;  -14.860;  737.260
989.697;   70.016;  -13.080;  758.740
990.250;   70.787;  -10.150;  858.100
990.802;   69.157;  -13.430;  755.860
991.355;   70.073;  -12.750;  974.880
991.907;   68.312;  -12.040;  864.320
992.460;   66.551;  -11.330;  753.760
993.012;   64.991;  -13.610;  749.540
993.565;   63.538;  -13.460;  711.360
994.117;   65.741;   -9.360;  950.780
994.669;   62.772;  -11.300;  701.320
995.221;   60.267;  -13.540;  791.920
995.774;   58.829;  -13.430;  787.580
996.326;   58.171;  -12.520;  740.220
996.878;   57.349;  -10.950;  838.420
997.430;   55.350;  -14.300;  699.860
997.982;   54.256;  -13.760;  750.140
998.534;   54.485;  -11.530;  739.060
999.086;   52.925;  -10.310;  738.220
999.638;   51.543;  -12.530;  661.380
1000.190;   50.253;  -11.840;  699.320
1000.741;   50.358;  -10.260;  742.700
1001.293;   50.771;   -8.860;  686.020
1001.845;   48.701;  -13.700;  676.640
1002.396;   48.463;  -12.100;  743.400
1002.948;   48.934;  -12.760;  737.400
1003.500;   47.082;  -10.380;  723.780
1004.051;   48.009;  -11.900;  907.580
1004.603;   45.339;  -12.250;  791.820
1005.154;   41.911;  -13.210;  608.980
1005.705;   41.136;  -10.950;  723.960
1006.257;   40.897;  -13.880;  707.220
1006.808;   39.856;  -12.840;  685.460
1007.359;   39.212;  -10.570;  763.240
1007.910;   39.247;   -9.620;  646.640
1008.461;   38.774;  -13.630;  732.940
1009.013;   37.995;  -17.200;  588.340
1009.564;   38.940;  -10.200;  793.520
1010.115;   36.718;  -12.570;  597.040
1010.665;   36.357;  -15.150;  602.160
1011.216;   36.062;  -14.480;  667.920
1011.767;   35.546;  -11.340;  697.920
1012.318;   36.387;   -9.780;  736.980
1012.869;   35.448;  -12.380;  679.000
1013.419;   34.203;  -15.560;  603.120
1013.970;   35.599;  -11.010;  666.640
1014.521;   34.754;  -11.610;  620.620
1015.071;   34.182;  -13.450;  670.380
1015.622;   33.944;  -13.870;  635.460
1016.172;   33.437;  -11.610;  596.820
1016.723;   33.098;  -12.120;  614.380
1017.273;   32.604;  -13.620;  604.160
1017.823;   32.860;  -14.140;  650.340
1018.374;   31.913;  -12.800;  611.760
1018.924;   32.200;  -12.340;  716.880
1019.474;   32.825;  -11.410;  718.880
1020.024;   31.259;  -14.770;  657.580
1020.574;   32.103;   -9.780;  726.160
1021.124;   31.978;   -8.560;  673.580
1021.674;   30.388;  -15.190;  559.120
1022.224;   31.755;  -13.530;  708.940
1022.774;   31.351;  -13.280;  668.820
1023.324;   31.727;  -10.690;  753.520
1023.874;   32.731;  -10.240;  875.760
1024.423;   29.513;  -12.540;  613.700
1024.973;   29.389;  -10.010;  610.760
1025.523;   29.112;  -10.550;  620.960
1026.072;   29.117;  -13.560;  606.420
1026.622;   28.779;  -15.120;  675.740
1027.172;   29.374;  -11.260;  715.660
1027.721;   29.288;  -11.410;  601.220
1028.270;   28.834;  -13.530;  663.400
1028.820;   28.529;  -13.680;  638.080
1029.369;   28.285;  -13.520;  612.700
1029.918;   28.604;  -10.980;  649.840
1030.468;   27.376;  -13.530;  564.780
1031.017;   27.859;  -13.170;  634.800
1031.566;   27.064;  -12.200;  608.900
1032.115;   27.625;   -9.960;  694.500
1032.664;   26.068;  -13.210;  596.480
1033.213;   27.148;  -12.500;  735.420
1033.762;   26.802;  -11.910;  635.620
1034.311;   27.115;   -9.640;  677.220
1034.860;   26.814;  -13.310;  691.000
1035.408;   26.246;  -11.830;  722.720
1035.957;   26.741;  -12.000;  719.540
1036.506;   24.869;  -11.690;  530.800
1037.055;   27.563;  -10.990;  844.320
1037.603;   26.064;  -15.120;  664.000
1038.152;   23.845;  -12.450;  534.760
1038.700;   24.759;  -10.560;  585.740
1039.249;   25.289;  -11.080;  681.220
1039.797;   24.506;  -12.540;  633.360
1040.345;   24.806;  -11.920;  705.420
1040.894;   24.414;  -11.410;  625.300
1041.442;   24.006;  -14.320;  632.200
1041.990;   23.173;  -16.240;  559.160
1042.538;   23.018;  -11.680;  536.180
1043.087;   23.479;  -10.760;  570.860
1043.635;   24.807;  -11.850;  670.500
1044.183;   23.414;  -15.480;  586.400
1044.731;   22.710;  -11.770;  576.000
1045.279;   23.091;  -13.090;  674.920
1045.827;   24.432;  -12.440;  892.400
1046.374;   21.874;  -13.840;  515.420
1046.922;   21.351;  -13.220;  590.580
1047.470;   23.613;  -10.230;  691.300
1048.018;   22.327;  -14.590;  647.960
1048.565;   23.092;  -12.050;  708.600
1049.113;   21.458;  -11.650;  557.000
1049.660;   21.536;  -10.510;  629.660
1050.208;   21.921;  -13.310;  675.640
1050.755;   20.213;  -15.900;  606.580
1051.303;   21.596;  -11.430;  686.820
1051.850;   20.992;   -8.480;  635.120
1052.397;   18.872;  -15.010;  473.960
1052.945;   19.852;  -13.960;  617.760
1053.492;   21.367;  -13.150;  741.840
1054.039;   21.234;   -9.630;  720.180
1054.586;   20.889;  -13.680;  557.240
1055.133;   20.800;  -14.570;  693.140
1055.680;   20.505;  -13.820;  646.620
1056.227;   19.893;  -11.730;  542.780
1056.774;   21.024;  -12.480;  794.980
1057.321;   18.971;  -13.930;  523.260
1057.868;   19.533;  -11.690;  651.320
1058.415;   18.827;   -9.520;  651.980
1058.961;   20.299;  -13.160;  678.940
1059.508;   19.342;  -12.920;  643.820
1060.055;   18.396;  -11.920;  581.780
1060.601;   19.544;  -11.500;  624.300
1061.148;   19.250;  -14.330;  616.820
1061.694;   17.586;  -16.870;  592.580
1062.241;   18.062;  -10.330;  596.320
1062.787;   18.770;  -10.620;  663.140
1063.334;   19.927;  -10.110;  808.560
1063.880;   17.686;  -13.400;  668.360
1064.426;   18.602;  -10.680;  706.820
1064.972;   17.439;   -9.920;  601.340
1065.518;   16.586;  -10.980;  566.640
1066.065;   17.731;  -14.890;  624.460
1066.611;   16.746;  -12.870;  598.800
1067.157;   17.864;  -12.950;  641.860
1067.703;   17.302;  -13.540;  668.480
1068.249;   17.549;  -13.540;  605.220
1068.794;   16.643;  -12.600;  626.880
1069.340;   16.573;  -10.620;  578.960
1069.886;   17.093;  -12.830;  590.700
1070.432;   15.084;  -14.870;  541.720
1070.977;   15.445;  -11.980;  601.080
1071.523;   16.104;   -8.200;  573.060
1072.068;   17.176;  -12.330;  582.000
1072.614;   15.786;  -16.370;  527.760
1073.160;   16.969;  -11.100;  687.040
1073.705;   15.175;  -10.480;  572.520
1074.250;   15.169;  -14.520;  559.900
1074.796;   16.225;  -11.460;  655.160
1075.341;   15.792;  -11.950;  664.100
1075.886;   15.417;  -11.460;  594.240
1076.431;   15.253;  -13.770;  649.880
1076.976;   14.891;  -12.680;  639.220
1077.521;   14.135;  -13.170;  583.080
1078.067;   13.988;  -10.860;  579.400
1078.612;   14.870;  -13.920;  661.620
1079.156;   14.153;  -13.880;  601.540
1079.701;   15.272;  -13.120;  693.260
1080.246;   15.118;   -9.940;  696.300
1080.791;   14.432;  -14.740;  625.020
1081.336;   13.992;  -13.750;  659.320
1081.880;   14.375;  -13.400;  649.680
1082.425;   13.206;  -12.220;  573.480
1082.970;   14.943;  -11.610;  717.040
1083.514;   13.030;  -13.580;  597.000
1084.059;   12.303;  -12.810;  586.720
1084.603;   12.852;  -12.320;  565.840
1085.147;   13.928;  -13.190;  645.220
1085.692;   13.624;  -12.480;  716.800
1086.236;   12.286;  -13.020;  503.140
1086.780;   14.307;   -9.190;  751.440
1087.325;   13.262;  -12.480;  654.620
1087.869;   12.273;  -12.450;  610.700
1088.413;   13.407;  -12.240;  705.040
1088.957;   11.540;   -9.020;  543.400
1089.501;   13.811;  -10.320;  766.640
1090.045;   12.384;  -12.720;  726.480
1090.589;   11.168;  -13.690;  569.920
1091.133;   12.413;  -10.020;  673.340
1091.676;   12.199;  -12.330;  591.940
1092.220;   11.325;  -14.970;  600.920
1092.764;   12.920;  -12.430;  706.960
1093.307;   11.887;   -9.800;  673.780
1093.851;   10.816;  -14.970;  556.540
1094.395;   11.173;  -15.310;  683.140
1094.938;   10.984;  -10.370;  632.520
1095.482;   10.452;  -11.050;  559.800
1096.025;   11.664;  -11.840;  710.880
1096.568;   11.954;  -12.840;  779.280
1097.112;    9.113;  -14.700;  508.180
1097.655;   11.716;   -8.720;  603.000
1098.198;   10.115;  -13.610;  600.180
1098.741;    9.046;  -13.350;  612.860
1099.285;   11.033;  -11.230;  657.300
1099.828;    8.826;  -11.840;  439.400
1100.371;    9.697;  -10.840;  608.160
1100.914;    9.805;  -14.190;  682.660
1101.457;    9.653;  -11.240;  679.900
1101.999;    8.872;  -11.270;  584.680
1102.542;    9.549;  -11.480;  641.440
1103.085;    8.959;  -11.750;  658.500
1103.628;   10.338;  -11.400;  762.060
1104.170;    9.658;  -10.490;  588.280
1104.713;    9.202;  -10.600;  646.700
1105.256;    8.291;  -14.360;  557.440
1105.798;    7.806;  -13.210;  499.980
1106.341;    9.874;  -10.270;  728.900
1106.883;    8.208;  -12.200;  521.340
1107.425;    9.115;  -13.110;  668.180
1107.968;    8.148;  -12.840;  612.380
1108.510;    8.943;   -6.480;  684.960
1109.052;    7.464;  -13.940;  612.620
1109.594;    7.411;  -13.690;  554.440
1110.136;    8.858;  -11.880;  643.220
1110.679;    7.858;   -9.500;  633.080
1111.221;    8.862;  -14.160;  604.460
1111.763;    8.082;  -13.980;  559.220
1112.304;    7.204;  -13.880;  547.140
1112.846;    7.177;  -12.210;  666.240
1113.388;   10.876;  -11.390;  942.180
1113.930;    7.070;  -14.540;  694.200
1114.472;    6.909;  -12.640;  606.540
1115.013;    5.835;  -11.620;  551.280
1115.555;    6.509;  -13.640;  587.100
1116.097;    5.462;  -15.380;  579.480
1116.638;    6.924;  -12.640;  684.600
1117.180;    6.916;   -9.850;  667.740
1117.721;    6.947;  -13.690;  568.580
1118.262;    7.127;  -12.680;  677.960
1118.804;    7.454;  -12.530;  637.340
1119.345;    6.912;  -11.690;  578.400
1119.886;    7.221;  -13.380;  704.040
1120.427;    5.396;  -14.070;  589.020
1120.969;    5.430;  -13.500;  597.920
1121.510;    5.206;  -11.480;  563.060
1122.051;    6.440;  -12.830;  723.580
1122.592;    5.295;  -14.290;  655.420
1123.133;    4.116;  -12.400;  547.940
1123.673;    5.769;  -10.130;  706.480
1124.214;    5.515;  -12.930;  612.460
1124.755;    5.708;  -14.380;  639.460
1125.296;    5.235;  -14.000;  627.320
1125.836;    6.245;  -10.070;  691.500
1126.377;    4.975;  -12.640;  599.660
1126.918;    5.406;  -12.960;  614.980
1127.458;    4.754;  -13.350;  622.220
1127.999;    5.630;  -10.750;  656.980
1128.539;    5.236;  -12.350;  694.240
1129.079;    4.634;  -14.860;  632.720
1129.620;    3.758;  -13.840;  558.100
1130.160;    4.264;  -12.330;  539.480
1130.700;    4.897;  -14.530;  640.840
1131.240;    5.010;  -12.530;  643.700
1131.781;    3.971;  -14.450;  619.680
1132.321;    4.649;   -9.790;  599.120
1132.861;    3.231;  -14.860;  564.200
1133.401;    2.806;  -14.290;  593.940
1133.941;    4.425;  -11.750;  626.280
1134.481;    3.174;   -9.920;  597.580
1135.020;    3.769;  -12.290;  609.160
1135.560;    3.604;  -11.650;  674.940
1136.100;    2.719;  -16.270;  501.160
1136.640;    3.167;  -10.890;  510.480
1137.179;    3.121;  -14.180;  537.960
1137.719;    3.017;  -16.250;  605.400
1138.258;    2.784;  -14.230;  587.360
1138.798;    4.378;   -9.090;  663.780
1139.337;    1.936;  -15.130;  482.840
1139.877;    3.488;  -13.680;  642.360
1140.416;    5.113;  -11.320;  878.060
1140.955;    1.855;  -10.860;  535.380
1141.494;    2.875;  -12.920;  669.280
1142.034;    2.567;  -13.930;  583.520
1142.573;    3.368;  -11.440;  646.280
1143.112;    2.267;  -12.000;  553.480
1143.651;    2.290;  -13.670;  536.480
1144.190;    3.093;  -12.730;  691.640
1144.729;    1.898;  -14.560;  607.420
1145.267;    2.396;  -11.830;  584.900
1145.806;    3.513;  -12.230;  637.040
1146.345;    1.758;  -14.130;  635.020
1146.884;    1.294;  -11.590;  622.500
1147.422;    1.540;  -12.550;  533.060
1147.961;    3.394;  -11.180;  708.460
1148.500;    2.469;  -11.510;  669.720
1149.038;    2.168;  -11.640;  632.500
1149.577;    2.057;  -10.130;  698.640
1150.115;    0.182;  -13.970;  452.280
1150.653;    1.350;  -14.520;  607.340
1151.192;    1.256;  -12.810;  552.920
1151.730;    1.981;   -9.100;  652.560
1152.268;    1.402;  -12.220;  589.520
1152.806;    0.952;  -14.140;  571.180
1153.344;   -0.170;  -12.350;  577.640
1153.882;    0.973;   -8.980;  600.060
1154.421;   -0.006;  -15.190;  470.620
1154.958;   -0.321;  -15.210;  595.240
1155.496;    1.344;  -12.850;  645.280
1156.034;    1.680;   -9.940;  721.880
1156.572;    2.248;  -13.570;  667.060
1157.110;   -0.307;  -14.590;  473.940
1157.647;    1.351;  -13.030;  676.960
1158.185;    0.143;  -12.140;  564.320
1158.723;   -0.961;  -14.390;  509.200
1159.260;    0.640;  -14.090;  701.700
1159.798;    0.913;  -11.920;  658.160
1160.335;    0.212;  -11.110;  631.820

