
Integration time [ms]:   3.276
Averaging Nr. [scans]: 1000
Smoothing Nr. [pixels]: 0
Data measured with spectrometer [name]: 7414430SP
Wave   ;Sample   ;Dark     ;Reference
[nm]   ;[counts] ;[counts] ;[counts] 

288.544;  149.853;    7.793;  793.890
289.143;  154.023;    7.462;  681.602
289.742;  154.882;    8.602;  828.814
290.341;  140.789;    1.321;  789.841
290.940;  129.145;   -0.709;  730.702
291.538;  130.479;    0.881;  881.108
292.137;  130.833;    0.122;  792.581
292.736;  135.241;   -1.929;  975.101
293.335;  131.305;   -8.229;  735.086
293.934;  130.228;   -5.279;  781.677
294.532;  130.171;   -1.369; 1031.958
295.131;  116.189;   -7.641;  834.394
295.730;  116.254;   -8.420;  809.588
296.328;  115.361;   -5.611;  783.442
296.927;  116.025;   -5.781;  779.652
297.525;  117.102;   -6.361;  781.236
298.124;  106.900;  -11.382;  654.009
298.722;  110.528;   -7.641;  761.933
299.321;  108.616;   -6.811;  708.597
299.919;  107.344;   -6.991;  751.918
300.518;  104.342;  -10.362;  689.338
301.116;  105.522;   -9.581;  691.381
301.715;  105.454;   -4.891;  730.222
302.313;  104.446;   -8.801;  704.943
302.911;   99.983;   -8.522;  733.830
303.509;  103.924;   -6.171;  925.627
304.108;  102.757;   -7.311;  760.383
304.706;  102.090;   -8.321;  801.664
305.304;   96.151;  -10.222;  796.707
305.902;  101.770;   -6.021;  784.484
306.500;   97.528;   -4.971;  728.200
307.098;   96.429;   -7.061;  746.560
307.696;   94.390;   -8.801;  780.432
308.294;   94.401;   -6.411;  731.359
308.892;   96.384;   -2.901;  759.769
309.490;   93.330;   -5.041;  712.161
310.088;   91.576;   -5.002;  788.444
310.686;   95.112;   -2.041;  821.749
311.284;   91.245;   -2.351;  766.040
311.882;   89.518;   -4.422;  731.225
312.480;   85.957;   -4.192;  697.167
313.078;   87.346;   -1.172;  808.331
313.675;   88.778;   -2.601;  691.600
314.273;   83.294;   -1.312;  797.837
314.871;   82.566;   -3.942;  589.829
315.468;   80.478;   -2.802;  652.090
316.066;   83.390;   -0.701;  694.427
316.664;   76.519;   -4.362;  656.351
317.261;   79.746;   -2.872;  910.128
317.859;   75.829;   -2.022;  768.735
318.456;   76.875;   -0.531;  830.096
319.054;   72.503;   -3.912;  787.828
319.651;   71.513;   -4.752;  759.928
320.249;   69.851;   -2.602;  810.188
320.846;   68.436;   -0.821;  714.286
321.443;   65.738;   -4.642;  832.135
322.041;   62.406;   -5.002;  812.315
322.638;   59.683;   -3.982;  701.456
323.235;   62.040;   -3.411;  665.683
323.833;   59.038;   -7.361;  740.354
324.430;   53.918;   -8.611;  615.900
325.027;   55.041;   -4.061;  876.855
325.624;   55.558;   -4.031;  644.532
326.221;   51.968;   -7.481;  689.717
326.818;   51.533;   -5.281;  818.332
327.415;   54.741;   -7.460;  748.828
328.012;   54.556;   -5.510;  690.585
328.609;   53.166;   -7.880;  731.389
329.206;   51.009;   -8.331;  778.621
329.803;   50.947;   -5.121;  737.841
330.400;   54.004;   -4.510;  704.260
330.997;   55.622;   -6.441;  817.147
331.594;   53.690;   -8.831;  788.185
332.191;   58.479;   -7.621;  728.722
332.787;   62.091;   -4.591;  844.463
333.384;   60.886;   -7.412;  763.093
333.981;   58.511;   -8.293;  815.687
334.578;   62.687;   -7.052;  708.378
335.174;   65.381;   -3.102;  731.469
335.771;   64.112;   -5.943;  836.456
336.367;   60.825;   -7.393;  710.631
336.964;   65.700;   -4.063;  793.266
337.561;   63.037;   -3.813;  731.112
338.157;   58.752;   -4.654;  911.916
338.754;   56.330;   -7.934;  796.589
339.350;   54.189;   -4.414;  722.493
339.946;   56.058;   -4.664;  773.135
340.543;   48.374;   -6.375;  846.136
341.139;   43.017;   -9.815;  720.836
341.735;   41.044;   -4.526;  772.593
342.332;   39.631;   -4.895;  691.472
342.928;   39.982;   -4.295;  795.394
343.524;   34.123;   -5.476;  761.684
344.120;   31.078;   -5.856;  738.562
344.716;   34.439;   -2.155;  723.717
345.313;   32.102;   -6.275;  795.342
345.909;   25.613;   -8.815;  627.336
346.505;   27.532;   -5.305;  740.247
347.101;   29.037;   -2.674;  827.864
347.697;   29.483;   -4.344;  785.398
348.293;   23.043;   -9.975;  627.244
348.889;   24.883;   -5.774;  745.914
349.485;   24.195;   -5.004;  688.205
350.081;   25.112;   -4.704;  772.592
350.676;   19.525;   -6.635;  691.606
351.272;   23.669;   -4.504;  809.530
351.868;   23.577;   -3.914;  780.497
352.464;   21.023;   -9.044;  723.932
353.059;   17.533;   -8.314;  646.017
353.655;   20.768;   -7.024;  777.063
354.251;   21.908;   -5.343;  759.845
354.846;   16.474;   -8.604;  740.646
355.442;   13.567;   -6.945;  753.071
356.038;   16.389;   -7.564;  751.708
356.633;   16.408;   -5.814;  728.594
357.229;   14.109;   -7.364;  724.757
357.824;   12.327;   -8.024;  703.600
358.420;   11.545;   -9.384;  679.726
359.015;   12.502;   -5.104;  695.357
359.610;   13.610;   -6.854;  763.920
360.206;    7.011;  -10.185;  603.240
360.801;    9.328;   -7.054;  646.503
361.396;   12.367;   -5.034;  725.975
361.992;    7.913;   -8.284;  668.220
362.587;    5.022;   -8.625;  670.160
363.182;    6.725;   -7.674;  689.631
363.777;    8.342;   -5.164;  738.242
364.372;    7.849;   -8.604;  737.314
364.967;    3.393;   -9.055;  680.744
365.563;    7.734;   -6.114;  815.567
366.158;    5.423;   -5.814;  685.161
366.753;    5.782;   -7.854;  649.263
367.348;    3.882;   -7.804;  746.056
367.942;    4.030;   -7.954;  697.298
368.537;    3.152;   -4.984;  754.245
369.132;    3.985;   -8.564;  703.428
369.727;   -0.592;   -8.855;  638.079
370.322;    0.244;   -6.245;  580.186
370.917;    0.280;   -6.425;  710.646
371.511;    3.376;   -6.294;  861.834
372.106;   -0.899;   -7.685;  776.964
372.701;   -4.221;   -7.335;  585.988
373.296;    2.685;   -4.564;  863.135
373.890;   -1.992;  -10.235;  647.840
374.485;   -5.697;   -7.885;  691.199
375.079;   -0.799;   -7.324;  738.685
375.674;    0.979;   -3.494;  812.970
376.268;   -3.854;   -8.525;  691.759
376.863;  -10.164;  -10.086;  580.327
377.457;   -3.853;   -7.025;  662.490
378.052;   -4.874;   -3.585;  764.884
378.646;   -5.939;   -7.595;  741.167
379.240;   -6.237;   -8.335;  721.176
379.835;   -6.095;   -5.785;  636.978
380.429;   -6.706;   -4.335;  562.557
381.023;   -7.318;   -6.805;  779.205
381.617;   -9.573;   -9.195;  680.106
382.212;   -6.408;   -6.905;  685.303
382.806;   -5.344;   -3.745;  760.690
383.400;   -9.705;   -7.745;  672.281
383.994;  -10.361;   -9.765;  664.870
384.588;   -6.866;   -6.564;  697.701
385.182;   -5.187;   -5.344;  726.624
385.776;   -6.131;   -8.514;  706.875
386.370;  -10.852;   -9.555;  681.968
386.964;   -9.316;   -8.715;  684.155
387.558;   -7.110;   -6.174;  598.360
388.152;  -10.439;   -8.725;  681.959
388.745;   -9.176;   -7.965;  814.707
389.339;   -7.674;   -5.924;  747.642
389.933;   -5.597;   -5.524;  695.370
390.527;   -7.199;   -7.114;  859.029
391.120;  -13.673;  -10.725;  595.318
391.714;  -10.756;   -8.035;  711.633
392.308;   -6.829;   -3.574;  780.253
392.901;  -10.709;   -7.245;  642.460
393.495;  -13.369;   -9.285;  595.414
394.089;  -11.529;   -5.895;  760.452
394.682;  -11.028;   -4.295;  697.188
395.275;  -11.595;   -9.875;  719.927
395.869;  -13.154;   -8.485;  667.314
396.462;  -11.988;   -7.455;  616.609
397.056;   -7.812;   -5.424;  776.621
397.649;  -12.132;   -6.605;  731.575
398.242;   -9.652;   -8.224;  712.645
398.836;   -8.728;   -7.474;  766.408
399.429;   -9.732;   -7.094;  631.041
400.022;  -13.116;   -9.475;  665.902
400.615;  -11.058;   -7.145;  805.609
401.208;   -9.095;   -7.174;  691.451
401.802;  -11.227;   -5.515;  699.329
402.395;  -12.328;   -9.875;  683.502
402.988;  -13.617;   -8.845;  696.627
403.581;  -10.243;   -8.874;  646.878
404.174;   -7.976;   -5.324;  686.568
404.767;  -10.391;   -9.575;  638.583
405.360;  -13.117;  -10.965;  621.445
405.953;   -7.623;   -8.764;  759.034
406.545;   -7.344;   -7.514;  725.342
407.138;  -11.569;  -10.025;  618.350
407.731;  -11.170;  -10.034;  613.303
408.324;   -5.536;   -9.374;  660.554
408.917;   -7.019;   -6.534;  681.864
409.509;   -8.328;   -8.004;  740.396
410.102;  -10.887;   -9.875;  643.948
410.695;   -5.323;   -8.604;  665.758
411.287;   -6.303;   -6.794;  599.821
411.880;   -7.130;   -9.334;  585.421
412.472;  -10.663;  -10.254;  613.092
413.065;   -7.616;   -6.714;  629.408
413.657;   -4.978;   -7.234;  576.678
414.250;   -4.636;  -10.544;  646.681
414.842;   -7.704;   -9.744;  676.353
415.434;   -5.235;   -6.994;  570.463
416.027;    0.226;   -5.893;  652.196
416.619;   -1.958;   -7.264;  713.400
417.211;   -3.529;  -10.374;  599.352
417.804;    0.145;   -7.993;  628.499
418.396;   -2.813;   -7.234;  607.643
418.988;   -0.473;   -9.443;  659.238
419.580;   -4.684;  -10.724;  568.276
420.172;   -2.447;  -10.323;  536.196
420.764;    2.428;   -8.793;  672.482
421.356;    1.511;  -11.143;  636.898
421.948;    0.158;   -8.293;  677.661
422.540;    4.513;   -7.893;  680.027
423.132;    4.801;   -7.082;  600.641
423.724;    0.904;   -8.653;  561.267
424.316;    3.364;  -10.213;  621.345
424.908;    5.811;   -9.762;  591.517
425.500;    7.841;   -5.572;  647.978
426.092;    8.129;   -8.422;  648.268
426.683;    6.528;   -9.283;  684.836
427.275;    9.014;   -7.852;  641.471
427.867;   11.366;   -5.272;  668.948
428.458;   12.072;   -7.682;  732.344
429.050;    9.818;  -10.612;  680.749
429.642;   11.432;   -9.882;  743.124
430.233;   13.030;   -6.962;  569.356
430.825;   14.540;   -6.842;  724.809
431.416;   12.224;   -9.672;  698.241
432.008;   14.818;   -6.552;  651.723
432.599;   15.683;   -6.891;  656.073
433.190;   13.407;  -10.912;  637.670
433.782;   12.223;  -11.172;  590.395
434.373;   18.999;   -6.061;  884.765
434.964;   18.972;   -8.251;  602.920
435.556;   16.436;   -9.722;  634.537
436.147;   18.713;   -9.082;  758.490
436.738;   19.409;   -8.041;  701.099
437.329;   24.584;   -7.341;  721.723
437.920;   17.406;   -8.162;  666.688
438.511;   17.016;  -11.802;  564.526
439.103;   23.954;  -10.191;  623.998
439.694;   25.335;   -7.601;  681.583
440.285;   26.365;   -8.541;  764.432
440.876;   24.185;   -9.751;  845.738
441.466;   23.813;   -9.401;  575.162
442.057;   29.644;   -7.760;  665.814
442.648;   28.501;   -9.971;  746.255
443.239;   26.533;  -11.001;  620.477
443.830;   31.968;   -7.990;  704.958
444.421;   33.495;   -7.910;  655.474
445.011;   30.102;   -8.131;  693.619
445.602;   29.778;   -7.111;  743.126
446.193;   31.854;  -10.920;  488.117
446.783;   36.246;   -6.500;  640.397
447.374;   32.070;   -8.671;  692.759
447.964;   31.896;  -10.781;  713.770
448.555;   40.577;   -9.650;  822.742
449.145;   36.650;   -8.660;  662.853
449.736;   38.246;   -8.990;  803.179
450.326;   37.976;   -9.500;  713.626
450.917;   42.973;   -8.680;  675.324
451.507;   42.646;   -7.520;  600.661
452.097;   43.286;   -8.590;  746.267
452.688;   44.376;  -11.340;  742.160
453.278;   43.690;  -10.100;  566.840
453.868;   49.080;   -6.019;  793.550
454.458;   46.253;   -9.440;  651.141
455.048;   45.679;  -10.560;  711.783
455.639;   48.941;  -11.799;  567.096
456.229;   52.088;   -6.899;  710.694
456.819;   54.040;   -7.389;  751.158
457.409;   53.731;  -11.119;  773.993
457.999;   56.081;   -9.289;  737.505
458.589;   56.745;   -6.139;  686.606
459.179;   56.689;   -8.729;  717.658
459.769;   54.681;   -9.789;  627.099
460.358;   58.957;  -10.259;  797.262
460.948;   59.540;   -7.299;  689.503
461.538;   61.011;  -10.289;  660.677
462.128;   58.564;  -11.269;  664.934
462.717;   64.960;   -9.368;  710.326
463.307;   68.552;   -7.908;  705.846
463.897;   64.853;   -9.599;  656.942
464.486;   63.317;   -9.769;  837.128
465.076;   68.410;   -8.048;  733.776
465.666;   71.641;   -9.358;  652.900
466.255;   69.742;   -7.919;  785.651
466.845;   68.549;  -11.689;  666.749
467.434;   71.319;   -7.818;  725.873
468.023;   73.979;   -7.678;  658.357
468.613;   71.553;  -10.939;  713.946
469.202;   75.006;  -10.118;  646.507
469.791;   78.941;   -9.108;  737.811
470.381;   82.004;   -6.058;  742.813
470.970;   81.284;  -10.428;  711.099
471.559;   81.022;  -10.268;  733.291
472.148;   84.721;   -8.448;  675.737
472.738;   87.490;   -6.917;  765.466
473.327;   87.334;  -11.978;  637.529
473.916;   85.374;  -11.888;  737.446
474.505;   89.631;   -9.437;  751.703
475.094;   93.965;   -6.747;  806.570
475.683;   93.174;   -9.367;  797.699
476.272;   93.684;  -12.637;  730.632
476.861;   97.097;  -10.027;  706.754
477.449;  103.477;   -8.716;  728.487
478.038;   98.202;   -9.577;  692.513
478.627;   98.805;   -9.718;  714.852
479.216;  105.705;   -8.947;  769.441
479.805;  108.503;   -6.256;  783.375
480.393;  108.249;   -7.937; 1008.945
480.982;  108.148;   -7.717;  874.501
481.571;  113.662;   -9.266;  858.333
482.159;  114.448;   -7.636;  705.386
482.748;  114.744;   -9.667;  821.385
483.336;  118.907;  -10.376;  858.209
483.925;  120.515;   -7.147;  774.373
484.513;  127.021;   -7.996;  758.962
485.102;  124.003;  -10.027;  810.965
485.690;  132.166;  -10.446; 1011.050
486.278;  134.208;   -8.446;  979.329
486.867;  135.099;   -6.356;  809.662
487.455;  137.188;   -9.136;  898.229
488.043;  138.798;  -10.646;  748.361
488.631;  147.448;   -7.456; 1005.079
489.220;  151.512;   -6.636;  908.626
489.808;  152.980;  -11.036;  741.415
490.396;  160.115;  -10.246;  914.645
490.984;  166.142;   -8.556;  830.161
491.572;  177.073;   -5.886;  940.315
492.160;  184.002;   -9.486;  919.081
492.748;  196.258;  -10.976;  884.341
493.336;  220.268;   -8.776; 1019.693
493.924;  249.323;   -5.465;  958.077
494.512;  278.550;   -9.986; 1066.638
495.100;  319.746;  -10.636; 1103.280
495.687;  376.242;  -10.885; 1206.373
496.275;  447.037;   -8.126; 1150.796
496.863;  521.842;  -10.586; 1281.171
497.451;  630.393;  -11.926; 1386.805
498.038;  768.812;  -10.885; 1556.729
498.626;  881.730;   -6.315; 1741.407
499.214; 1037.935;   -7.326; 2016.609
499.801; 1248.124;  -11.906; 2220.633
500.389; 1509.858;  -10.466; 2312.494
500.976; 1842.759;   -5.236; 2744.849
501.564; 2305.031;   -8.936; 3148.565
502.151; 2706.618;  -13.176; 3515.999
502.738; 3189.837;  -10.646; 3971.274
503.326; 3594.318;   -9.525; 4403.796
503.913; 3999.737;  -10.856; 5161.749
504.500; 4386.620;  -11.586; 5986.420
505.088; 4824.826;  -10.336; 6381.201
505.675; 5388.873;   -6.355; 6925.547
506.262; 6153.331;   -9.046; 7619.060
506.849; 6888.122;  -10.416; 8733.969
507.436; 7388.214;  -10.305; 9790.121
508.023; 8023.210;   -5.496; 9985.472
508.610; 8307.155;   -7.856;10434.618
509.197; 8990.147;  -10.097;11198.435
509.784;10465.355;  -10.886;12391.194
510.371;11551.420;   -9.315;13603.713
510.958;12326.748;   -9.936;14426.586
511.545;13166.020;   -9.326;15243.775
512.132;14139.649;  -10.075;15945.876
512.719;14792.398;   -7.796;16340.369
513.305;15759.754;  -10.606;18011.766
513.892;16536.359;  -11.486;19754.971
514.479;17981.396;   -9.126;20967.805
515.066;19550.506;   -6.026;22299.793
515.652;20887.906;   -8.466;22908.660
516.239;22322.004;  -10.886;23798.875
516.825;23548.488;  -11.496;25567.275
517.412;24710.047;   -5.796;28154.959
517.998;25292.291;  -10.506;28344.111
518.585;25303.613;  -10.076;27134.219
519.171;25905.143;   -8.315;27268.576
519.758;27456.006;   -8.596;28964.129
520.344;29374.785;   -8.466;30664.494
520.930;29435.143;  -11.006;32550.605
521.516;31101.375;  -10.495;35422.895
522.103;33614.707;   -5.526;38280.004
522.689;34280.617;   -8.746;37835.117
523.275;33647.480;  -11.376;37288.613
523.861;34797.781;  -11.156;37281.395
524.447;36204.570;   -8.135;37846.949
525.033;36002.152;   -7.896;38321.949
525.619;36201.953;  -12.476;38579.285
526.205;38013.730;   -9.516;40622.875
526.791;40430.422;   -6.926;42258.836
527.377;40678.582;   -8.346;42966.902
527.963;42420.535;   -8.717;42018.949
528.549;40649.617;  -11.016;42476.828
529.135;39324.785;   -8.536;41854.852
529.721;38716.363;   -9.666;41237.711
530.306;38059.016;  -10.066;41259.445
530.892;37859.180;  -11.356;41506.047
531.478;39321.688;   -6.596;43559.613
532.063;42441.414;   -8.836;47695.563
532.649;42735.641;  -10.047;50808.324
533.235;43740.926;   -9.746;51787.500
533.820;44610.855;   -6.566;52145.035
534.406;46145.094;  -10.817;51133.488
534.991;45887.582;   -9.416;49996.805
535.576;44424.852;   -9.036;48882.852
536.162;44907.516;   -6.156;46942.285
536.747;45883.355;  -11.607;45711.746
537.333;49943.215;  -11.787;48510.180
537.918;52950.582;  -12.437;50439.891
538.503;51319.945;   -7.196;50863.711
539.088;47937.516;  -10.556;50906.922
539.673;47802.484;   -8.767;52621.965
540.259;47696.793;  -10.026;52368.094
540.844;44919.344;   -7.416;50879.109
541.429;46180.305;   -9.467;52077.777
542.014;49188.004;   -9.527;52716.695
542.599;48514.871;   -9.946;52363.281
543.184;46250.289;   -7.927;53187.137
543.769;47861.441;   -9.297;54697.605
544.354;47087.426;  -10.127;53913.914
544.938;45778.063;   -9.267;49680.164
545.523;47766.156;   -6.506;47386.277
546.108;50399.785;   -9.787;49151.949
546.693;52590.957;  -11.587;51384.637
547.278;52376.992;  -10.986;51853.254
547.862;49232.863;   -8.206;51173.750
548.447;44507.027;  -10.067;51691.395
549.031;44079.680;   -9.637;52456.703
549.616;49212.059;   -9.926;52714.516
550.201;48237.961;   -6.347;52414.598
550.785;49502.703;   -7.917;52355.059
551.370;48687.754;  -10.867;54589.453
551.954;48448.156;   -9.047;58267.348
552.538;49221.395;   -7.827;59062.176
553.123;47489.168;  -10.287;58115.285
553.707;45331.340;  -12.178;56556.285
554.291;46569.840;   -8.717;56201.668
554.876;48710.402;   -7.457;55335.762
555.460;49012.738;  -10.387;54155.703
556.044;50216.984;   -9.618;53721.484
556.628;48706.387;  -11.567;53731.016
557.212;47308.219;   -8.097;54312.531
557.796;45804.836;  -11.077;53797.773
558.380;45592.664;  -11.108;56145.984
558.964;45933.336;   -9.057;57277.930
559.548;47083.953;   -6.977;56459.641
560.132;45518.359;  -11.457;54434.543
560.716;44224.004;  -11.378;54800.617
561.300;45436.367;   -9.577;57606.945
561.884;46589.371;   -7.127;58972.445
562.467;45014.762;   -7.118;57327.570
563.051;44223.820;  -13.358;54962.434
563.635;45095.203;  -10.178;52594.473
564.219;45371.906;   -7.837;50610.410
564.802;46257.574;  -11.398;49551.180
565.386;46301.695;  -12.788;48370.953
565.969;45698.172;   -9.077;48178.871
566.553;45131.977;   -6.207;49957.305
567.136;45537.836;   -8.568;50369.594
567.720;41607.703;  -11.868;49492.004
568.303;39486.941;   -8.268;50616.352
568.887;39607.922;   -8.698;50727.148
569.470;39792.969;   -6.808;51698.379
570.053;38323.164;  -13.188;52122.078
570.637;36758.855;  -12.037;52536.438
571.220;36512.602;   -8.577;51186.098
571.803;37033.039;   -8.498;51032.762
572.386;39445.512;  -10.498;49609.887
572.969;41910.320;   -9.388;48285.926
573.552;39837.504;   -8.338;47624.285
574.135;38556.875;   -8.518;45498.641
574.718;36165.781;  -13.628;41970.434
575.301;34975.383;  -10.893;41447.137
575.884;33784.988;   -8.158;40923.836
576.467;35096.566;  -10.328;45267.723
577.050;37381.277;  -13.058;48175.543
577.633;38766.219;   -9.458;47729.328
578.216;37606.000;   -8.928;47579.793
578.799;36663.867;   -9.358;47820.996
579.381;35428.965;  -11.388;48115.551
579.964;33791.418;  -11.718;47333.766
580.547;35586.070;   -8.588;46668.969
581.129;36766.172;   -8.859;44466.141
581.712;37429.121;  -10.729;44164.922
582.294;38058.988;  -11.118;46477.855
582.877;37916.195;   -5.218;48244.254
583.459;35289.797;   -8.679;47437.895
584.042;33383.988;  -10.709;46943.219
584.624;34229.777;  -11.669;46792.227
585.206;33721.707;   -8.218;46557.250
585.789;33813.727;  -10.569;45793.773
586.371;36609.945;  -11.859;43836.391
586.953;37024.383;  -10.719;42972.492
587.536;38363.164;   -7.198;42487.211
588.118;38119.188;   -8.720;42086.414
588.700;34628.359;  -10.439;43389.930
589.282;33860.734;   -9.198;43646.039
589.864;34721.246;   -9.199;43438.109
590.446;35587.113;  -11.319;43151.926
591.028;35432.129;  -11.159;42781.867
591.610;34472.797;  -11.779;42839.098
592.192;32001.734;   -7.668;42820.402
592.774;30500.490;  -11.949;40724.277
593.356;29198.178;  -12.129;39874.789
593.937;28165.170;  -10.669;39980.648
594.519;30376.391;   -6.509;42069.633
595.101;32568.695;  -10.849;42976.031
595.683;32621.977;  -11.679;44084.441
596.264;33805.332;   -9.049;43478.797
596.846;33091.164;   -8.849;43803.672
597.427;32859.457;   -9.570;42986.934
598.009;34571.883;  -12.620;42832.219
598.591;34932.488;  -10.039;42580.086
599.172;33927.457;  -10.369;43061.805
599.753;34053.590;   -9.140;41691.469
600.335;35701.695;  -11.430;40692.520
600.916;34006.480;   -9.939;39982.422
601.498;31406.037;   -8.479;40318.617
602.079;29887.354;  -10.920;40670.609
602.660;29932.586;  -11.480;41450.898
603.241;31532.064;  -11.699;41137.738
603.823;30297.988;   -9.579;38868.797
604.404;30027.584;  -10.620;38182.785
604.985;31542.842;  -10.450;38078.047
605.566;31154.660;   -9.129;38056.633
606.147;31308.967;   -7.510;37020.418
606.728;32996.406;  -10.660;37883.359
607.309;31693.100;  -11.740;38748.273
607.890;31057.490;   -9.759;38850.230
608.471;30535.271;   -8.250;37457.918
609.051;29610.121;   -9.240;36066.457
609.632;28537.127;  -12.120;35991.074
610.213;29440.287;   -9.110;37402.641
610.794;30081.434;   -8.030;38383.363
611.374;29498.588;   -8.110;40562.387
611.955;29898.990;  -13.560;38533.727
612.536;31248.521;  -11.400;36951.789
613.116;31260.672;   -8.070;37197.891
613.697;31542.980;  -10.830;38411.125
614.277;30066.314;  -11.641;38673.938
614.858;30947.225;  -13.310;37075.863
615.438;29998.496;   -7.460;35092.906
616.019;27206.695;   -7.601;33666.301
616.599;27954.662;  -12.020;34189.023
617.179;29753.535;  -11.780;36952.047
617.760;30663.910;   -8.570;39582.574
618.340;31812.543;  -11.471;38943.977
618.920;33174.313;  -11.170;37594.156
619.500;32965.617;  -11.071;37866.938
620.080;32088.387;   -7.750;37869.043
620.660;33277.406;  -12.711;36868.617
621.241;34683.449;  -10.211;36352.309
621.821;34840.430;  -10.961;35459.520
622.401;33804.766;   -7.720;35207.414
622.980;33085.566;   -8.981;35980.422
623.560;31632.959;   -9.331;37351.328
624.140;30426.189;   -9.850;34388.582
624.720;25130.238;   -7.451;32368.764
625.300;21587.328;   -9.070;32638.629
625.880;25071.199;  -12.601;34599.035
626.459;29116.832;  -11.751;36831.738
627.039;32243.703;   -9.281;38299.098
627.619;32160.158;   -8.801;38289.574
628.198;30551.932;  -12.071;37220.695
628.778;29703.152;   -9.461;37632.563
629.357;30440.805;   -8.491;38003.012
629.937;30454.520;   -9.721;38402.039
630.516;29864.035;   -9.951;37868.801
631.096;29487.330;  -11.731;35760.410
631.675;32371.271;   -8.572;35225.219
632.254;37422.973;  -11.282;35130.289
632.834;36748.902;  -13.322;35794.570
633.413;34767.230;  -10.301;35788.922
633.992;31822.824;   -8.582;34532.863
634.571;32719.623;   -8.352;33590.113
635.151;35725.652;  -11.912;34943.863
635.730;34068.699;  -10.511;35352.523
636.309;30636.779;   -7.731;35366.605
636.888;28248.936;   -9.952;36165.637
637.467;29204.971;  -11.672;37515.902
638.046;30891.076;   -8.901;39288.695
638.625;34026.121;   -7.912;38279.699
639.204;33750.547;  -10.022;37741.598
639.782;32146.084;  -12.252;38364.551
640.361;28326.504;  -10.041;36740.621
640.940;25395.938;  -11.161;34950.082
641.519;26018.398;   -9.701;34137.398
642.097;29094.625;  -11.271;35654.258
642.676;32034.604;   -8.651;35637.957
643.255;32468.018;   -8.711;36567.074
643.833;31550.764;   -9.581;37809.434
644.412;31707.076;  -13.711;37337.293
644.990;30927.941;  -11.811;37018.531
645.569;31069.756;   -9.411;36518.469
646.147;29824.854;  -10.291;36186.430
646.726;29275.064;  -12.401;36267.688
647.304;30479.662;  -10.411;36647.625
647.882;32521.549;   -9.651;39286.742
648.461;34249.469;   -9.631;39157.703
649.039;32397.926;  -11.881;35412.883
649.617;31733.850;   -9.661;34744.918
650.195;31414.961;   -9.301;35403.098
650.773;29878.359;  -10.511;35053.797
651.352;27503.072;  -11.521;33756.816
651.930;25207.934;  -12.211;31868.773
652.508;23621.826;   -9.171;33121.551
653.086;27595.404;   -9.371;33564.793
653.663;30375.752;  -13.161;34054.668
654.241;29312.385;  -13.031;35693.309
654.819;31061.908;   -9.371;36422.906
655.397;31192.691;  -10.511;38213.484
655.975;30904.256;  -10.371;39507.625
656.553;30587.504;  -10.051;39498.223
657.130;28944.053;  -10.061;40395.480
657.708;28264.889;   -9.561;39242.020
658.286;28276.795;  -11.511;38920.020
658.863;29567.230;  -10.261;40202.898
659.441;32664.145;   -7.531;39677.938
660.018;32084.484;   -9.501;40413.355
660.596;30998.469;  -13.301;39931.414
661.173;33022.906;  -11.211;39604.531
661.750;33094.238;   -9.951;39700.070
662.328;31855.357;   -9.390;39292.809
662.905;30897.797;  -11.330;38235.648
663.482;26457.533;   -9.050;36212.305
664.060;24561.580;   -8.240;35944.945
664.637;27371.771;  -10.050;35170.785
665.214;29330.348;  -11.760;34197.523
665.791;30766.664;  -10.530;34549.520
666.368;29509.363;   -9.690;35118.578
666.945;30328.791;   -9.320;36019.418
667.522;31943.945;  -11.860;36048.438
668.099;31706.639;  -10.770;36243.914
668.676;30534.449;   -6.260;35958.875
669.253;29179.971;   -7.000;37384.730
669.830;29857.357;  -10.190;36779.629
670.407;29557.064;   -9.550;35231.289
670.984;29536.330;   -9.260;35544.270
671.560;30024.627;   -9.280;35466.867
672.137;29103.521;  -11.810;34280.863
672.714;29948.768;  -11.490;34632.863
673.290;30468.863;   -7.740;35135.422
673.867;30723.395;  -10.660;36114.480
674.443;30527.363;  -12.230;36152.859
675.020;28850.396;  -10.450;35327.238
675.596;29994.049;   -9.260;35795.176
676.173;30408.297;  -10.780;35430.355
676.749;30226.264;  -13.690;33549.516
677.326;30264.838;  -11.980;32210.012
677.902;30215.980;   -8.630;32068.871
678.478;29514.826;  -10.730;32583.891
679.054;29002.418;  -10.520;32088.928
679.631;29237.188;  -11.920;30978.848
680.207;30852.957;   -7.490;33160.887
680.783;32508.035;   -9.860;35570.363
681.359;31581.143;  -13.380;36125.184
681.935;30957.479;  -12.480;35240.922
682.511;29979.064;   -7.900;34429.961
683.087;29998.291;   -7.710;34463.680
683.663;29606.250;  -11.480;34648.898
684.239;28340.797;  -14.090;34546.457
684.815;28058.982;   -7.560;35586.375
685.390;28434.010;   -9.910;35821.895
685.966;28890.848;  -11.159;35085.871
686.542;31403.418;  -11.169;34198.230
687.118;33452.535;   -5.959;32847.707
687.693;33561.293;  -10.329;32794.027
688.269;33326.754;  -12.059;33072.367
688.844;31521.879;  -10.909;33141.664
689.420;29211.182;   -8.019;33965.742
689.995;26789.430;   -8.399;34655.523
690.571;25465.387;  -10.949;33576.742
691.146;25984.936;   -9.619;32657.219
691.722;25467.607;   -8.999;32526.979
692.297;25559.373;  -11.589;33014.617
692.872;27492.703;  -11.739;34012.254
693.448;26956.457;  -11.059;34237.434
694.023;26154.691;  -10.139;34142.672
694.598;28137.051;   -9.029;34132.031
695.173;28385.496;  -13.319;34205.250
695.748;27641.066;  -10.169;32882.488
696.323;27668.922;   -8.339;32864.906
696.898;27948.252;   -8.169;33170.004
697.473;27761.072;  -12.309;32432.984
698.048;27238.617;  -10.989;31649.303
698.623;27262.148;   -9.329;30778.141
699.198;29273.041;   -9.849;31140.119
699.773;30056.760;  -12.329;31764.299
700.348;28324.139;  -10.389;31780.816
700.922;28306.783;   -9.269;32046.375
701.497;29045.617;   -9.329;32603.574
702.072;29182.664;  -10.789;34799.871
702.646;27916.762;  -10.839;35793.172
703.221;26004.438;   -9.099;35201.590
703.795;28076.957;  -10.939;34764.527
704.370;28391.186;  -12.859;34307.367
704.944;28887.418;  -11.559;33509.887
705.519;29800.141;   -7.939;31388.584
706.093;31264.943;  -10.499;31340.104
706.668;31495.502;  -11.289;32630.281
707.242;30429.068;  -11.509;32728.779
707.816;28837.971;   -9.639;32947.238
708.390;27288.295;  -11.429;33277.855
708.965;27871.863;  -11.869;33834.336
709.539;28040.531;  -11.689;33709.273
710.113;28559.605;  -10.478;33044.313
710.687;27860.572;  -10.228;31953.992
711.261;26087.088;  -13.698;30505.949
711.835;26010.361;  -13.378;30262.369
712.409;26927.854;   -9.698;31254.447
712.983;28779.914;  -11.898;32754.986
713.557;29621.457;  -15.138;34018.824
714.131;29215.072;  -14.098;34579.625
714.704;28282.365;   -9.958;33890.262
715.278;26074.338;  -10.028;33531.102
715.852;25177.578;  -11.148;33601.660
716.425;26053.131;   -9.068;33515.117
716.999;26707.813;  -10.038;33185.555
717.573;27631.973;   -9.798;33905.996
718.146;28671.982;  -12.378;35199.293
718.720;28547.391;  -11.918;35060.551
719.293;28001.951;   -8.088;34973.230
719.867;30882.686;  -10.888;36394.449
720.440;30512.777;  -11.938;36663.008
721.013;28807.389;  -12.818;35102.426
721.587;27468.348;  -10.298;33985.266
722.160;26618.178;  -10.048;33524.965
722.733;25604.232;  -12.108;32987.043
723.306;25910.330;  -10.818;33066.301
723.880;28231.385;   -8.908;33399.500
724.453;29934.705;   -9.878;33468.297
725.026;28885.291;  -11.188;33816.637
725.599;26396.906;  -11.678;32797.996
726.172;26999.830;   -9.618;33187.434
726.745;28123.195;   -8.258;35136.613
727.318;29483.715;  -12.978;35751.730
727.891;29852.994;  -12.148;35890.430
728.463;29484.197;   -8.968;34822.090
729.036;28585.939;  -10.188;32895.086
729.609;28963.631;  -11.788;31823.225
730.182;25858.023;  -11.788;31445.283
730.754;23354.984;  -10.268;32373.223
731.327;23354.258;   -9.998;33676.820
731.900;23725.924;  -12.228;33417.000
732.472;25147.975;  -13.848;31978.498
733.045;27015.996;   -8.698;30368.777
733.617;27098.029;  -10.607;30574.215
734.190;26634.297;  -11.507;31280.975
734.762;23685.396;  -13.647;31674.412
735.334;22059.059;   -9.767;31247.291
735.907;22793.551;   -9.897;29876.211
736.479;22815.080;  -11.637;29808.488
737.051;22416.059;   -9.567;30233.547
737.623;23359.393;   -8.187;31469.086
738.195;24248.014;  -11.187;31784.225
738.768;26245.299;  -12.337;32120.523
739.340;26284.756;  -12.227;32094.342
739.912;24982.146;  -11.057;31312.680
740.484;23537.623;  -10.207;31946.238
741.056;22570.031;  -10.047;32984.059
741.628;24429.672;  -13.627;33897.715
742.199;26624.238;   -7.177;33213.016
742.771;24920.770;  -10.797;31369.113
743.343;22613.908;  -11.997;31865.473
743.915;21647.650;  -12.867;32388.631
744.487;21797.400;   -7.617;31079.568
745.058;21956.801;   -9.557;30570.107
745.630;22406.855;   -9.877;29970.127
746.201;23131.020;  -14.177;29186.766
746.773;23447.850;   -9.237;28805.723
747.344;23292.373;   -9.847;29591.223
747.916;22077.297;  -11.657;31412.201
748.487;22385.594;  -10.587;32194.898
749.059;23490.297;   -8.707;32533.719
749.630;24062.217;  -10.537;32158.518
750.201;23135.586;  -11.687;30855.395
750.773;21432.668;  -11.647;28622.555
751.344;21453.770;   -7.147;28405.732
751.915;22684.938;   -9.757;28461.551
752.486;22460.025;  -12.427;27842.850
753.057;20203.807;  -12.227;27845.008
753.628;19064.732;  -10.417;27728.107
754.199;20248.959;  -11.767;27381.086
754.770;21232.689;  -11.187;25882.203
755.341;21174.941;  -10.507;25886.184
755.912;21114.355;   -9.387;26050.861
756.483;20574.816;  -10.647;26798.779
757.054;18854.186;  -11.837;27048.238
757.625;17610.775;  -12.716;26294.838
758.195;17391.738;   -9.666;26142.076
758.766;17128.492;   -8.656;26392.234
759.337;17923.307;  -12.856;26334.594
759.907;19661.756;  -13.366;27579.652
760.478;20524.314;   -8.576;28352.770
761.048;19866.678;  -10.526;27325.088
761.619;19050.318;  -11.116;26460.428
762.189;19139.451;  -12.136;26029.826
762.760;20290.770;   -9.456;26430.145
763.330;21311.361;   -7.136;26670.902
763.900;20665.893;  -11.786;26603.021
764.471;18096.539;  -11.546;25542.740
765.041;16891.994;   -8.096;24358.459
765.611;16962.855;   -8.876;23991.297
766.181;17377.844;  -12.196;24470.236
766.751;18309.781;  -11.636;24845.975
767.321;18044.344;  -10.156;24533.633
767.891;16088.165;  -11.766;24916.492
768.461;15591.005;  -14.936;24776.771
769.031;16108.830;  -12.356;24757.988
769.601;17614.244;   -7.526;24181.088
770.171;17421.057;  -10.766;23670.387
770.741;16727.010;  -13.176;22960.045
771.311;16973.969;  -10.616;22917.523
771.880;17256.955;   -9.576;23562.941
772.450;16906.979;  -10.336;24216.500
773.020;16996.336;  -13.516;24140.398
773.589;16434.684;  -13.466;24414.857
774.159;15808.246;   -8.686;23858.717
774.729;15391.107;   -9.476;22942.135
775.298;14869.770;  -13.666;22324.033
775.867;14493.927;  -11.716;21140.313
776.437;14555.808;   -9.906;20838.092
777.006;14332.698;  -12.166;20599.510
777.576;14243.664;  -12.356;20508.809
778.145;14384.720;  -11.646;20732.947
778.714;14235.693;   -8.226;21062.465
779.283;13479.695;   -9.556;20949.664
779.853;13030.070;  -14.116;20508.623
780.422;13510.439;  -11.506;20649.082
780.991;13094.254;   -9.556;21527.520
781.560;11949.591;   -9.095;22632.658
782.129;11810.283;  -12.135;23048.277
782.698;11848.717;  -10.865;23438.555
783.267;11442.322;   -9.335;23267.734
783.836;11406.142;  -11.045;22415.133
784.404;12460.321;  -13.865;20443.152
784.973;13020.688;  -13.095;19699.150
785.542;12925.087;  -11.575;19763.828
786.111;12728.972;   -9.705;20341.408
786.679;12201.861;  -12.105;20207.967
787.248;11969.013;  -12.455;19516.465
787.817;11809.408;  -11.535;18900.363
788.385;11436.325;   -9.765;17879.121
788.954;10853.692;  -14.005;17658.301
789.522;10346.076;  -11.955;17788.879
790.090;10899.578;  -10.135;18118.277
790.659;11261.237;  -10.975;18338.736
791.227;10765.876;  -13.375;18508.615
791.795;11215.534;  -12.375;17898.254
792.364;11567.128;  -10.725;17295.133
792.932;11834.166;   -9.715;16822.051
793.500;11990.425;  -12.675;17040.148
794.068;12208.228;  -13.495;17179.787
794.636;12323.490;  -10.885;16664.246
795.204;11795.297;  -11.045;16524.545
795.772;11876.114;  -13.175;17274.564
796.340;11425.387;  -12.445;17891.002
796.908;11268.863;   -9.735;17648.561
797.476;11144.521;   -9.815;17064.080
798.044;10685.424;  -13.985;16672.777
798.612; 9882.919;  -13.115;17023.996
799.180; 9511.391;  -10.185;16561.615
799.747; 9440.934;   -9.055;15962.773
800.315; 9186.915;  -12.385;15296.992
800.883; 8836.398;  -15.035;14801.771
801.450; 8828.325;  -10.365;14534.430
802.018; 8893.606;   -9.855;14173.248
802.585; 9038.826;  -11.905;14029.547
803.153; 9092.111;  -11.585;13836.846
803.720; 8903.146;   -9.095;13567.324
804.287; 8469.532;   -9.135;13360.622
804.855; 8064.708;  -11.604;13681.981
805.422; 7954.511;  -11.794;13536.560
805.989; 7961.521;  -10.734;13355.958
806.556; 8153.563;  -10.444;13747.896
807.124; 8394.242;  -12.764;13987.376
807.691; 8345.709;  -12.964;14038.674
808.258; 8139.052;  -11.134;14120.152
808.825; 7806.924;   -9.854;13860.111
809.392; 7849.392;  -10.504;13268.790
809.959; 7382.917;  -13.054;12680.389
810.526; 6983.209;   -8.294;12427.308
811.093; 7051.421;   -8.394;12030.105
811.659; 7639.626;  -12.304;11653.664
812.226; 8089.174;  -13.944;11637.183
812.793; 7759.332;  -10.484;11611.521
813.360; 7138.879;  -10.144;11885.181
813.926; 6852.123;  -11.684;12770.539
814.493; 6658.415;  -13.644;12677.638
815.060; 6293.227;   -9.724;11974.336
815.626; 6311.273;   -9.854;11594.715
816.193; 6709.927;  -13.254;11579.474
816.759; 6731.262;  -13.204;11666.972
817.325; 6802.965;   -9.434;11325.530
817.892; 7156.942;  -10.134;11105.369
818.458; 7574.486;  -13.474;10843.928
819.024; 7181.125;  -11.854;10714.406
819.591; 6838.834;  -10.244;10469.165
820.157; 6621.953;  -10.704;10235.523
820.723; 6145.150;  -12.324;10847.563
821.289; 5839.234;   -9.444;11040.980
821.855; 5724.714;   -8.374;10357.100
822.421; 5672.567;  -10.234; 9978.918
822.987; 5660.082;  -13.294; 9754.177
823.553; 5379.503;  -10.884;10065.755
824.119; 5218.130;   -8.884;10036.294
824.685; 5292.653;   -6.784;10029.192
825.251; 5363.006;  -12.004;10199.230
825.816; 5321.695;  -11.474; 9820.189
826.382; 5117.433;   -9.174; 9297.248
826.948; 5342.514;   -9.214; 9381.347
827.513; 5713.021;  -10.774; 9450.726
828.079; 5512.135;  -11.924; 9472.444
828.645; 4957.069;  -10.543; 9292.643
829.210; 4899.193;  -10.533; 9065.341
829.776; 4883.336;  -10.753; 9132.620
830.341; 4761.714;  -10.173; 9092.878
830.906; 4946.660;  -10.743; 9078.557
831.472; 5258.267;  -11.113; 8534.535
832.037; 4967.350;  -10.603; 8677.874
832.602; 4421.424;  -13.323; 8628.692
833.167; 4186.635;  -10.823; 8879.031
833.733; 4140.427;  -10.113; 9189.790
834.298; 4267.287;  -13.583; 9052.608
834.863; 4322.614;  -12.703; 8895.087
835.428; 4299.310;  -10.523; 8824.266
835.993; 4175.328;   -6.963; 8845.385
836.558; 4036.305;  -10.763; 8888.563
837.123; 4176.504;   -9.903; 8966.582
837.688; 4403.233;   -9.913; 8617.860
838.253; 4623.398;  -10.283; 8590.699
838.817; 4820.272;  -12.963; 8443.797
839.382; 4727.845;  -14.243; 8799.356
839.947; 4412.206;  -10.733; 8810.595
840.511; 4116.430;   -9.383; 8796.394
841.076; 3759.966;  -12.563; 8347.231
841.641; 3821.317;  -12.953; 8224.330
842.205; 3918.125;   -7.043; 8223.349
842.770; 4037.340;   -8.163; 8622.107
843.334; 4211.803;  -12.503; 8410.386
843.898; 4168.120;  -11.693; 8337.465
844.463; 4183.137;  -10.203; 8506.283
845.027; 3959.630;   -9.533; 8280.962
845.591; 3785.187;  -13.443; 8231.141
846.156; 3759.181;  -13.143; 7969.179
846.720; 3637.510;   -9.433; 7768.278
847.284; 3506.019;  -11.033; 7630.957
847.848; 3382.428;  -10.403; 7472.395
848.412; 3293.629;  -11.553; 7437.394
848.976; 3340.158;   -8.393; 7674.592
849.540; 3288.800;   -8.713; 7836.011
850.104; 3414.272;  -12.463; 7913.669
850.668; 3753.853;  -12.973; 7694.508
851.232; 3835.559;  -10.793; 7756.887
851.796; 3671.020;  -10.662; 7926.545
852.359; 3385.730;  -13.082; 7827.844
852.923; 3235.159;  -12.192; 7641.163
853.487; 3064.959;  -11.912; 7342.501
854.050; 3016.837;  -10.892; 7042.820
854.614; 3147.556;  -13.992; 7151.338
855.177; 3270.507;  -11.732; 7105.077
855.741; 3304.172;   -8.962; 6989.675
856.304; 3202.519;   -9.442; 6596.634
856.868; 3148.305;  -14.192; 6356.272
857.431; 3241.042;  -12.702; 6468.571
857.995; 3367.397;   -9.942; 6373.210
858.558; 3372.621;   -9.112; 6324.448
859.121; 3103.930;  -12.932; 6408.327
859.684; 2986.567;  -13.442; 6347.886
860.247; 3092.245;  -10.632; 6321.264
860.810; 3082.526;  -11.272; 6301.903
861.374; 2833.847;   -9.832; 6607.881
861.937; 2595.281;  -11.762; 6408.200
862.500; 2597.353;   -9.722; 6572.639
863.062; 2777.280;  -10.512; 6387.297
863.625; 2941.531;  -11.232; 6190.836
864.188; 3092.943;  -14.112; 5807.254
864.751; 3149.969;  -11.302; 5682.413
865.314; 3035.141;  -10.112; 5547.492
865.876; 2834.273;  -12.182; 5500.150
866.439; 2824.329;  -10.722; 5415.909
867.002; 2768.443;   -9.252; 5501.567
867.564; 2562.145;   -9.572; 5413.946
868.127; 2340.109;  -13.142; 5160.325
868.689; 2239.059;  -12.902; 5133.183
869.252; 2139.075;   -9.732; 5252.382
869.814; 2051.958;   -9.432; 5297.141
870.377; 2068.979;  -11.552; 5390.919
870.939; 2140.912;   -9.052; 5599.898
871.501; 2199.049;  -10.982; 5248.336
872.063; 2198.128;  -12.292; 4854.235
872.626; 2158.889;  -14.912; 4817.074
873.188; 2189.872;  -13.112; 4987.732
873.750; 2154.439;  -13.442; 4868.651
874.312; 2061.234;   -9.402; 4779.330
874.874; 1970.052;  -11.062; 4866.348
875.436; 1879.193;  -13.931; 4718.887
875.998; 1868.073;   -9.561; 4660.005
876.560; 1886.812;  -11.321; 4462.964
877.122; 1829.914;  -12.221; 4145.042
877.683; 1746.630;  -12.191; 4056.481
878.245; 1678.889;  -12.101; 3950.740
878.807; 1719.922;   -8.971; 4058.958
879.369; 1743.015;  -12.071; 3954.677
879.930; 1646.176;  -14.621; 3941.495
880.492; 1586.026;  -10.311; 4067.014
881.053; 1547.175;  -10.901; 3859.633
881.615; 1437.878;  -14.411; 3776.071
882.176; 1345.470;  -13.761; 3734.750
882.738; 1299.596;   -9.181; 3678.489
883.299; 1274.364;  -11.791; 3405.407
883.860; 1279.429;  -13.121; 3351.106
884.422; 1280.000;  -11.211; 3394.044
884.983; 1233.759;  -10.091; 3166.443
885.544; 1156.138;   -8.461; 3189.802
886.105; 1077.507;  -12.361; 3160.360
886.666; 1012.026;  -14.141; 3093.059
887.227;  957.494;  -11.361; 2941.957
887.788;  896.583;  -11.401; 2974.836
888.349;  836.501;  -13.791; 2721.214
888.910;  834.417;  -13.191; 2696.493
889.471;  843.349;   -9.881; 2560.172
890.032;  826.260;   -9.881; 2558.190
890.593;  802.515;  -10.371; 2567.669
891.153;  775.344;  -13.301; 2460.307
891.714;  727.185;  -11.431; 2372.046
892.275;  688.440;  -11.291; 2309.505
892.835;  649.443;  -11.471; 2382.543
893.396;  596.376;  -11.541; 2295.502
893.956;  543.035;  -11.181; 2162.420
894.517;  508.158;  -11.741; 2125.439
895.077;  503.614;  -11.671; 2086.978
895.638;  503.056;  -11.311; 2126.316
896.198;  475.640;   -9.831; 1838.275
896.758;  434.638;   -8.421; 1892.813
897.319;  405.164;  -12.351; 1792.232
897.879;  387.683;  -13.511; 1762.751
898.439;  362.288;  -12.001; 1661.149
898.999;  340.755;  -10.180; 1781.468
899.559;  331.823;  -12.030; 1703.347
900.119;  327.198;  -15.710; 1537.525
900.679;  322.480;   -8.900; 1638.384
901.239;  309.861;   -8.340; 1527.902
901.799;  298.691;  -13.910; 1456.441
902.359;  293.683;  -13.460; 1357.140
902.919;  287.765;  -11.490; 1331.118
903.479;  274.865;  -12.110; 1317.257
904.038;  255.146;  -11.720; 1262.595
904.598;  240.983;  -13.610; 1152.034
905.158;  236.502;  -11.040; 1240.893
905.717;  230.536;  -10.900; 1233.691
906.277;  219.503;  -15.080; 1217.330
906.836;  209.532;  -13.380; 1222.408
907.396;  200.956;  -10.780; 1193.047
907.955;  194.940;   -8.500; 1182.526
908.515;  189.702;  -12.760; 1099.364
909.074;  182.567;  -11.900; 1092.863
909.633;  177.588;   -8.950; 1069.121
910.192;  173.668;   -8.770; 1196.460
910.752;  167.875;  -12.390; 1029.960
911.311;  164.358;  -13.680; 1009.780
911.870;  161.625;  -12.370;  971.460
912.429;  163.437;  -10.900; 1094.080
912.988;  162.450;  -11.690; 1081.060
913.547;  157.171;  -13.240;  940.380
914.106;  152.372;  -11.990;  999.420
914.665;  150.066;   -9.990;  984.020
915.224;  149.105;  -12.880; 1035.760
915.782;  148.269;  -12.350;  922.560
916.341;  148.295;   -9.110; 1049.840
916.900;  145.090;   -9.270;  925.260
917.458;  143.137;  -13.240;  884.220
918.017;  141.951;  -13.550;  942.600
918.576;  141.925;  -12.320;  904.440
919.134;  140.407;  -11.490;  837.980
919.693;  137.847;  -13.670;  893.060
920.251;  136.430;  -15.470;  876.500
920.809;  134.873;  -11.290;  839.580
921.368;  135.032;  -10.210;  885.360
921.926;  134.283;  -12.140;  842.940
922.484;  131.955;  -13.080;  903.360
923.042;  131.696;  -11.720;  880.340
923.601;  135.869;   -7.480;  998.680
924.159;  133.301;  -11.570;  935.560
924.717;  129.314;  -13.840;  841.080
925.275;  130.102;  -10.640;  903.240
925.833;  129.902;  -11.540;  779.320
926.391;  130.953;  -12.960;  938.380
926.949;  128.854;  -14.130;  857.680
927.506;  129.386;  -11.750;  903.500
928.064;  130.301;  -10.250;  877.580
928.622;  129.403;  -13.030;  880.100
929.180;  127.737;  -13.400;  814.180
929.737;  130.124;  -10.700;  808.540
930.295;  134.266;  -10.070;  928.480
930.853;  134.683;  -11.960;  849.100
931.410;  135.064;  -13.120;  821.120
931.968;  134.826;  -10.770;  940.660
932.525;  135.459;  -10.680;  909.380
933.082;  135.204;  -13.130;  811.440
933.640;  135.113;  -13.210;  925.900
934.197;  133.755;  -11.060;  886.360
934.754;  135.854;   -9.580;  897.780
935.312;  138.154;  -14.000;  863.340
935.869;  141.510;  -10.710; 1012.980
936.426;  141.824;   -9.860;  872.800
936.983;  143.936;   -9.710;  889.020
937.540;  142.687;  -13.990;  838.280
938.097;  140.029;  -14.040;  940.120
938.654;  140.589;  -10.310;  898.860
939.211;  144.338;  -10.560;  952.480
939.768;  148.146;  -13.900;  915.420
940.324;  150.474;  -14.760;  904.200
940.881;  151.189;  -10.370;  878.500
941.438;  152.125;   -8.260; 1021.200
941.995;  149.423;  -12.540;  992.560
942.551;  146.385;  -14.670;  875.620
943.108;  146.428;  -10.450;  937.920
943.664;  148.718;  -10.750;  869.340
944.221;  152.688;  -11.550; 1088.140
944.777;  149.544;  -14.770;  869.680
945.334;  149.996;  -12.820;  884.840
945.890;  151.799;  -10.130;  946.480
946.446;  151.634;  -13.470;  947.020
947.003;  152.692;  -12.120;  964.940
947.559;  155.103;   -9.980; 1063.040
948.115;  156.067;   -9.080; 1026.540
948.671;  154.748;  -10.830;  967.300
949.227;  150.740;  -12.440;  859.560
949.783;  148.741;  -12.910;  858.900
950.339;  150.129;  -10.270;  991.000
950.895;  150.521;  -13.630; 1023.840
951.451;  149.403;  -15.100;  925.280
952.007;  150.267;  -11.330;  998.540
952.563;  150.521;  -10.580;  937.780
953.118;  150.185;  -13.440;  904.940
953.674;  149.359;  -12.710;  935.780
954.230;  148.219;  -10.350;  949.640
954.785;  146.458;   -9.190;  936.640
955.341;  144.075;  -11.200;  998.160
955.897;  141.523;  -16.560;  834.660
956.452;  143.089;  -12.570;  953.840
957.008;  142.692;   -7.970; 1083.640
957.563;  141.054;  -11.940; 1009.540
958.118;  135.277;  -13.450;  877.700
958.674;  136.064;  -12.030;  946.780
959.229;  137.954;   -9.410; 1013.980
959.784;  135.752;  -12.000;  832.400
960.339;  134.307;  -14.780; 1001.280
960.894;  130.766;   -9.860;  963.760
961.449;  127.215;   -9.970;  859.960
962.004;  127.634;  -10.900; 1212.840
962.559;  122.163;  -13.150;  860.140
963.114;  120.023;  -13.740;  742.480
963.669;  119.754;   -9.820;  915.500
964.224;  118.268;  -13.890;  874.340
964.779;  117.274;  -12.600;  828.420
965.334;  117.282;  -10.950; 1017.860
965.888;  117.496;  -11.170;  875.360
966.443;  120.604;  -12.540;  972.380
966.998;  119.515;  -15.780;  819.460
967.552;  117.408;   -9.760;  908.380
968.107;  115.188;   -9.060;  868.300
968.661;  115.833;  -11.950;  922.440
969.216;  115.859;  -12.800;  856.280
969.770;  116.029;  -11.210;  917.200
970.324;  115.960;  -11.610;  923.140
970.879;  113.296;  -11.370;  947.180
971.433;  109.354;  -12.540;  952.720
971.987;  103.493;  -11.320;  895.340
972.541;  101.643;  -10.720;  917.100
973.095;  101.952;   -9.680; 1009.460
973.649;   99.143;  -11.440;  809.480
974.203;   98.591;  -11.210;  829.040
974.757;   98.327;  -10.240;  855.220
975.311;   98.894;  -13.720;  872.600
975.865;   97.422;  -13.770;  881.820
976.419;   95.355;  -11.690;  857.400
976.973;   96.501;   -9.510;  849.620
977.526;   98.510;  -12.620;  949.920
978.080;   96.996;  -12.010;  796.780
978.634;   98.282;  -10.170;  921.320
979.187;   96.169;   -9.020;  905.400
979.741;   93.328;   -9.820; 1018.380
980.294;   88.884;  -14.870;  789.160
980.848;   86.766;  -12.380;  717.220
981.401;   89.783;  -10.350;  816.540
981.955;   91.589;  -13.720;  844.300
982.508;   89.079;  -11.490;  746.340
983.061;   89.107;  -10.000;  915.260
983.615;   86.985;  -11.480;  798.800
984.168;   83.261;  -13.220;  770.080
984.721;   82.235;  -13.960;  880.760
985.274;   81.568;  -10.870;  867.500
985.827;   80.440;   -9.790;  834.220
986.380;   78.864;  -13.120;  721.340
986.933;   77.885;  -12.450;  864.800
987.486;   75.775;  -10.210;  861.920
988.039;   75.711;   -8.430;  863.100
988.591;   73.420;  -10.520;  893.260
989.144;   70.463;  -14.860;  737.260
989.697;   70.210;  -13.080;  758.740
990.250;   70.129;  -10.150;  858.100
990.802;   69.289;  -13.430;  755.860
991.355;   69.965;  -12.750;  974.880
991.907;   68.293;  -12.040;  864.320
992.460;   66.620;  -11.330;  753.760
993.012;   65.499;  -13.610;  749.540
993.565;   63.935;  -13.460;  711.360
994.117;   65.273;   -9.360;  950.780
994.669;   62.379;  -11.300;  701.320
995.221;   60.818;  -13.540;  791.920
995.774;   58.338;  -13.430;  787.580
996.326;   56.798;  -12.520;  740.220
996.878;   57.752;  -10.950;  838.420
997.430;   55.395;  -14.300;  699.860
997.982;   53.471;  -13.760;  750.140
998.534;   53.487;  -11.530;  739.060
999.086;   52.435;  -10.310;  738.220
999.638;   51.741;  -12.530;  661.380
1000.190;   50.799;  -11.840;  699.320
1000.741;   50.781;  -10.260;  742.700
1001.293;   50.126;   -8.860;  686.020
1001.845;   49.225;  -13.700;  676.640
1002.396;   48.297;  -12.100;  743.400
1002.948;   48.386;  -12.760;  737.400
1003.500;   47.519;  -10.380;  723.780
1004.051;   47.493;  -11.900;  907.580
1004.603;   45.661;  -12.250;  791.820
1005.154;   41.646;  -13.210;  608.980
1005.705;   41.435;  -10.950;  723.960
1006.257;   40.949;  -13.880;  707.220
1006.808;   40.106;  -12.840;  685.460
1007.359;   39.021;  -10.570;  763.240
1007.910;   39.161;   -9.620;  646.640
1008.461;   38.681;  -13.630;  732.940
1009.013;   37.322;  -17.200;  588.340
1009.564;   38.191;  -10.200;  793.520
1010.115;   36.649;  -12.570;  597.040
1010.665;   36.805;  -15.150;  602.160
1011.216;   36.288;  -14.480;  667.920
1011.767;   35.652;  -11.340;  697.920
1012.318;   36.396;   -9.780;  736.980
1012.869;   34.920;  -12.380;  679.000
1013.419;   34.005;  -15.560;  603.120
1013.970;   34.652;  -11.010;  666.640
1014.521;   34.260;  -11.610;  620.620
1015.071;   34.166;  -13.450;  670.380
1015.622;   33.502;  -13.870;  635.460
1016.172;   32.382;  -11.610;  596.820
1016.723;   32.725;  -12.120;  614.380
1017.273;   32.847;  -13.620;  604.160
1017.823;   32.808;  -14.140;  650.340
1018.374;   31.822;  -12.800;  611.760
1018.924;   31.856;  -12.340;  716.880
1019.474;   33.242;  -11.410;  718.880
1020.024;   31.304;  -14.770;  657.580
1020.574;   31.137;   -9.780;  726.160
1021.124;   32.139;   -8.560;  673.580
1021.674;   30.800;  -15.190;  559.120
1022.224;   31.128;  -13.530;  708.940
1022.774;   30.515;  -13.280;  668.820
1023.324;   31.907;  -10.690;  753.520
1023.874;   32.819;  -10.240;  875.760
1024.423;   29.857;  -12.540;  613.700
1024.973;   29.018;  -10.010;  610.760
1025.523;   29.231;  -10.550;  620.960
1026.072;   29.304;  -13.560;  606.420
1026.622;   28.414;  -15.120;  675.740
1027.172;   29.861;  -11.260;  715.660
1027.721;   28.144;  -11.410;  601.220
1028.270;   29.112;  -13.530;  663.400
1028.820;   28.057;  -13.680;  638.080
1029.369;   28.341;  -13.520;  612.700
1029.918;   28.142;  -10.980;  649.840
1030.468;   27.677;  -13.530;  564.780
1031.017;   27.901;  -13.170;  634.800
1031.566;   26.368;  -12.200;  608.900
1032.115;   27.412;   -9.960;  694.500
1032.664;   26.343;  -13.210;  596.480
1033.213;   27.075;  -12.500;  735.420
1033.762;   26.156;  -11.910;  635.620
1034.311;   26.431;   -9.640;  677.220
1034.860;   27.000;  -13.310;  691.000
1035.408;   26.133;  -11.830;  722.720
1035.957;   26.843;  -12.000;  719.540
1036.506;   24.886;  -11.690;  530.800
1037.055;   27.679;  -10.990;  844.320
1037.603;   25.002;  -15.120;  664.000
1038.152;   23.115;  -12.450;  534.760
1038.700;   24.454;  -10.560;  585.740
1039.249;   24.690;  -11.080;  681.220
1039.797;   24.560;  -12.540;  633.360
1040.345;   23.916;  -11.920;  705.420
1040.894;   24.642;  -11.410;  625.300
1041.442;   24.499;  -14.320;  632.200
1041.990;   22.644;  -16.240;  559.160
1042.538;   22.876;  -11.680;  536.180
1043.087;   22.382;  -10.760;  570.860
1043.635;   24.728;  -11.850;  670.500
1044.183;   22.661;  -15.480;  586.400
1044.731;   21.982;  -11.770;  576.000
1045.279;   22.633;  -13.090;  674.920
1045.827;   24.408;  -12.440;  892.400
1046.374;   21.714;  -13.840;  515.420
1046.922;   20.627;  -13.220;  590.580
1047.470;   23.103;  -10.230;  691.300
1048.018;   23.018;  -14.590;  647.960
1048.565;   22.560;  -12.050;  708.600
1049.113;   21.206;  -11.650;  557.000
1049.660;   21.759;  -10.510;  629.660
1050.208;   22.479;  -13.310;  675.640
1050.755;   20.783;  -15.900;  606.580
1051.303;   21.300;  -11.430;  686.820
1051.850;   20.681;   -8.480;  635.120
1052.397;   19.870;  -15.010;  473.960
1052.945;   19.660;  -13.960;  617.760
1053.492;   21.537;  -13.150;  741.840
1054.039;   21.186;   -9.630;  720.180
1054.586;   19.928;  -13.680;  557.240
1055.133;   20.195;  -14.570;  693.140
1055.680;   20.524;  -13.820;  646.620
1056.227;   19.713;  -11.730;  542.780
1056.774;   21.072;  -12.480;  794.980
1057.321;   18.461;  -13.930;  523.260
1057.868;   19.057;  -11.690;  651.320
1058.415;   18.944;   -9.520;  651.980
1058.961;   20.086;  -13.160;  678.940
1059.508;   19.145;  -12.920;  643.820
1060.055;   18.292;  -11.920;  581.780
1060.601;   19.115;  -11.500;  624.300
1061.148;   19.085;  -14.330;  616.820
1061.694;   17.803;  -16.870;  592.580
1062.241;   17.809;  -10.330;  596.320
1062.787;   18.917;  -10.620;  663.140
1063.334;   19.579;  -10.110;  808.560
1063.880;   18.122;  -13.400;  668.360
1064.426;   17.889;  -10.680;  706.820
1064.972;   17.098;   -9.920;  601.340
1065.518;   15.876;  -10.980;  566.640
1066.065;   18.110;  -14.890;  624.460
1066.611;   16.164;  -12.870;  598.800
1067.157;   18.308;  -12.950;  641.860
1067.703;   17.794;  -13.540;  668.480
1068.249;   16.751;  -13.540;  605.220
1068.794;   16.581;  -12.600;  626.880
1069.340;   15.351;  -10.620;  578.960
1069.886;   16.722;  -12.830;  590.700
1070.432;   15.410;  -14.870;  541.720
1070.977;   15.063;  -11.980;  601.080
1071.523;   16.218;   -8.200;  573.060
1072.068;   16.226;  -12.330;  582.000
1072.614;   15.869;  -16.370;  527.760
1073.160;   16.330;  -11.100;  687.040
1073.705;   15.561;  -10.480;  572.520
1074.250;   14.988;  -14.520;  559.900
1074.796;   16.130;  -11.460;  655.160
1075.341;   15.500;  -11.950;  664.100
1075.886;   15.655;  -11.460;  594.240
1076.431;   14.716;  -13.770;  649.880
1076.976;   14.387;  -12.680;  639.220
1077.521;   13.542;  -13.170;  583.080
1078.067;   14.581;  -10.860;  579.400
1078.612;   14.424;  -13.920;  661.620
1079.156;   13.540;  -13.880;  601.540
1079.701;   14.418;  -13.120;  693.260
1080.246;   14.615;   -9.940;  696.300
1080.791;   14.551;  -14.740;  625.020
1081.336;   14.007;  -13.750;  659.320
1081.880;   13.805;  -13.400;  649.680
1082.425;   13.101;  -12.220;  573.480
1082.970;   14.910;  -11.610;  717.040
1083.514;   13.562;  -13.580;  597.000
1084.059;   11.934;  -12.810;  586.720
1084.603;   12.420;  -12.320;  565.840
1085.147;   13.128;  -13.190;  645.220
1085.692;   13.239;  -12.480;  716.800
1086.236;   11.625;  -13.020;  503.140
1086.780;   14.516;   -9.190;  751.440
1087.325;   13.207;  -12.480;  654.620
1087.869;   11.841;  -12.450;  610.700
1088.413;   13.380;  -12.240;  705.040
1088.957;   11.457;   -9.020;  543.400
1089.501;   12.857;  -10.320;  766.640
1090.045;   12.641;  -12.720;  726.480
1090.589;   10.233;  -13.690;  569.920
1091.133;   11.824;  -10.020;  673.340
1091.676;   12.965;  -12.330;  591.940
1092.220;   11.211;  -14.970;  600.920
1092.764;   12.125;  -12.430;  706.960
1093.307;   11.679;   -9.800;  673.780
1093.851;   10.848;  -14.970;  556.540
1094.395;   11.638;  -15.310;  683.140
1094.938;   10.197;  -10.370;  632.520
1095.482;   10.695;  -11.050;  559.800
1096.025;   11.555;  -11.840;  710.880
1096.568;   11.730;  -12.840;  779.280
1097.112;    8.692;  -14.700;  508.180
1097.655;   11.125;   -8.720;  603.000
1098.198;   10.533;  -13.610;  600.180
1098.741;    8.914;  -13.350;  612.860
1099.285;   10.398;  -11.230;  657.300
1099.828;    8.876;  -11.840;  439.400
1100.371;   10.240;  -10.840;  608.160
1100.914;    9.602;  -14.190;  682.660
1101.457;    9.598;  -11.240;  679.900
1101.999;    8.715;  -11.270;  584.680
1102.542;   10.018;  -11.480;  641.440
1103.085;    8.849;  -11.750;  658.500
1103.628;    9.466;  -11.400;  762.060
1104.170;    9.284;  -10.490;  588.280
1104.713;   10.055;  -10.600;  646.700
1105.256;    8.192;  -14.360;  557.440
1105.798;    7.327;  -13.210;  499.980
1106.341;    9.741;  -10.270;  728.900
1106.883;    9.002;  -12.200;  521.340
1107.425;    8.363;  -13.110;  668.180
1107.968;    7.897;  -12.840;  612.380
1108.510;    8.841;   -6.480;  684.960
1109.052;    8.393;  -13.940;  612.620
1109.594;    7.802;  -13.690;  554.440
1110.136;    7.921;  -11.880;  643.220
1110.679;    6.894;   -9.500;  633.080
1111.221;    8.245;  -14.160;  604.460
1111.763;    7.471;  -13.980;  559.220
1112.304;    6.710;  -13.880;  547.140
1112.846;    7.482;  -12.210;  666.240
1113.388;   10.178;  -11.390;  942.180
1113.930;    7.643;  -14.540;  694.200
1114.472;    6.016;  -12.640;  606.540
1115.013;    5.881;  -11.620;  551.280
1115.555;    6.811;  -13.640;  587.100
1116.097;    5.856;  -15.380;  579.480
1116.638;    6.486;  -12.640;  684.600
1117.180;    6.756;   -9.850;  667.740
1117.721;    6.925;  -13.690;  568.580
1118.262;    6.738;  -12.680;  677.960
1118.804;    7.294;  -12.530;  637.340
1119.345;    5.988;  -11.690;  578.400
1119.886;    7.152;  -13.380;  704.040
1120.427;    5.109;  -14.070;  589.020
1120.969;    4.680;  -13.500;  597.920
1121.510;    5.219;  -11.480;  563.060
1122.051;    5.834;  -12.830;  723.580
1122.592;    4.673;  -14.290;  655.420
1123.133;    3.485;  -12.400;  547.940
1123.673;    6.692;  -10.130;  706.480
1124.214;    6.018;  -12.930;  612.460
1124.755;    5.925;  -14.380;  639.460
1125.296;    4.911;  -14.000;  627.320
1125.836;    5.931;  -10.070;  691.500
1126.377;    5.008;  -12.640;  599.660
1126.918;    5.603;  -12.960;  614.980
1127.458;    3.564;  -13.350;  622.220
1127.999;    5.618;  -10.750;  656.980
1128.539;    5.045;  -12.350;  694.240
1129.079;    3.655;  -14.860;  632.720
1129.620;    4.333;  -13.840;  558.100
1130.160;    3.980;  -12.330;  539.480
1130.700;    5.098;  -14.530;  640.840
1131.240;    4.857;  -12.530;  643.700
1131.781;    3.242;  -14.450;  619.680
1132.321;    3.999;   -9.790;  599.120
1132.861;    2.804;  -14.860;  564.200
1133.401;    2.623;  -14.290;  593.940
1133.941;    3.441;  -11.750;  626.280
1134.481;    3.267;   -9.920;  597.580
1135.020;    3.250;  -12.290;  609.160
1135.560;    3.658;  -11.650;  674.940
1136.100;    2.683;  -16.270;  501.160
1136.640;    2.658;  -10.890;  510.480
1137.179;    3.205;  -14.180;  537.960
1137.719;    2.945;  -16.250;  605.400
1138.258;    2.909;  -14.230;  587.360
1138.798;    3.326;   -9.090;  663.780
1139.337;    2.261;  -15.130;  482.840
1139.877;    2.814;  -13.680;  642.360
1140.416;    4.420;  -11.320;  878.060
1140.955;    2.461;  -10.860;  535.380
1141.494;    2.833;  -12.920;  669.280
1142.034;    1.923;  -13.930;  583.520
1142.573;    2.497;  -11.440;  646.280
1143.112;    1.950;  -12.000;  553.480
1143.651;    2.880;  -13.670;  536.480
1144.190;    2.651;  -12.730;  691.640
1144.729;    2.185;  -14.560;  607.420
1145.267;    2.025;  -11.830;  584.900
1145.806;    3.258;  -12.230;  637.040
1146.345;    0.843;  -14.130;  635.020
1146.884;    1.377;  -11.590;  622.500
1147.422;    0.913;  -12.550;  533.060
1147.961;    3.566;  -11.180;  708.460
1148.500;    1.836;  -11.510;  669.720
1149.038;    1.727;  -11.640;  632.500
1149.577;    2.404;  -10.130;  698.640
1150.115;    0.359;  -13.970;  452.280
1150.653;    1.815;  -14.520;  607.340
1151.192;    1.182;  -12.810;  552.920
1151.730;    1.493;   -9.100;  652.560
1152.268;    1.412;  -12.220;  589.520
1152.806;    0.822;  -14.140;  571.180
1153.344;   -0.129;  -12.350;  577.640
1153.882;    0.729;   -8.980;  600.060
1154.421;    0.284;  -15.190;  470.620
1154.958;   -0.033;  -15.210;  595.240
1155.496;    1.597;  -12.850;  645.280
1156.034;    0.948;   -9.940;  721.880
1156.572;    2.647;  -13.570;  667.060
1157.110;   -0.185;  -14.590;  473.940
1157.647;    0.729;  -13.030;  676.960
1158.185;   -0.252;  -12.140;  564.320
1158.723;   -0.632;  -14.390;  509.200
1159.260;    0.225;  -14.090;  701.700
1159.798;   -0.091;  -11.920;  658.160
1160.335;   -0.065;  -11.110;  631.820

