
Integration time [ms]:   3.276
Averaging Nr. [scans]: 1000
Smoothing Nr. [pixels]: 0
Data measured with spectrometer [name]: 7414430SP
Wave   ;Sample   ;Dark     ;Reference
[nm]   ;[counts] ;[counts] ;[counts] 

288.544;  158.262;    7.793;  793.890
289.143;  161.619;    7.462;  681.602
289.742;  161.707;    8.602;  828.814
290.341;  149.533;    1.321;  789.841
290.940;  139.269;   -0.709;  730.702
291.538;  141.393;    0.881;  881.108
292.137;  140.369;    0.122;  792.581
292.736;  143.526;   -1.929;  975.101
293.335;  138.626;   -8.229;  735.086
293.934;  141.770;   -5.279;  781.677
294.532;  140.795;   -1.369; 1031.958
295.131;  126.688;   -7.641;  834.394
295.730;  127.038;   -8.420;  809.588
296.328;  124.626;   -5.611;  783.442
296.927;  124.445;   -5.781;  779.652
297.525;  125.886;   -6.361;  781.236
298.124;  116.779;  -11.382;  654.009
298.722;  121.444;   -7.641;  761.933
299.321;  116.989;   -6.811;  708.597
299.919;  114.390;   -6.991;  751.918
300.518;  110.775;  -10.362;  689.338
301.116;  113.783;   -9.581;  691.381
301.715;  113.890;   -4.891;  730.222
302.313;  112.148;   -8.801;  704.943
302.911;  107.182;   -8.522;  733.830
303.509;  113.092;   -6.171;  925.627
304.108;  109.709;   -7.311;  760.383
304.706;  108.814;   -8.321;  801.664
305.304;  103.626;  -10.222;  796.707
305.902;  109.077;   -6.021;  784.484
306.500;  104.051;   -4.971;  728.200
307.098;  102.608;   -7.061;  746.560
307.696;  101.791;   -8.801;  780.432
308.294;  101.831;   -6.411;  731.359
308.892;  103.747;   -2.901;  759.769
309.490;   99.393;   -5.041;  712.161
310.088;   97.675;   -5.002;  788.444
310.686;  102.452;   -2.041;  821.749
311.284;   97.720;   -2.351;  766.040
311.882;   94.622;   -4.422;  731.225
312.480;   91.610;   -4.192;  697.167
313.078;   94.339;   -1.172;  808.331
313.675;   94.193;   -2.601;  691.600
314.273;   89.098;   -1.312;  797.837
314.871;   88.952;   -3.942;  589.829
315.468;   86.745;   -2.802;  652.090
316.066;   89.865;   -0.701;  694.427
316.664;   82.033;   -4.362;  656.351
317.261;   86.346;   -2.872;  910.128
317.859;   82.418;   -2.022;  768.735
318.456;   82.204;   -0.531;  830.096
319.054;   77.953;   -3.912;  787.828
319.651;   76.154;   -4.752;  759.928
320.249;   75.601;   -2.602;  810.188
320.846;   73.359;   -0.821;  714.286
321.443;   70.474;   -4.642;  832.135
322.041;   67.494;   -5.002;  812.315
322.638;   65.939;   -3.982;  701.456
323.235;   66.045;   -3.411;  665.683
323.833;   63.633;   -7.361;  740.354
324.430;   58.494;   -8.611;  615.900
325.027;   60.729;   -4.061;  876.855
325.624;   58.681;   -4.031;  644.532
326.221;   55.926;   -7.481;  689.717
326.818;   55.607;   -5.281;  818.332
327.415;   58.757;   -7.460;  748.828
328.012;   58.005;   -5.510;  690.585
328.609;   56.401;   -7.880;  731.389
329.206;   55.086;   -8.331;  778.621
329.803;   55.289;   -5.121;  737.841
330.400;   57.097;   -4.510;  704.260
330.997;   58.457;   -6.441;  817.147
331.594;   56.569;   -8.831;  788.185
332.191;   62.586;   -7.621;  728.722
332.787;   65.665;   -4.591;  844.463
333.384;   65.573;   -7.412;  763.093
333.981;   64.191;   -8.293;  815.687
334.578;   67.457;   -7.052;  708.378
335.174;   69.807;   -3.102;  731.469
335.771;   68.710;   -5.943;  836.456
336.367;   66.191;   -7.393;  710.631
336.964;   71.814;   -4.063;  793.266
337.561;   68.530;   -3.813;  731.112
338.157;   63.593;   -4.654;  911.916
338.754;   63.110;   -7.934;  796.589
339.350;   61.480;   -4.414;  722.493
339.946;   63.458;   -4.664;  773.135
340.543;   55.053;   -6.375;  846.136
341.139;   47.839;   -9.815;  720.836
341.735;   45.561;   -4.526;  772.593
342.332;   45.077;   -4.895;  691.472
342.928;   44.303;   -4.295;  795.394
343.524;   37.308;   -5.476;  761.684
344.120;   33.894;   -5.856;  738.562
344.716;   37.882;   -2.155;  723.717
345.313;   34.587;   -6.275;  795.342
345.909;   29.405;   -8.815;  627.336
346.505;   31.383;   -5.305;  740.247
347.101;   31.403;   -2.674;  827.864
347.697;   31.296;   -4.344;  785.398
348.293;   26.677;   -9.975;  627.244
348.889;   27.323;   -5.774;  745.914
349.485;   26.761;   -5.004;  688.205
350.081;   26.510;   -4.704;  772.592
350.676;   22.573;   -6.635;  691.606
351.272;   26.464;   -4.504;  809.530
351.868;   26.830;   -3.914;  780.497
352.464;   23.067;   -9.044;  723.932
353.059;   19.917;   -8.314;  646.017
353.655;   23.649;   -7.024;  777.063
354.251;   23.438;   -5.343;  759.845
354.846;   17.904;   -8.604;  740.646
355.442;   16.505;   -6.945;  753.071
356.038;   18.716;   -7.564;  751.708
356.633;   18.272;   -5.814;  728.594
357.229;   15.666;   -7.364;  724.757
357.824;   14.079;   -8.024;  703.600
358.420;   13.157;   -9.384;  679.726
359.015;   13.081;   -5.104;  695.357
359.610;   14.781;   -6.854;  763.920
360.206;    8.803;  -10.185;  603.240
360.801;   12.138;   -7.054;  646.503
361.396;   13.720;   -5.034;  725.975
361.992;    9.062;   -8.284;  668.220
362.587;    5.981;   -8.625;  670.160
363.182;    8.220;   -7.674;  689.631
363.777;    8.927;   -5.164;  738.242
364.372;    8.469;   -8.604;  737.314
364.967;    4.673;   -9.055;  680.744
365.563;    9.334;   -6.114;  815.567
366.158;    6.147;   -5.814;  685.161
366.753;    6.702;   -7.854;  649.263
367.348;    4.346;   -7.804;  746.056
367.942;    5.268;   -7.954;  697.298
368.537;    3.834;   -4.984;  754.245
369.132;    3.326;   -8.564;  703.428
369.727;    0.310;   -8.855;  638.079
370.322;    1.286;   -6.245;  580.186
370.917;    0.864;   -6.425;  710.646
371.511;    3.256;   -6.294;  861.834
372.106;   -0.527;   -7.685;  776.964
372.701;   -2.746;   -7.335;  585.988
373.296;    2.604;   -4.564;  863.135
373.890;   -2.711;  -10.235;  647.840
374.485;   -4.823;   -7.885;  691.199
375.079;   -0.529;   -7.324;  738.685
375.674;   -0.027;   -3.494;  812.970
376.268;   -4.156;   -8.525;  691.759
376.863;  -10.524;  -10.086;  580.327
377.457;   -3.293;   -7.025;  662.490
378.052;   -5.406;   -3.585;  764.884
378.646;   -6.062;   -7.595;  741.167
379.240;   -6.713;   -8.335;  721.176
379.835;   -5.548;   -5.785;  636.978
380.429;   -7.471;   -4.335;  562.557
381.023;   -8.762;   -6.805;  779.205
381.617;  -10.862;   -9.195;  680.106
382.212;   -6.165;   -6.905;  685.303
382.806;   -5.619;   -3.745;  760.690
383.400;  -10.847;   -7.745;  672.281
383.994;  -11.622;   -9.765;  664.870
384.588;   -7.685;   -6.564;  697.701
385.182;   -5.318;   -5.344;  726.624
385.776;   -7.544;   -8.514;  706.875
386.370;  -11.435;   -9.555;  681.968
386.964;   -9.070;   -8.715;  684.155
387.558;   -8.680;   -6.174;  598.360
388.152;  -11.916;   -8.725;  681.959
388.745;  -10.093;   -7.965;  814.707
389.339;   -8.027;   -5.924;  747.642
389.933;   -7.084;   -5.524;  695.370
390.527;   -9.245;   -7.114;  859.029
391.120;  -15.362;  -10.725;  595.318
391.714;  -12.065;   -8.035;  711.633
392.308;   -8.626;   -3.574;  780.253
392.901;  -13.141;   -7.245;  642.460
393.495;  -14.237;   -9.285;  595.414
394.089;  -11.475;   -5.895;  760.452
394.682;  -12.549;   -4.295;  697.188
395.275;  -13.764;   -9.875;  719.927
395.869;  -14.079;   -8.485;  667.314
396.462;  -12.291;   -7.455;  616.609
397.056;   -9.051;   -5.424;  776.621
397.649;  -13.507;   -6.605;  731.575
398.242;  -11.919;   -8.224;  712.645
398.836;  -10.663;   -7.474;  766.408
399.429;  -11.016;   -7.094;  631.041
400.022;  -15.808;   -9.475;  665.902
400.615;  -12.286;   -7.145;  805.609
401.208;  -10.293;   -7.174;  691.451
401.802;  -12.871;   -5.515;  699.329
402.395;  -14.882;   -9.875;  683.502
402.988;  -15.358;   -8.845;  696.627
403.581;  -11.918;   -8.874;  646.878
404.174;  -10.178;   -5.324;  686.568
404.767;  -13.234;   -9.575;  638.583
405.360;  -14.991;  -10.965;  621.445
405.953;   -9.019;   -8.764;  759.034
406.545;   -9.146;   -7.514;  725.342
407.138;  -13.844;  -10.025;  618.350
407.731;  -12.126;  -10.034;  613.303
408.324;   -8.118;   -9.374;  660.554
408.917;   -9.174;   -6.534;  681.864
409.509;  -10.664;   -8.004;  740.396
410.102;  -13.136;   -9.875;  643.948
410.695;   -6.960;   -8.604;  665.758
411.287;   -7.498;   -6.794;  599.821
411.880;   -9.753;   -9.334;  585.421
412.472;  -12.781;  -10.254;  613.092
413.065;   -9.145;   -6.714;  629.408
413.657;   -7.718;   -7.234;  576.678
414.250;   -7.695;  -10.544;  646.681
414.842;   -9.485;   -9.744;  676.353
415.434;   -6.555;   -6.994;  570.463
416.027;   -2.101;   -5.893;  652.196
416.619;   -4.959;   -7.264;  713.400
417.211;   -5.750;  -10.374;  599.352
417.804;   -1.423;   -7.993;  628.499
418.396;   -5.504;   -7.234;  607.643
418.988;   -3.920;   -9.443;  659.238
419.580;   -7.039;  -10.724;  568.276
420.172;   -4.197;  -10.323;  536.196
420.764;   -0.596;   -8.793;  672.482
421.356;   -2.034;  -11.143;  636.898
421.948;   -2.338;   -8.293;  677.661
422.540;    2.933;   -7.893;  680.027
423.132;    2.127;   -7.082;  600.641
423.724;   -1.660;   -8.653;  561.267
424.316;    0.140;  -10.213;  621.345
424.908;    4.981;   -9.762;  591.517
425.500;    4.950;   -5.572;  647.978
426.092;    4.665;   -8.422;  648.268
426.683;    3.620;   -9.283;  684.836
427.275;    7.020;   -7.852;  641.471
427.867;    7.876;   -5.272;  668.948
428.458;    9.109;   -7.682;  732.344
429.050;    7.125;  -10.612;  680.749
429.642;   10.117;   -9.882;  743.124
430.233;   10.647;   -6.962;  569.356
430.825;   11.260;   -6.842;  724.809
431.416;    8.170;   -9.672;  698.241
432.008;   12.700;   -6.552;  651.723
432.599;   12.755;   -6.891;  656.073
433.190;   10.877;  -10.912;  637.670
433.782;    9.397;  -11.172;  590.395
434.373;   16.389;   -6.061;  884.765
434.964;   16.022;   -8.251;  602.920
435.556;   12.476;   -9.722;  634.537
436.147;   14.750;   -9.082;  758.490
436.738;   16.237;   -8.041;  701.099
437.329;   20.888;   -7.341;  721.723
437.920;   13.084;   -8.162;  666.688
438.511;   14.136;  -11.802;  564.526
439.103;   20.740;  -10.191;  623.998
439.694;   23.037;   -7.601;  681.583
440.285;   22.813;   -8.541;  764.432
440.876;   21.257;   -9.751;  845.738
441.466;   20.967;   -9.401;  575.162
442.057;   26.451;   -7.760;  665.814
442.648;   24.581;   -9.971;  746.255
443.239;   22.838;  -11.001;  620.477
443.830;   28.599;   -7.990;  704.958
444.421;   30.518;   -7.910;  655.474
445.011;   26.278;   -8.131;  693.619
445.602;   25.990;   -7.111;  743.126
446.193;   28.902;  -10.920;  488.117
446.783;   33.456;   -6.500;  640.397
447.374;   28.072;   -8.671;  692.759
447.964;   28.033;  -10.781;  713.770
448.555;   37.716;   -9.650;  822.742
449.145;   33.689;   -8.660;  662.853
449.736;   34.494;   -8.990;  803.179
450.326;   34.345;   -9.500;  713.626
450.917;   39.458;   -8.680;  675.324
451.507;   38.937;   -7.520;  600.661
452.097;   39.294;   -8.590;  746.267
452.688;   40.410;  -11.340;  742.160
453.278;   40.758;  -10.100;  566.840
453.868;   44.969;   -6.019;  793.550
454.458;   42.294;   -9.440;  651.141
455.048;   43.029;  -10.560;  711.783
455.639;   45.237;  -11.799;  567.096
456.229;   48.255;   -6.899;  710.694
456.819;   49.118;   -7.389;  751.158
457.409;   49.709;  -11.119;  773.993
457.999;   53.649;   -9.289;  737.505
458.589;   53.015;   -6.139;  686.606
459.179;   52.205;   -8.729;  717.658
459.769;   50.460;   -9.789;  627.099
460.358;   55.665;  -10.259;  797.262
460.948;   55.687;   -7.299;  689.503
461.538;   56.494;  -10.289;  660.677
462.128;   55.031;  -11.269;  664.934
462.717;   61.970;   -9.368;  710.326
463.307;   65.308;   -7.908;  705.846
463.897;   60.407;   -9.599;  656.942
464.486;   59.667;   -9.769;  837.128
465.076;   65.088;   -8.048;  733.776
465.666;   68.238;   -9.358;  652.900
466.255;   65.104;   -7.919;  785.651
466.845;   64.431;  -11.689;  666.749
467.434;   68.307;   -7.818;  725.873
468.023;   69.168;   -7.678;  658.357
468.613;   66.602;  -10.939;  713.946
469.202;   71.000;  -10.118;  646.507
469.791;   75.894;   -9.108;  737.811
470.381;   76.817;   -6.058;  742.813
470.970;   76.578;  -10.428;  711.099
471.559;   76.130;  -10.268;  733.291
472.148;   79.941;   -8.448;  675.737
472.738;   81.938;   -6.917;  765.466
473.327;   81.948;  -11.978;  637.529
473.916;   81.182;  -11.888;  737.446
474.505;   85.821;   -9.437;  751.703
475.094;   89.602;   -6.747;  806.570
475.683;   87.790;   -9.367;  797.699
476.272;   88.672;  -12.637;  730.632
476.861;   91.622;  -10.027;  706.754
477.449;   98.005;   -8.716;  728.487
478.038;   92.645;   -9.577;  692.513
478.627;   94.281;   -9.718;  714.852
479.216;  100.740;   -8.947;  769.441
479.805;  104.144;   -6.256;  783.375
480.393;  103.593;   -7.937; 1008.945
480.982;  102.635;   -7.717;  874.501
481.571;  109.793;   -9.266;  858.333
482.159;  109.251;   -7.636;  705.386
482.748;  108.568;   -9.667;  821.385
483.336;  114.983;  -10.376;  858.209
483.925;  114.908;   -7.147;  774.373
484.513;  122.954;   -7.996;  758.962
485.102;  118.819;  -10.027;  810.965
485.690;  127.530;  -10.446; 1011.050
486.278;  129.575;   -8.446;  979.329
486.867;  129.780;   -6.356;  809.662
487.455;  131.975;   -9.136;  898.229
488.043;  133.361;  -10.646;  748.361
488.631;  143.095;   -7.456; 1005.079
489.220;  147.413;   -6.636;  908.626
489.808;  146.541;  -11.036;  741.415
490.396;  155.932;  -10.246;  914.645
490.984;  163.536;   -8.556;  830.161
491.572;  175.225;   -5.886;  940.315
492.160;  182.395;   -9.486;  919.081
492.748;  196.089;  -10.976;  884.341
493.336;  220.068;   -8.776; 1019.693
493.924;  250.347;   -5.465;  958.077
494.512;  284.628;   -9.986; 1066.638
495.100;  336.067;  -10.636; 1103.280
495.687;  399.582;  -10.885; 1206.373
496.275;  456.690;   -8.126; 1150.796
496.863;  526.354;  -10.586; 1281.171
497.451;  644.994;  -11.926; 1386.805
498.038;  760.201;  -10.885; 1556.729
498.626;  860.632;   -6.315; 1741.407
499.214; 1013.996;   -7.326; 2016.609
499.801; 1244.880;  -11.906; 2220.633
500.389; 1509.058;  -10.466; 2312.494
500.976; 1761.739;   -5.236; 2744.849
501.564; 2194.844;   -8.936; 3148.565
502.151; 2666.598;  -13.176; 3515.999
502.738; 3210.085;  -10.646; 3971.274
503.326; 3595.962;   -9.525; 4403.796
503.913; 3900.391;  -10.856; 5161.749
504.500; 4420.907;  -11.586; 5986.420
505.088; 4717.833;  -10.336; 6381.201
505.675; 5174.902;   -6.355; 6925.547
506.262; 5653.125;   -9.046; 7619.060
506.849; 6188.033;  -10.416; 8733.969
507.436; 6725.090;  -10.305; 9790.121
508.023; 7199.306;   -5.496; 9985.472
508.610; 8010.038;   -7.856;10434.618
509.197; 9314.021;  -10.097;11198.435
509.784;10803.002;  -10.886;12391.194
510.371;12166.382;   -9.315;13603.713
510.958;13035.036;   -9.936;14426.586
511.545;13716.223;   -9.326;15243.775
512.132;14259.411;  -10.075;15945.876
512.719;14418.501;   -7.796;16340.369
513.305;15314.627;  -10.606;18011.766
513.892;16623.990;  -11.486;19754.971
514.479;18372.643;   -9.126;20967.805
515.066;19989.838;   -6.026;22299.793
515.652;20196.223;   -8.466;22908.660
516.239;21208.977;  -10.886;23798.875
516.825;23475.582;  -11.496;25567.275
517.412;25567.133;   -5.796;28154.959
517.998;27408.447;  -10.506;28344.111
518.585;26932.002;  -10.076;27134.219
519.171;25566.223;   -8.315;27268.576
519.758;26583.838;   -8.596;28964.129
520.344;27750.895;   -8.466;30664.494
520.930;30052.998;  -11.006;32550.605
521.516;30414.908;  -10.495;35422.895
522.103;28812.244;   -5.526;38280.004
522.689;29193.990;   -8.746;37835.117
523.275;30331.773;  -11.376;37288.613
523.861;31556.930;  -11.156;37281.395
524.447;32925.375;   -8.135;37846.949
525.033;31121.627;   -7.896;38321.949
525.619;30392.303;  -12.476;38579.285
526.205;33457.789;   -9.516;40622.875
526.791;36537.730;   -6.926;42258.836
527.377;39185.426;   -8.346;42966.902
527.963;41089.633;   -8.717;42018.949
528.549;40111.316;  -11.016;42476.828
529.135;40442.055;   -8.536;41854.852
529.721;40100.848;   -9.666;41237.711
530.306;38356.250;  -10.066;41259.445
530.892;38118.371;  -11.356;41506.047
531.478;37462.324;   -6.596;43559.613
532.063;37950.707;   -8.836;47695.563
532.649;41481.250;  -10.047;50808.324
533.235;42672.730;   -9.746;51787.500
533.820;41871.898;   -6.566;52145.035
534.406;40821.039;  -10.817;51133.488
534.991;43553.438;   -9.416;49996.805
535.576;44575.633;   -9.036;48882.852
536.162;44548.992;   -6.156;46942.285
536.747;45840.680;  -11.607;45711.746
537.333;46250.656;  -11.787;48510.180
537.918;46310.938;  -12.437;50439.891
538.503;47245.594;   -7.196;50863.711
539.088;44337.723;  -10.556;50906.922
539.673;42247.535;   -8.767;52621.965
540.259;42580.789;  -10.026;52368.094
540.844;42764.801;   -7.416;50879.109
541.429;39222.582;   -9.467;52077.777
542.014;36415.398;   -9.527;52716.695
542.599;38054.152;   -9.946;52363.281
543.184;43526.410;   -7.927;53187.137
543.769;46498.520;   -9.297;54697.605
544.354;46120.285;  -10.127;53913.914
544.938;45461.828;   -9.267;49680.164
545.523;47912.672;   -6.506;47386.277
546.108;51442.254;   -9.787;49151.949
546.693;50835.785;  -11.587;51384.637
547.278;50616.066;  -10.986;51853.254
547.862;47448.691;   -8.206;51173.750
548.447;44692.500;  -10.067;51691.395
549.031;45508.820;   -9.637;52456.703
549.616;46505.012;   -9.926;52714.516
550.201;45306.285;   -6.347;52414.598
550.785;44731.660;   -7.917;52355.059
551.370;46043.512;  -10.867;54589.453
551.954;46910.285;   -9.047;58267.348
552.538;47820.418;   -7.827;59062.176
553.123;47633.406;  -10.287;58115.285
553.707;43597.883;  -12.178;56556.285
554.291;44302.941;   -8.717;56201.668
554.876;47430.484;   -7.457;55335.762
555.460;48453.453;  -10.387;54155.703
556.044;49387.992;   -9.618;53721.484
556.628;48403.805;  -11.567;53731.016
557.212;46334.703;   -8.097;54312.531
557.796;47805.750;  -11.077;53797.773
558.380;45879.012;  -11.108;56145.984
558.964;44537.828;   -9.057;57277.930
559.548;44266.184;   -6.977;56459.641
560.132;43108.020;  -11.457;54434.543
560.716;42209.508;  -11.378;54800.617
561.300;43059.477;   -9.577;57606.945
561.884;44960.512;   -7.127;58972.445
562.467;45834.563;   -7.118;57327.570
563.051;45201.891;  -13.358;54962.434
563.635;42870.270;  -10.178;52594.473
564.219;42285.289;   -7.837;50610.410
564.802;41959.477;  -11.398;49551.180
565.386;43243.688;  -12.788;48370.953
565.969;44016.145;   -9.077;48178.871
566.553;44150.008;   -6.207;49957.305
567.136;41367.324;   -8.568;50369.594
567.720;40435.434;  -11.868;49492.004
568.303;40241.449;   -8.268;50616.352
568.887;39150.117;   -8.698;50727.148
569.470;39481.777;   -6.808;51698.379
570.053;38194.637;  -13.188;52122.078
570.637;36800.125;  -12.037;52536.438
571.220;36091.438;   -8.577;51186.098
571.803;36553.129;   -8.498;51032.762
572.386;39213.480;  -10.498;49609.887
572.969;40797.621;   -9.388;48285.926
573.552;37181.891;   -8.338;47624.285
574.135;35046.184;   -8.518;45498.641
574.718;31742.822;  -13.628;41970.434
575.301;31340.945;  -10.893;41447.137
575.884;30939.068;   -8.158;40923.836
576.467;36027.742;  -10.328;45267.723
577.050;34669.234;  -13.058;48175.543
577.633;33742.980;   -9.458;47729.328
578.216;35248.879;   -8.928;47579.793
578.799;36004.234;   -9.358;47820.996
579.381;35385.195;  -11.388;48115.551
579.964;32591.260;  -11.718;47333.766
580.547;32410.576;   -8.588;46668.969
581.129;33972.559;   -8.859;44466.141
581.712;34315.668;  -10.729;44164.922
582.294;35597.094;  -11.118;46477.855
582.877;33467.445;   -5.218;48244.254
583.459;33438.613;   -8.679;47437.895
584.042;35337.785;  -10.709;46943.219
584.624;37331.184;  -11.669;46792.227
585.206;36301.832;   -8.218;46557.250
585.789;35098.430;  -10.569;45793.773
586.371;35437.422;  -11.859;43836.391
586.953;34095.371;  -10.719;42972.492
587.536;35927.828;   -7.198;42487.211
588.118;37311.703;   -8.720;42086.414
588.700;36577.965;  -10.439;43389.930
589.282;36660.270;   -9.198;43646.039
589.864;35451.152;   -9.199;43438.109
590.446;33218.090;  -11.319;43151.926
591.028;32888.250;  -11.159;42781.867
591.610;32727.814;  -11.779;42839.098
592.192;29718.184;   -7.668;42820.402
592.774;30381.346;  -11.949;40724.277
593.356;31364.803;  -12.129;39874.789
593.937;29238.684;  -10.669;39980.648
594.519;30623.164;   -6.509;42069.633
595.101;32682.221;  -10.849;42976.031
595.683;31457.129;  -11.679;44084.441
596.264;31285.584;   -9.049;43478.797
596.846;33266.586;   -8.849;43803.672
597.427;33259.352;   -9.570;42986.934
598.009;34511.027;  -12.620;42832.219
598.591;33751.277;  -10.039;42580.086
599.172;32691.264;  -10.369;43061.805
599.753;30901.934;   -9.140;41691.469
600.335;30776.133;  -11.430;40692.520
600.916;31176.990;   -9.939;39982.422
601.498;29863.234;   -8.479;40318.617
602.079;28663.811;  -10.920;40670.609
602.660;30425.051;  -11.480;41450.898
603.241;31836.063;  -11.699;41137.738
603.823;32286.873;   -9.579;38868.797
604.404;32141.258;  -10.620;38182.785
604.985;30946.619;  -10.450;38078.047
605.566;30625.537;   -9.129;38056.633
606.147;30696.436;   -7.510;37020.418
606.728;31875.672;  -10.660;37883.359
607.309;32824.996;  -11.740;38748.273
607.890;32474.240;   -9.759;38850.230
608.471;30741.795;   -8.250;37457.918
609.051;30791.426;   -9.240;36066.457
609.632;29026.270;  -12.120;35991.074
610.213;28007.553;   -9.110;37402.641
610.794;30064.570;   -8.030;38383.363
611.374;32391.334;   -8.110;40562.387
611.955;32040.068;  -13.560;38533.727
612.536;29328.957;  -11.400;36951.789
613.116;28104.729;   -8.070;37197.891
613.697;30210.648;  -10.830;38411.125
614.277;31723.514;  -11.641;38673.938
614.858;31049.584;  -13.310;37075.863
615.438;29414.814;   -7.460;35092.906
616.019;27715.813;   -7.601;33666.301
616.599;28591.908;  -12.020;34189.023
617.179;30204.498;  -11.780;36952.047
617.760;32960.891;   -8.570;39582.574
618.340;33064.738;  -11.471;38943.977
618.920;31745.914;  -11.170;37594.156
619.500;33664.465;  -11.071;37866.938
620.080;33884.586;   -7.750;37869.043
620.660;31982.023;  -12.711;36868.617
621.241;30433.750;  -10.211;36352.309
621.821;29458.725;  -10.961;35459.520
622.401;28664.527;   -7.720;35207.414
622.980;29847.920;   -8.981;35980.422
623.560;30264.514;   -9.331;37351.328
624.140;29029.654;   -9.850;34388.582
624.720;26434.418;   -7.451;32368.764
625.300;24601.791;   -9.070;32638.629
625.880;27988.854;  -12.601;34599.035
626.459;29948.545;  -11.751;36831.738
627.039;30662.859;   -9.281;38299.098
627.619;32565.193;   -8.801;38289.574
628.198;31946.492;  -12.071;37220.695
628.778;30867.146;   -9.461;37632.563
629.357;31881.389;   -8.491;38003.012
629.937;32164.334;   -9.721;38402.039
630.516;32409.475;   -9.951;37868.801
631.096;32667.078;  -11.731;35760.410
631.675;33767.449;   -8.572;35225.219
632.254;33302.348;  -11.282;35130.289
632.834;32735.207;  -13.322;35794.570
633.413;32607.064;  -10.301;35788.922
633.992;31814.615;   -8.582;34532.863
634.571;33460.371;   -8.352;33590.113
635.151;33576.371;  -11.912;34943.863
635.730;32619.633;  -10.511;35352.523
636.309;34962.645;   -7.731;35366.605
636.888;32905.418;   -9.952;36165.637
637.467;30786.545;  -11.672;37515.902
638.046;30842.389;   -8.901;39288.695
638.625;31855.137;   -7.912;38279.699
639.204;32185.473;  -10.022;37741.598
639.782;30136.748;  -12.252;38364.551
640.361;28512.072;  -10.041;36740.621
640.940;27723.402;  -11.161;34950.082
641.519;28653.811;   -9.701;34137.398
642.097;30216.094;  -11.271;35654.258
642.676;31909.801;   -8.651;35637.957
643.255;33218.883;   -8.711;36567.074
643.833;30734.877;   -9.581;37809.434
644.412;28474.230;  -13.711;37337.293
644.990;30381.479;  -11.811;37018.531
645.569;33038.781;   -9.411;36518.469
646.147;32467.936;  -10.291;36186.430
646.726;31291.061;  -12.401;36267.688
647.304;31301.094;  -10.411;36647.625
647.882;30462.271;   -9.651;39286.742
648.461;31880.408;   -9.631;39157.703
649.039;35267.020;  -11.881;35412.883
649.617;35375.168;   -9.661;34744.918
650.195;33137.578;   -9.301;35403.098
650.773;31965.604;  -10.511;35053.797
651.352;31293.752;  -11.521;33756.816
651.930;29086.494;  -12.211;31868.773
652.508;25943.771;   -9.171;33121.551
653.086;26761.500;   -9.371;33564.793
653.663;32592.240;  -13.161;34054.668
654.241;36655.008;  -13.031;35693.309
654.819;37551.023;   -9.371;36422.906
655.397;37445.965;  -10.511;38213.484
655.975;33664.320;  -10.371;39507.625
656.553;30206.658;  -10.051;39498.223
657.130;28597.840;  -10.061;40395.480
657.708;26746.018;   -9.561;39242.020
658.286;24352.760;  -11.511;38920.020
658.863;26613.164;  -10.261;40202.898
659.441;30316.078;   -7.531;39677.938
660.018;32214.896;   -9.501;40413.355
660.596;31458.549;  -13.301;39931.414
661.173;31295.586;  -11.211;39604.531
661.750;32947.527;   -9.951;39700.070
662.328;31900.221;   -9.390;39292.809
662.905;30802.012;  -11.330;38235.648
663.482;28455.150;   -9.050;36212.305
664.060;25680.742;   -8.240;35944.945
664.637;26280.492;  -10.050;35170.785
665.214;29516.234;  -11.760;34197.523
665.791;29972.945;  -10.530;34549.520
666.368;28993.805;   -9.690;35118.578
666.945;30395.803;   -9.320;36019.418
667.522;30984.818;  -11.860;36048.438
668.099;32427.346;  -10.770;36243.914
668.676;32362.203;   -6.260;35958.875
669.253;34729.277;   -7.000;37384.730
669.830;36003.027;  -10.190;36779.629
670.407;32944.039;   -9.550;35231.289
670.984;33400.246;   -9.260;35544.270
671.560;30769.811;   -9.280;35466.867
672.137;26787.484;  -11.810;34280.863
672.714;28546.213;  -11.490;34632.863
673.290;32071.076;   -7.740;35135.422
673.867;31751.881;  -10.660;36114.480
674.443;31923.254;  -12.230;36152.859
675.020;31565.955;  -10.450;35327.238
675.596;29785.814;   -9.260;35795.176
676.173;28535.244;  -10.780;35430.355
676.749;28266.617;  -13.690;33549.516
677.326;28400.092;  -11.980;32210.012
677.902;27731.283;   -8.630;32068.871
678.478;29504.465;  -10.730;32583.891
679.054;30267.150;  -10.520;32088.928
679.631;29510.965;  -11.920;30978.848
680.207;29661.822;   -7.490;33160.887
680.783;31481.627;   -9.860;35570.363
681.359;33080.973;  -13.380;36125.184
681.935;33867.281;  -12.480;35240.922
682.511;33099.773;   -7.900;34429.961
683.087;31888.514;   -7.710;34463.680
683.663;31472.750;  -11.480;34648.898
684.239;30265.641;  -14.090;34546.457
684.815;29039.096;   -7.560;35586.375
685.390;29292.309;   -9.910;35821.895
685.966;30572.891;  -11.159;35085.871
686.542;32158.893;  -11.169;34198.230
687.118;33532.414;   -5.959;32847.707
687.693;32594.635;  -10.329;32794.027
688.269;33692.020;  -12.059;33072.367
688.844;33645.852;  -10.909;33141.664
689.420;30731.977;   -8.019;33965.742
689.995;29449.094;   -8.399;34655.523
690.571;30890.432;  -10.949;33576.742
691.146;30397.115;   -9.619;32657.219
691.722;28971.275;   -8.999;32526.979
692.297;28360.865;  -11.589;33014.617
692.872;28363.436;  -11.739;34012.254
693.448;31171.010;  -11.059;34237.434
694.023;31784.498;  -10.139;34142.672
694.598;30044.057;   -9.029;34132.031
695.173;31175.193;  -13.319;34205.250
695.748;31497.877;  -10.169;32882.488
696.323;29048.164;   -8.339;32864.906
696.898;27305.352;   -8.169;33170.004
697.473;27911.256;  -12.309;32432.984
698.048;28068.787;  -10.989;31649.303
698.623;26731.270;   -9.329;30778.141
699.198;27588.631;   -9.849;31140.119
699.773;28675.752;  -12.329;31764.299
700.348;30068.588;  -10.389;31780.816
700.922;30464.127;   -9.269;32046.375
701.497;31386.609;   -9.329;32603.574
702.072;32351.059;  -10.789;34799.871
702.646;31183.465;  -10.839;35793.172
703.221;30414.727;   -9.099;35201.590
703.795;32389.355;  -10.939;34764.527
704.370;29922.191;  -12.859;34307.367
704.944;28398.678;  -11.559;33509.887
705.519;29599.928;   -7.939;31388.584
706.093;31894.045;  -10.499;31340.104
706.668;34031.305;  -11.289;32630.281
707.242;33366.984;  -11.509;32728.779
707.816;31642.629;   -9.639;32947.238
708.390;30371.613;  -11.429;33277.855
708.965;29593.818;  -11.869;33834.336
709.539;30923.299;  -11.689;33709.273
710.113;31133.721;  -10.478;33044.313
710.687;30521.592;  -10.228;31953.992
711.261;29814.225;  -13.698;30505.949
711.835;30185.400;  -13.378;30262.369
712.409;29122.406;   -9.698;31254.447
712.983;28770.188;  -11.898;32754.986
713.557;31170.910;  -15.138;34018.824
714.131;29190.152;  -14.098;34579.625
714.704;28704.160;   -9.958;33890.262
715.278;30898.904;  -10.028;33531.102
715.852;29491.197;  -11.148;33601.660
716.425;28188.271;   -9.068;33515.117
716.999;26769.189;  -10.038;33185.555
717.573;26289.117;   -9.798;33905.996
718.146;25679.721;  -12.378;35199.293
718.720;26196.277;  -11.918;35060.551
719.293;26666.686;   -8.088;34973.230
719.867;29012.189;  -10.888;36394.449
720.440;30823.453;  -11.938;36663.008
721.013;31554.479;  -12.818;35102.426
721.587;29194.139;  -10.298;33985.266
722.160;27245.514;  -10.048;33524.965
722.733;26567.850;  -12.108;32987.043
723.306;26926.508;  -10.818;33066.301
723.880;28851.316;   -8.908;33399.500
724.453;28527.844;   -9.878;33468.297
725.026;28593.883;  -11.188;33816.637
725.599;31314.322;  -11.678;32797.996
726.172;30859.145;   -9.618;33187.434
726.745;28400.609;   -8.258;35136.613
727.318;27988.605;  -12.978;35751.730
727.891;27221.123;  -12.148;35890.430
728.463;26249.705;   -8.968;34822.090
729.036;26249.955;  -10.188;32895.086
729.609;26212.133;  -11.788;31823.225
730.182;24175.422;  -11.788;31445.283
730.754;22881.545;  -10.268;32373.223
731.327;23057.166;   -9.998;33676.820
731.900;24294.820;  -12.228;33417.000
732.472;24040.936;  -13.848;31978.498
733.045;23057.412;   -8.698;30368.777
733.617;22867.621;  -10.607;30574.215
734.190;24926.871;  -11.507;31280.975
734.762;25850.877;  -13.647;31674.412
735.334;27312.229;   -9.767;31247.291
735.907;27808.082;   -9.897;29876.211
736.479;27520.174;  -11.637;29808.488
737.051;28388.191;   -9.567;30233.547
737.623;27600.865;   -8.187;31469.086
738.195;26202.037;  -11.187;31784.225
738.768;25026.641;  -12.337;32120.523
739.340;23414.832;  -12.227;32094.342
739.912;22603.109;  -11.057;31312.680
740.484;22669.129;  -10.207;31946.238
741.056;22413.178;  -10.047;32984.059
741.628;23423.033;  -13.627;33897.715
742.199;24272.244;   -7.177;33213.016
742.771;26530.328;  -10.797;31369.113
743.343;27383.406;  -11.997;31865.473
743.915;27078.512;  -12.867;32388.631
744.487;24523.463;   -7.617;31079.568
745.058;21690.973;   -9.557;30570.107
745.630;22715.354;   -9.877;29970.127
746.201;24253.361;  -14.177;29186.766
746.773;24734.854;   -9.237;28805.723
747.344;22873.592;   -9.847;29591.223
747.916;21202.385;  -11.657;31412.201
748.487;22252.393;  -10.587;32194.898
749.059;24034.492;   -8.707;32533.719
749.630;24251.188;  -10.537;32158.518
750.201;23552.361;  -11.687;30855.395
750.773;22337.535;  -11.647;28622.555
751.344;22299.943;   -7.147;28405.732
751.915;24500.564;   -9.757;28461.551
752.486;25625.002;  -12.427;27842.850
753.057;24456.807;  -12.227;27845.008
753.628;24432.473;  -10.417;27728.107
754.199;24057.467;  -11.767;27381.086
754.770;23604.908;  -11.187;25882.203
755.341;22419.357;  -10.507;25886.184
755.912;20862.764;   -9.387;26050.861
756.483;19407.045;  -10.647;26798.779
757.054;19810.379;  -11.837;27048.238
757.625;19763.650;  -12.716;26294.838
758.195;19424.879;   -9.666;26142.076
758.766;19585.240;   -8.656;26392.234
759.337;19149.441;  -12.856;26334.594
759.907;18972.350;  -13.366;27579.652
760.478;18759.602;   -8.576;28352.770
761.048;19869.021;  -10.526;27325.088
761.619;20037.145;  -11.116;26460.428
762.189;18648.635;  -12.136;26029.826
762.760;18311.168;   -9.456;26430.145
763.330;18732.758;   -7.136;26670.902
763.900;18808.010;  -11.786;26603.021
764.471;18359.170;  -11.546;25542.740
765.041;17497.893;   -8.096;24358.459
765.611;16755.850;   -8.876;23991.297
766.181;16776.186;  -12.196;24470.236
766.751;16610.711;  -11.636;24845.975
767.321;17647.867;  -10.156;24533.633
767.891;16990.033;  -11.766;24916.492
768.461;17144.734;  -14.936;24776.771
769.031;18167.963;  -12.356;24757.988
769.601;18792.691;   -7.526;24181.088
770.171;18572.184;  -10.766;23670.387
770.741;17849.307;  -13.176;22960.045
771.311;17388.637;  -10.616;22917.523
771.880;17666.570;   -9.576;23562.941
772.450;17321.443;  -10.336;24216.500
773.020;16927.516;  -13.516;24140.398
773.589;17524.564;  -13.466;24414.857
774.159;17391.227;   -8.686;23858.717
774.729;15995.386;   -9.476;22942.135
775.298;14206.201;  -13.666;22324.033
775.867;13907.259;  -11.716;21140.313
776.437;13990.284;   -9.906;20838.092
777.006;13304.350;  -12.166;20599.510
777.576;12802.884;  -12.356;20508.809
778.145;12720.969;  -11.646;20732.947
778.714;13190.496;   -8.226;21062.465
779.283;14268.506;   -9.556;20949.664
779.853;14922.984;  -14.116;20508.623
780.422;14346.615;  -11.506;20649.082
780.991;13920.543;   -9.556;21527.520
781.560;13626.356;   -9.095;22632.658
782.129;13477.664;  -12.135;23048.277
782.698;13291.854;  -10.865;23438.555
783.267;12951.254;   -9.335;23267.734
783.836;13116.243;  -11.045;22415.133
784.404;13817.432;  -13.865;20443.152
784.973;13039.665;  -13.095;19699.150
785.542;11649.079;  -11.575;19763.828
786.111;11009.396;   -9.705;20341.408
786.679;11747.274;  -12.105;20207.967
787.248;12036.170;  -12.455;19516.465
787.817;11744.515;  -11.535;18900.363
788.385;11836.812;   -9.765;17879.121
788.954;11820.089;  -14.005;17658.301
789.522;11279.889;  -11.955;17788.879
790.090;11510.080;  -10.135;18118.277
790.659;12364.330;  -10.975;18338.736
791.227;12261.357;  -13.375;18508.615
791.795;11738.695;  -12.375;17898.254
792.364;11249.779;  -10.725;17295.133
792.932;11400.350;   -9.715;16822.051
793.500;11509.054;  -12.675;17040.148
794.068;11274.884;  -13.495;17179.787
794.636;10104.305;  -10.885;16664.246
795.204; 9085.575;  -11.045;16524.545
795.772; 9776.267;  -13.175;17274.564
796.340;10895.990;  -12.445;17891.002
796.908;10725.952;   -9.735;17648.561
797.476;11170.159;   -9.815;17064.080
798.044;12021.095;  -13.985;16672.777
798.612;11806.449;  -13.115;17023.996
799.180;10471.883;  -10.185;16561.615
799.747; 9466.984;   -9.055;15962.773
800.315; 8925.950;  -12.385;15296.992
800.883; 9239.425;  -15.035;14801.771
801.450; 9480.892;  -10.365;14534.430
802.018; 9527.798;   -9.855;14173.248
802.585; 9644.862;  -11.905;14029.547
803.153; 9210.334;  -11.585;13836.846
803.720; 8623.373;   -9.095;13567.324
804.287; 8689.217;   -9.135;13360.622
804.855; 8991.993;  -11.604;13681.981
805.422; 9103.928;  -11.794;13536.560
805.989; 8987.111;  -10.734;13355.958
806.556; 8570.595;  -10.444;13747.896
807.124; 8450.601;  -12.764;13987.376
807.691; 8997.341;  -12.964;14038.674
808.258; 9361.865;  -11.134;14120.152
808.825; 9595.521;   -9.854;13860.111
809.392; 9296.467;  -10.504;13268.790
809.959; 8835.101;  -13.054;12680.389
810.526; 8678.319;   -8.294;12427.308
811.093; 8323.166;   -8.394;12030.105
811.659; 7523.375;  -12.304;11653.664
812.226; 7299.146;  -13.944;11637.183
812.793; 7811.514;  -10.484;11611.521
813.360; 7916.202;  -10.144;11885.181
813.926; 7187.204;  -11.684;12770.539
814.493; 6600.923;  -13.644;12677.638
815.060; 6489.135;   -9.724;11974.336
815.626; 6850.546;   -9.854;11594.715
816.193; 6890.878;  -13.254;11579.474
816.759; 6870.400;  -13.204;11666.972
817.325; 6631.435;   -9.434;11325.530
817.892; 6297.211;  -10.134;11105.369
818.458; 6224.537;  -13.474;10843.928
819.024; 6255.558;  -11.854;10714.406
819.591; 6587.550;  -10.244;10469.165
820.157; 6686.993;  -10.704;10235.523
820.723; 6938.211;  -12.324;10847.563
821.289; 7352.054;   -9.444;11040.980
821.855; 7376.660;   -8.374;10357.100
822.421; 6947.778;  -10.234; 9978.918
822.987; 6690.411;  -13.294; 9754.177
823.553; 6552.736;  -10.884;10065.755
824.119; 6120.308;   -8.884;10036.294
824.685; 5932.145;   -6.784;10029.192
825.251; 5865.918;  -12.004;10199.230
825.816; 5950.537;  -11.474; 9820.189
826.382; 5711.057;   -9.174; 9297.248
826.948; 5453.799;   -9.214; 9381.347
827.513; 5242.970;  -10.774; 9450.726
828.079; 5182.250;  -11.924; 9472.444
828.645; 5271.605;  -10.543; 9292.643
829.210; 5496.483;  -10.533; 9065.341
829.776; 5518.744;  -10.753; 9132.620
830.341; 5412.433;  -10.173; 9092.878
830.906; 5510.397;  -10.743; 9078.557
831.472; 5375.929;  -11.113; 8534.535
832.037; 4869.380;  -10.603; 8677.874
832.602; 4808.891;  -13.323; 8628.692
833.167; 5178.306;  -10.823; 8879.031
833.733; 5143.514;  -10.113; 9189.790
834.298; 4861.002;  -13.583; 9052.608
834.863; 4723.292;  -12.703; 8895.087
835.428; 4600.887;  -10.523; 8824.266
835.993; 4553.777;   -6.963; 8845.385
836.558; 4653.396;  -10.763; 8888.563
837.123; 4773.694;   -9.903; 8966.582
837.688; 4621.697;   -9.913; 8617.860
838.253; 4474.192;  -10.283; 8590.699
838.817; 4599.912;  -12.963; 8443.797
839.382; 4778.454;  -14.243; 8799.356
839.947; 4692.738;  -10.733; 8810.595
840.511; 4767.595;   -9.383; 8796.394
841.076; 4778.156;  -12.563; 8347.231
841.641; 4572.181;  -12.953; 8224.330
842.205; 4296.426;   -7.043; 8223.349
842.770; 4257.700;   -8.163; 8622.107
843.334; 4292.024;  -12.503; 8410.386
843.898; 4250.568;  -11.693; 8337.465
844.463; 4143.695;  -10.203; 8506.283
845.027; 4051.299;   -9.533; 8280.962
845.591; 4090.432;  -13.443; 8231.141
846.156; 3997.962;  -13.143; 7969.179
846.720; 3811.857;   -9.433; 7768.278
847.284; 3536.415;  -11.033; 7630.957
847.848; 3384.556;  -10.403; 7472.395
848.412; 3391.195;  -11.553; 7437.394
848.976; 3574.593;   -8.393; 7674.592
849.540; 3611.040;   -8.713; 7836.011
850.104; 3591.577;  -12.463; 7913.669
850.668; 3727.023;  -12.973; 7694.508
851.232; 3766.443;  -10.793; 7756.887
851.796; 3680.060;  -10.662; 7926.545
852.359; 3710.413;  -13.082; 7827.844
852.923; 3468.402;  -12.192; 7641.163
853.487; 3403.690;  -11.912; 7342.501
854.050; 3576.083;  -10.892; 7042.820
854.614; 3560.986;  -13.992; 7151.338
855.177; 3436.301;  -11.732; 7105.077
855.741; 3344.383;   -8.962; 6989.675
856.304; 3226.948;   -9.442; 6596.634
856.868; 2982.220;  -14.192; 6356.272
857.431; 2758.869;  -12.702; 6468.571
857.995; 2794.872;   -9.942; 6373.210
858.558; 2829.058;   -9.112; 6324.448
859.121; 2654.854;  -12.932; 6408.327
859.684; 2608.251;  -13.442; 6347.886
860.247; 3035.307;  -10.632; 6321.264
860.810; 3366.382;  -11.272; 6301.903
861.374; 3388.998;   -9.832; 6607.881
861.937; 3363.147;  -11.762; 6408.200
862.500; 3213.029;   -9.722; 6572.639
863.062; 2901.306;  -10.512; 6387.297
863.625; 2795.721;  -11.232; 6190.836
864.188; 2805.304;  -14.112; 5807.254
864.751; 2812.626;  -11.302; 5682.413
865.314; 2924.983;  -10.112; 5547.492
865.876; 2941.219;  -12.182; 5500.150
866.439; 2842.966;  -10.722; 5415.909
867.002; 2683.742;   -9.252; 5501.567
867.564; 2577.572;   -9.572; 5413.946
868.127; 2448.856;  -13.142; 5160.325
868.689; 2162.342;  -12.902; 5133.183
869.252; 2030.718;   -9.732; 5252.382
869.814; 2046.689;   -9.432; 5297.141
870.377; 2160.146;  -11.552; 5390.919
870.939; 2145.790;   -9.052; 5599.898
871.501; 2076.472;  -10.982; 5248.336
872.063; 2107.300;  -12.292; 4854.235
872.626; 2118.923;  -14.912; 4817.074
873.188; 2127.186;  -13.112; 4987.732
873.750; 2088.098;  -13.442; 4868.651
874.312; 2203.163;   -9.402; 4779.330
874.874; 2479.424;  -11.062; 4866.348
875.436; 2497.518;  -13.931; 4718.887
875.998; 2196.712;   -9.561; 4660.005
876.560; 1900.418;  -11.321; 4462.964
877.122; 1621.709;  -12.221; 4145.042
877.683; 1265.292;  -12.191; 4056.481
878.245; 1065.373;  -12.101; 3950.740
878.807; 1054.867;   -8.971; 4058.958
879.369; 1143.022;  -12.071; 3954.677
879.930; 1220.847;  -14.621; 3941.495
880.492; 1195.241;  -10.311; 4067.014
881.053; 1136.787;  -10.901; 3859.633
881.615; 1174.208;  -14.411; 3776.071
882.176; 1244.632;  -13.761; 3734.750
882.738; 1297.258;   -9.181; 3678.489
883.299; 1294.848;  -11.791; 3405.407
883.860; 1249.714;  -13.121; 3351.106
884.422; 1166.691;  -11.211; 3394.044
884.983; 1103.887;  -10.091; 3166.443
885.544; 1090.783;   -8.461; 3189.802
886.105; 1045.439;  -12.361; 3160.360
886.666;  978.162;  -14.141; 3093.059
887.227;  953.043;  -11.361; 2941.957
887.788;  970.087;  -11.401; 2974.836
888.349;  929.299;  -13.791; 2721.214
888.910;  841.265;  -13.191; 2696.493
889.471;  745.972;   -9.881; 2560.172
890.032;  675.732;   -9.881; 2558.190
890.593;  677.207;  -10.371; 2567.669
891.153;  679.107;  -13.301; 2460.307
891.714;  621.867;  -11.431; 2372.046
892.275;  574.086;  -11.291; 2309.505
892.835;  559.406;  -11.471; 2382.543
893.396;  550.756;  -11.541; 2295.502
893.956;  547.720;  -11.181; 2162.420
894.517;  537.113;  -11.741; 2125.439
895.077;  493.854;  -11.671; 2086.978
895.638;  444.903;  -11.311; 2126.316
896.198;  424.747;   -9.831; 1838.275
896.758;  425.682;   -8.421; 1892.813
897.319;  417.995;  -12.351; 1792.232
897.879;  400.583;  -13.511; 1762.751
898.439;  375.137;  -12.001; 1661.149
898.999;  356.634;  -10.180; 1781.468
899.559;  340.990;  -12.030; 1703.347
900.119;  333.694;  -15.710; 1537.525
900.679;  313.166;   -8.900; 1638.384
901.239;  284.734;   -8.340; 1527.902
901.799;  271.729;  -13.910; 1456.441
902.359;  262.896;  -13.460; 1357.140
902.919;  257.474;  -11.490; 1331.118
903.479;  255.194;  -12.110; 1317.257
904.038;  247.980;  -11.720; 1262.595
904.598;  231.591;  -13.610; 1152.034
905.158;  221.443;  -11.040; 1240.893
905.717;  214.858;  -10.900; 1233.691
906.277;  210.347;  -15.080; 1217.330
906.836;  207.737;  -13.380; 1222.408
907.396;  205.616;  -10.780; 1193.047
907.955;  198.972;   -8.500; 1182.526
908.515;  191.122;  -12.760; 1099.364
909.074;  187.336;  -11.900; 1092.863
909.633;  184.787;   -8.950; 1069.121
910.192;  181.206;   -8.770; 1196.460
910.752;  176.546;  -12.390; 1029.960
911.311;  173.751;  -13.680; 1009.780
911.870;  169.240;  -12.370;  971.460
912.429;  165.591;  -10.900; 1094.080
912.988;  162.879;  -11.690; 1081.060
913.547;  159.444;  -13.240;  940.380
914.106;  159.034;  -11.990;  999.420
914.665;  159.028;   -9.990;  984.020
915.224;  156.551;  -12.880; 1035.760
915.782;  154.064;  -12.350;  922.560
916.341;  153.429;   -9.110; 1049.840
916.900;  147.932;   -9.270;  925.260
917.458;  144.301;  -13.240;  884.220
918.017;  143.271;  -13.550;  942.600
918.576;  143.668;  -12.320;  904.440
919.134;  144.379;  -11.490;  837.980
919.693;  142.780;  -13.670;  893.060
920.251;  142.288;  -15.470;  876.500
920.809;  141.585;  -11.290;  839.580
921.368;  142.645;  -10.210;  885.360
921.926;  141.677;  -12.140;  842.940
922.484;  141.281;  -13.080;  903.360
923.042;  141.593;  -11.720;  880.340
923.601;  142.658;   -7.480;  998.680
924.159;  140.914;  -11.570;  935.560
924.717;  140.675;  -13.840;  841.080
925.275;  142.436;  -10.640;  903.240
925.833;  140.394;  -11.540;  779.320
926.391;  141.519;  -12.960;  938.380
926.949;  140.773;  -14.130;  857.680
927.506;  143.241;  -11.750;  903.500
928.064;  140.652;  -10.250;  877.580
928.622;  139.343;  -13.030;  880.100
929.180;  141.443;  -13.400;  814.180
929.737;  143.165;  -10.700;  808.540
930.295;  144.452;  -10.070;  928.480
930.853;  143.268;  -11.960;  849.100
931.410;  142.984;  -13.120;  821.120
931.968;  143.761;  -10.770;  940.660
932.525;  145.790;  -10.680;  909.380
933.082;  147.434;  -13.130;  811.440
933.640;  152.963;  -13.210;  925.900
934.197;  153.517;  -11.060;  886.360
934.754;  153.642;   -9.580;  897.780
935.312;  153.916;  -14.000;  863.340
935.869;  157.549;  -10.710; 1012.980
936.426;  155.611;   -9.860;  872.800
936.983;  155.000;   -9.710;  889.020
937.540;  153.134;  -13.990;  838.280
938.097;  153.126;  -14.040;  940.120
938.654;  155.868;  -10.310;  898.860
939.211;  156.799;  -10.560;  952.480
939.768;  155.247;  -13.900;  915.420
940.324;  156.777;  -14.760;  904.200
940.881;  161.236;  -10.370;  878.500
941.438;  167.540;   -8.260; 1021.200
941.995;  168.143;  -12.540;  992.560
942.551;  166.707;  -14.670;  875.620
943.108;  167.557;  -10.450;  937.920
943.664;  167.385;  -10.750;  869.340
944.221;  172.201;  -11.550; 1088.140
944.777;  174.144;  -14.770;  869.680
945.334;  174.236;  -12.820;  884.840
945.890;  171.890;  -10.130;  946.480
946.446;  168.499;  -13.470;  947.020
947.003;  168.676;  -12.120;  964.940
947.559;  169.161;   -9.980; 1063.040
948.115;  164.784;   -9.080; 1026.540
948.671;  160.959;  -10.830;  967.300
949.227;  159.686;  -12.440;  859.560
949.783;  160.547;  -12.910;  858.900
950.339;  162.851;  -10.270;  991.000
950.895;  162.632;  -13.630; 1023.840
951.451;  161.927;  -15.100;  925.280
952.007;  163.361;  -11.330;  998.540
952.563;  159.745;  -10.580;  937.780
953.118;  154.963;  -13.440;  904.940
953.674;  152.955;  -12.710;  935.780
954.230;  155.298;  -10.350;  949.640
954.785;  158.339;   -9.190;  936.640
955.341;  160.567;  -11.200;  998.160
955.897;  156.974;  -16.560;  834.660
956.452;  155.252;  -12.570;  953.840
957.008;  151.853;   -7.970; 1083.640
957.563;  150.523;  -11.940; 1009.540
958.118;  148.785;  -13.450;  877.700
958.674;  149.405;  -12.030;  946.780
959.229;  150.248;   -9.410; 1013.980
959.784;  146.787;  -12.000;  832.400
960.339;  144.285;  -14.780; 1001.280
960.894;  139.589;   -9.860;  963.760
961.449;  133.945;   -9.970;  859.960
962.004;  132.095;  -10.900; 1212.840
962.559;  126.332;  -13.150;  860.140
963.114;  125.420;  -13.740;  742.480
963.669;  126.564;   -9.820;  915.500
964.224;  124.154;  -13.890;  874.340
964.779;  124.433;  -12.600;  828.420
965.334;  126.410;  -10.950; 1017.860
965.888;  124.358;  -11.170;  875.360
966.443;  124.185;  -12.540;  972.380
966.998;  125.008;  -15.780;  819.460
967.552;  124.998;   -9.760;  908.380
968.107;  119.710;   -9.060;  868.300
968.661;  116.725;  -11.950;  922.440
969.216;  117.258;  -12.800;  856.280
969.770;  117.037;  -11.210;  917.200
970.324;  114.345;  -11.610;  923.140
970.879;  111.658;  -11.370;  947.180
971.433;  111.311;  -12.540;  952.720
971.987;  109.676;  -11.320;  895.340
972.541;  109.434;  -10.720;  917.100
973.095;  109.607;   -9.680; 1009.460
973.649;  108.690;  -11.440;  809.480
974.203;  108.940;  -11.210;  829.040
974.757;  109.063;  -10.240;  855.220
975.311;  108.723;  -13.720;  872.600
975.865;  109.455;  -13.770;  881.820
976.419;  108.752;  -11.690;  857.400
976.973;  108.029;   -9.510;  849.620
977.526;  108.072;  -12.620;  949.920
978.080;  104.368;  -12.010;  796.780
978.634;  103.928;  -10.170;  921.320
979.187;  100.122;   -9.020;  905.400
979.741;   99.462;   -9.820; 1018.380
980.294;   94.691;  -14.870;  789.160
980.848;   91.969;  -12.380;  717.220
981.401;   90.780;  -10.350;  816.540
981.955;   90.149;  -13.720;  844.300
982.508;   87.048;  -11.490;  746.340
983.061;   88.092;  -10.000;  915.260
983.615;   86.756;  -11.480;  798.800
984.168;   85.069;  -13.220;  770.080
984.721;   86.308;  -13.960;  880.760
985.274;   84.300;  -10.870;  867.500
985.827;   83.088;   -9.790;  834.220
986.380;   80.112;  -13.120;  721.340
986.933;   81.082;  -12.450;  864.800
987.486;   81.753;  -10.210;  861.920
988.039;   80.593;   -8.430;  863.100
988.591;   77.235;  -10.520;  893.260
989.144;   73.562;  -14.860;  737.260
989.697;   72.003;  -13.080;  758.740
990.250;   71.338;  -10.150;  858.100
990.802;   68.697;  -13.430;  755.860
991.355;   68.466;  -12.750;  974.880
991.907;   66.230;  -12.040;  864.320
992.460;   63.995;  -11.330;  753.760
993.012;   62.239;  -13.610;  749.540
993.565;   61.854;  -13.460;  711.360
994.117;   63.412;   -9.360;  950.780
994.669;   61.405;  -11.300;  701.320
995.221;   59.950;  -13.540;  791.920
995.774;   59.729;  -13.430;  787.580
996.326;   58.685;  -12.520;  740.220
996.878;   59.224;  -10.950;  838.420
997.430;   55.708;  -14.300;  699.860
997.982;   54.859;  -13.760;  750.140
998.534;   54.492;  -11.530;  739.060
999.086;   53.596;  -10.310;  738.220
999.638;   52.213;  -12.530;  661.380
1000.190;   50.883;  -11.840;  699.320
1000.741;   51.093;  -10.260;  742.700
1001.293;   51.005;   -8.860;  686.020
1001.845;   49.768;  -13.700;  676.640
1002.396;   50.763;  -12.100;  743.400
1002.948;   49.819;  -12.760;  737.400
1003.500;   47.903;  -10.380;  723.780
1004.051;   48.004;  -11.900;  907.580
1004.603;   46.692;  -12.250;  791.820
1005.154;   44.129;  -13.210;  608.980
1005.705;   43.352;  -10.950;  723.960
1006.257;   42.001;  -13.880;  707.220
1006.808;   41.618;  -12.840;  685.460
1007.359;   42.626;  -10.570;  763.240
1007.910;   40.147;   -9.620;  646.640
1008.461;   39.998;  -13.630;  732.940
1009.013;   38.338;  -17.200;  588.340
1009.564;   41.201;  -10.200;  793.520
1010.115;   38.716;  -12.570;  597.040
1010.665;   38.054;  -15.150;  602.160
1011.216;   38.096;  -14.480;  667.920
1011.767;   38.188;  -11.340;  697.920
1012.318;   38.233;   -9.780;  736.980
1012.869;   36.803;  -12.380;  679.000
1013.419;   36.060;  -15.560;  603.120
1013.970;   37.507;  -11.010;  666.640
1014.521;   35.876;  -11.610;  620.620
1015.071;   35.664;  -13.450;  670.380
1015.622;   36.193;  -13.870;  635.460
1016.172;   34.643;  -11.610;  596.820
1016.723;   34.783;  -12.120;  614.380
1017.273;   33.862;  -13.620;  604.160
1017.823;   34.694;  -14.140;  650.340
1018.374;   34.335;  -12.800;  611.760
1018.924;   34.005;  -12.340;  716.880
1019.474;   33.842;  -11.410;  718.880
1020.024;   32.872;  -14.770;  657.580
1020.574;   34.072;   -9.780;  726.160
1021.124;   34.020;   -8.560;  673.580
1021.674;   31.654;  -15.190;  559.120
1022.224;   33.700;  -13.530;  708.940
1022.774;   32.900;  -13.280;  668.820
1023.324;   33.499;  -10.690;  753.520
1023.874;   33.796;  -10.240;  875.760
1024.423;   31.375;  -12.540;  613.700
1024.973;   31.711;  -10.010;  610.760
1025.523;   30.602;  -10.550;  620.960
1026.072;   30.208;  -13.560;  606.420
1026.622;   30.281;  -15.120;  675.740
1027.172;   31.682;  -11.260;  715.660
1027.721;   29.764;  -11.410;  601.220
1028.270;   30.287;  -13.530;  663.400
1028.820;   29.841;  -13.680;  638.080
1029.369;   30.935;  -13.520;  612.700
1029.918;   30.141;  -10.980;  649.840
1030.468;   29.576;  -13.530;  564.780
1031.017;   29.647;  -13.170;  634.800
1031.566;   29.102;  -12.200;  608.900
1032.115;   29.549;   -9.960;  694.500
1032.664;   27.483;  -13.210;  596.480
1033.213;   28.828;  -12.500;  735.420
1033.762;   28.632;  -11.910;  635.620
1034.311;   28.368;   -9.640;  677.220
1034.860;   27.984;  -13.310;  691.000
1035.408;   28.585;  -11.830;  722.720
1035.957;   28.636;  -12.000;  719.540
1036.506;   26.293;  -11.690;  530.800
1037.055;   28.746;  -10.990;  844.320
1037.603;   26.944;  -15.120;  664.000
1038.152;   25.885;  -12.450;  534.760
1038.700;   26.660;  -10.560;  585.740
1039.249;   25.732;  -11.080;  681.220
1039.797;   26.154;  -12.540;  633.360
1040.345;   27.058;  -11.920;  705.420
1040.894;   26.163;  -11.410;  625.300
1041.442;   25.619;  -14.320;  632.200
1041.990;   24.442;  -16.240;  559.160
1042.538;   24.877;  -11.680;  536.180
1043.087;   24.806;  -10.760;  570.860
1043.635;   25.191;  -11.850;  670.500
1044.183;   24.289;  -15.480;  586.400
1044.731;   24.938;  -11.770;  576.000
1045.279;   24.690;  -13.090;  674.920
1045.827;   25.839;  -12.440;  892.400
1046.374;   22.737;  -13.840;  515.420
1046.922;   23.570;  -13.220;  590.580
1047.470;   24.637;  -10.230;  691.300
1048.018;   23.518;  -14.590;  647.960
1048.565;   25.093;  -12.050;  708.600
1049.113;   23.873;  -11.650;  557.000
1049.660;   23.106;  -10.510;  629.660
1050.208;   23.034;  -13.310;  675.640
1050.755;   21.998;  -15.900;  606.580
1051.303;   23.548;  -11.430;  686.820
1051.850;   22.655;   -8.480;  635.120
1052.397;   20.480;  -15.010;  473.960
1052.945;   21.837;  -13.960;  617.760
1053.492;   23.487;  -13.150;  741.840
1054.039;   22.422;   -9.630;  720.180
1054.586;   21.056;  -13.680;  557.240
1055.133;   22.211;  -14.570;  693.140
1055.680;   22.467;  -13.820;  646.620
1056.227;   21.012;  -11.730;  542.780
1056.774;   23.142;  -12.480;  794.980
1057.321;   20.737;  -13.930;  523.260
1057.868;   21.650;  -11.690;  651.320
1058.415;   20.193;   -9.520;  651.980
1058.961;   20.876;  -13.160;  678.940
1059.508;   19.840;  -12.920;  643.820
1060.055;   20.023;  -11.920;  581.780
1060.601;   21.181;  -11.500;  624.300
1061.148;   19.862;  -14.330;  616.820
1061.694;   19.156;  -16.870;  592.580
1062.241;   20.697;  -10.330;  596.320
1062.787;   20.271;  -10.620;  663.140
1063.334;   21.174;  -10.110;  808.560
1063.880;   19.527;  -13.400;  668.360
1064.426;   20.440;  -10.680;  706.820
1064.972;   18.335;   -9.920;  601.340
1065.518;   17.680;  -10.980;  566.640
1066.065;   18.808;  -14.890;  624.460
1066.611;   18.527;  -12.870;  598.800
1067.157;   19.464;  -12.950;  641.860
1067.703;   18.289;  -13.540;  668.480
1068.249;   18.882;  -13.540;  605.220
1068.794;   18.727;  -12.600;  626.880
1069.340;   17.056;  -10.620;  578.960
1069.886;   17.558;  -12.830;  590.700
1070.432;   16.655;  -14.870;  541.720
1070.977;   16.949;  -11.980;  601.080
1071.523;   17.742;   -8.200;  573.060
1072.068;   17.140;  -12.330;  582.000
1072.614;   16.295;  -16.370;  527.760
1073.160;   18.158;  -11.100;  687.040
1073.705;   16.401;  -10.480;  572.520
1074.250;   16.500;  -14.520;  559.900
1074.796;   17.433;  -11.460;  655.160
1075.341;   18.432;  -11.950;  664.100
1075.886;   16.634;  -11.460;  594.240
1076.431;   16.235;  -13.770;  649.880
1076.976;   16.141;  -12.680;  639.220
1077.521;   15.811;  -13.170;  583.080
1078.067;   15.938;  -10.860;  579.400
1078.612;   15.850;  -13.920;  661.620
1079.156;   15.702;  -13.880;  601.540
1079.701;   16.099;  -13.120;  693.260
1080.246;   16.053;   -9.940;  696.300
1080.791;   15.501;  -14.740;  625.020
1081.336;   16.025;  -13.750;  659.320
1081.880;   15.506;  -13.400;  649.680
1082.425;   14.374;  -12.220;  573.480
1082.970;   16.357;  -11.610;  717.040
1083.514;   13.662;  -13.580;  597.000
1084.059;   14.275;  -12.810;  586.720
1084.603;   14.238;  -12.320;  565.840
1085.147;   14.498;  -13.190;  645.220
1085.692;   15.111;  -12.480;  716.800
1086.236;   13.497;  -13.020;  503.140
1086.780;   15.781;   -9.190;  751.440
1087.325;   14.399;  -12.480;  654.620
1087.869;   14.152;  -12.450;  610.700
1088.413;   15.114;  -12.240;  705.040
1088.957;   12.413;   -9.020;  543.400
1089.501;   13.729;  -10.320;  766.640
1090.045;   13.469;  -12.720;  726.480
1090.589;   11.979;  -13.690;  569.920
1091.133;   13.691;  -10.020;  673.340
1091.676;   12.567;  -12.330;  591.940
1092.220;   12.261;  -14.970;  600.920
1092.764;   13.921;  -12.430;  706.960
1093.307;   13.400;   -9.800;  673.780
1093.851;   11.755;  -14.970;  556.540
1094.395;   12.285;  -15.310;  683.140
1094.938;   13.384;  -10.370;  632.520
1095.482;   12.324;  -11.050;  559.800
1096.025;   12.703;  -11.840;  710.880
1096.568;   13.491;  -12.840;  779.280
1097.112;   10.826;  -14.700;  508.180
1097.655;   12.164;   -8.720;  603.000
1098.198;   10.259;  -13.610;  600.180
1098.741;   11.193;  -13.350;  612.860
1099.285;   11.838;  -11.230;  657.300
1099.828;   10.179;  -11.840;  439.400
1100.371;   11.165;  -10.840;  608.160
1100.914;   10.848;  -14.190;  682.660
1101.457;   11.709;  -11.240;  679.900
1101.999;   10.117;  -11.270;  584.680
1102.542;   11.142;  -11.480;  641.440
1103.085;   10.768;  -11.750;  658.500
1103.628;   12.080;  -11.400;  762.060
1104.170;   10.402;  -10.490;  588.280
1104.713;   10.294;  -10.600;  646.700
1105.256;    9.931;  -14.360;  557.440
1105.798;    8.716;  -13.210;  499.980
1106.341;   11.888;  -10.270;  728.900
1106.883;    9.790;  -12.200;  521.340
1107.425;    9.753;  -13.110;  668.180
1107.968;    9.518;  -12.840;  612.380
1108.510;   10.193;   -6.480;  684.960
1109.052;    8.204;  -13.940;  612.620
1109.594;    8.825;  -13.690;  554.440
1110.136;    9.754;  -11.880;  643.220
1110.679;    8.841;   -9.500;  633.080
1111.221;    9.362;  -14.160;  604.460
1111.763;    8.500;  -13.980;  559.220
1112.304;    8.834;  -13.880;  547.140
1112.846;    8.988;  -12.210;  666.240
1113.388;   11.356;  -11.390;  942.180
1113.930;    8.912;  -14.540;  694.200
1114.472;    8.346;  -12.640;  606.540
1115.013;    7.041;  -11.620;  551.280
1115.555;    7.323;  -13.640;  587.100
1116.097;    6.654;  -15.380;  579.480
1116.638;    7.934;  -12.640;  684.600
1117.180;    8.883;   -9.850;  667.740
1117.721;    7.540;  -13.690;  568.580
1118.262;    8.088;  -12.680;  677.960
1118.804;    8.581;  -12.530;  637.340
1119.345;    6.939;  -11.690;  578.400
1119.886;    7.650;  -13.380;  704.040
1120.427;    7.461;  -14.070;  589.020
1120.969;    6.761;  -13.500;  597.920
1121.510;    6.169;  -11.480;  563.060
1122.051;    6.603;  -12.830;  723.580
1122.592;    5.985;  -14.290;  655.420
1123.133;    5.635;  -12.400;  547.940
1123.673;    7.478;  -10.130;  706.480
1124.214;    6.743;  -12.930;  612.460
1124.755;    6.900;  -14.380;  639.460
1125.296;    7.262;  -14.000;  627.320
1125.836;    7.418;  -10.070;  691.500
1126.377;    5.696;  -12.640;  599.660
1126.918;    6.673;  -12.960;  614.980
1127.458;    5.599;  -13.350;  622.220
1127.999;    6.554;  -10.750;  656.980
1128.539;    6.489;  -12.350;  694.240
1129.079;    5.358;  -14.860;  632.720
1129.620;    5.256;  -13.840;  558.100
1130.160;    5.034;  -12.330;  539.480
1130.700;    5.606;  -14.530;  640.840
1131.240;    5.545;  -12.530;  643.700
1131.781;    4.988;  -14.450;  619.680
1132.321;    5.870;   -9.790;  599.120
1132.861;    3.614;  -14.860;  564.200
1133.401;    4.149;  -14.290;  593.940
1133.941;    5.354;  -11.750;  626.280
1134.481;    4.476;   -9.920;  597.580
1135.020;    3.268;  -12.290;  609.160
1135.560;    4.461;  -11.650;  674.940
1136.100;    3.890;  -16.270;  501.160
1136.640;    3.895;  -10.890;  510.480
1137.179;    4.218;  -14.180;  537.960
1137.719;    3.877;  -16.250;  605.400
1138.258;    4.532;  -14.230;  587.360
1138.798;    4.603;   -9.090;  663.780
1139.337;    3.273;  -15.130;  482.840
1139.877;    4.142;  -13.680;  642.360
1140.416;    5.430;  -11.320;  878.060
1140.955;    3.005;  -10.860;  535.380
1141.494;    2.932;  -12.920;  669.280
1142.034;    2.481;  -13.930;  583.520
1142.573;    4.252;  -11.440;  646.280
1143.112;    2.827;  -12.000;  553.480
1143.651;    2.682;  -13.670;  536.480
1144.190;    4.098;  -12.730;  691.640
1144.729;    3.439;  -14.560;  607.420
1145.267;    3.623;  -11.830;  584.900
1145.806;    3.800;  -12.230;  637.040
1146.345;    2.134;  -14.130;  635.020
1146.884;    3.211;  -11.590;  622.500
1147.422;    2.367;  -12.550;  533.060
1147.961;    4.162;  -11.180;  708.460
1148.500;    3.299;  -11.510;  669.720
1149.038;    3.761;  -11.640;  632.500
1149.577;    3.563;  -10.130;  698.640
1150.115;    0.883;  -13.970;  452.280
1150.653;    2.529;  -14.520;  607.340
1151.192;    2.788;  -12.810;  552.920
1151.730;    3.028;   -9.100;  652.560
1152.268;    1.783;  -12.220;  589.520
1152.806;    1.906;  -14.140;  571.180
1153.344;    1.016;  -12.350;  577.640
1153.882;    2.259;   -8.980;  600.060
1154.421;    0.677;  -15.190;  470.620
1154.958;    0.691;  -15.210;  595.240
1155.496;    3.047;  -12.850;  645.280
1156.034;    1.840;   -9.940;  721.880
1156.572;    2.554;  -13.570;  667.060
1157.110;   -0.179;  -14.590;  473.940
1157.647;    2.316;  -13.030;  676.960
1158.185;    0.911;  -12.140;  564.320
1158.723;    0.378;  -14.390;  509.200
1159.260;    1.037;  -14.090;  701.700
1159.798;    2.226;  -11.920;  658.160
1160.335;    1.126;  -11.110;  631.820

