
Integration time [ms]:   3.276
Averaging Nr. [scans]: 1000
Smoothing Nr. [pixels]: 0
Data measured with spectrometer [name]: 7414430SP
Wave   ;Sample   ;Dark     ;Reference
[nm]   ;[counts] ;[counts] ;[counts] 

288.544;  158.817;    7.793;  793.890
289.143;  162.221;    7.462;  681.602
289.742;  161.705;    8.602;  828.814
290.341;  149.737;    1.321;  789.841
290.940;  140.404;   -0.709;  730.702
291.538;  141.442;    0.881;  881.108
292.137;  140.977;    0.122;  792.581
292.736;  143.008;   -1.929;  975.101
293.335;  139.870;   -8.229;  735.086
293.934;  141.078;   -5.279;  781.677
294.532;  140.940;   -1.369; 1031.958
295.131;  127.777;   -7.641;  834.394
295.730;  127.667;   -8.420;  809.588
296.328;  123.831;   -5.611;  783.442
296.927;  123.555;   -5.781;  779.652
297.525;  125.903;   -6.361;  781.236
298.124;  117.016;  -11.382;  654.009
298.722;  120.096;   -7.641;  761.933
299.321;  118.439;   -6.811;  708.597
299.919;  114.014;   -6.991;  751.918
300.518;  111.995;  -10.362;  689.338
301.116;  114.362;   -9.581;  691.381
301.715;  114.207;   -4.891;  730.222
302.313;  112.538;   -8.801;  704.943
302.911;  108.004;   -8.522;  733.830
303.509;  113.559;   -6.171;  925.627
304.108;  110.178;   -7.311;  760.383
304.706;  109.944;   -8.321;  801.664
305.304;  104.891;  -10.222;  796.707
305.902;  109.445;   -6.021;  784.484
306.500;  105.857;   -4.971;  728.200
307.098;  103.578;   -7.061;  746.560
307.696;  103.086;   -8.801;  780.432
308.294;  102.377;   -6.411;  731.359
308.892;  103.750;   -2.901;  759.769
309.490;  100.419;   -5.041;  712.161
310.088;   98.479;   -5.002;  788.444
310.686;  102.566;   -2.041;  821.749
311.284;   98.469;   -2.351;  766.040
311.882;   96.102;   -4.422;  731.225
312.480;   93.189;   -4.192;  697.167
313.078;   94.057;   -1.172;  808.331
313.675;   94.459;   -2.601;  691.600
314.273;   89.226;   -1.312;  797.837
314.871;   89.500;   -3.942;  589.829
315.468;   87.809;   -2.802;  652.090
316.066;   89.456;   -0.701;  694.427
316.664;   82.459;   -4.362;  656.351
317.261;   86.774;   -2.872;  910.128
317.859;   81.720;   -2.022;  768.735
318.456;   82.625;   -0.531;  830.096
319.054;   79.072;   -3.912;  787.828
319.651;   78.298;   -4.752;  759.928
320.249;   76.480;   -2.602;  810.188
320.846;   73.898;   -0.821;  714.286
321.443;   71.977;   -4.642;  832.135
322.041;   68.934;   -5.002;  812.315
322.638;   66.014;   -3.982;  701.456
323.235;   67.196;   -3.411;  665.683
323.833;   64.227;   -7.361;  740.354
324.430;   59.668;   -8.611;  615.900
325.027;   60.692;   -4.061;  876.855
325.624;   60.161;   -4.031;  644.532
326.221;   57.340;   -7.481;  689.717
326.818;   56.559;   -5.281;  818.332
327.415;   59.529;   -7.460;  748.828
328.012;   59.000;   -5.510;  690.585
328.609;   57.767;   -7.880;  731.389
329.206;   57.081;   -8.331;  778.621
329.803;   56.652;   -5.121;  737.841
330.400;   58.267;   -4.510;  704.260
330.997;   59.273;   -6.441;  817.147
331.594;   57.579;   -8.831;  788.185
332.191;   63.481;   -7.621;  728.722
332.787;   66.431;   -4.591;  844.463
333.384;   66.672;   -7.412;  763.093
333.981;   65.948;   -8.293;  815.687
334.578;   68.650;   -7.052;  708.378
335.174;   70.283;   -3.102;  731.469
335.771;   69.154;   -5.943;  836.456
336.367;   67.207;   -7.393;  710.631
336.964;   72.674;   -4.063;  793.266
337.561;   68.883;   -3.813;  731.112
338.157;   65.536;   -4.654;  911.916
338.754;   64.254;   -7.934;  796.589
339.350;   62.011;   -4.414;  722.493
339.946;   64.333;   -4.664;  773.135
340.543;   55.638;   -6.375;  846.136
341.139;   49.508;   -9.815;  720.836
341.735;   46.848;   -4.526;  772.593
342.332;   45.681;   -4.895;  691.472
342.928;   46.178;   -4.295;  795.394
343.524;   39.850;   -5.476;  761.684
344.120;   36.000;   -5.856;  738.562
344.716;   38.793;   -2.155;  723.717
345.313;   36.744;   -6.275;  795.342
345.909;   31.636;   -8.815;  627.336
346.505;   33.222;   -5.305;  740.247
347.101;   33.135;   -2.674;  827.864
347.697;   33.268;   -4.344;  785.398
348.293;   27.996;   -9.975;  627.244
348.889;   29.035;   -5.774;  745.914
349.485;   28.345;   -5.004;  688.205
350.081;   29.671;   -4.704;  772.592
350.676;   23.851;   -6.635;  691.606
351.272;   28.470;   -4.504;  809.530
351.868;   27.656;   -3.914;  780.497
352.464;   25.461;   -9.044;  723.932
353.059;   21.636;   -8.314;  646.017
353.655;   24.822;   -7.024;  777.063
354.251;   25.433;   -5.343;  759.845
354.846;   20.407;   -8.604;  740.646
355.442;   18.081;   -6.945;  753.071
356.038;   19.898;   -7.564;  751.708
356.633;   20.479;   -5.814;  728.594
357.229;   17.392;   -7.364;  724.757
357.824;   16.506;   -8.024;  703.600
358.420;   15.617;   -9.384;  679.726
359.015;   15.919;   -5.104;  695.357
359.610;   16.644;   -6.854;  763.920
360.206;   10.431;  -10.185;  603.240
360.801;   13.996;   -7.054;  646.503
361.396;   16.040;   -5.034;  725.975
361.992;   11.040;   -8.284;  668.220
362.587;    8.532;   -8.625;  670.160
363.182;   10.492;   -7.674;  689.631
363.777;   11.054;   -5.164;  738.242
364.372;   11.366;   -8.604;  737.314
364.967;    6.368;   -9.055;  680.744
365.563;   11.124;   -6.114;  815.567
366.158;    8.494;   -5.814;  685.161
366.753;    8.406;   -7.854;  649.263
367.348;    7.533;   -7.804;  746.056
367.942;    7.203;   -7.954;  697.298
368.537;    5.879;   -4.984;  754.245
369.132;    6.649;   -8.564;  703.428
369.727;    2.627;   -8.855;  638.079
370.322;    3.190;   -6.245;  580.186
370.917;    2.965;   -6.425;  710.646
371.511;    6.161;   -6.294;  861.834
372.106;    2.319;   -7.685;  776.964
372.701;   -0.693;   -7.335;  585.988
373.296;    4.689;   -4.564;  863.135
373.890;   -0.265;  -10.235;  647.840
374.485;   -2.355;   -7.885;  691.199
375.079;    2.342;   -7.324;  738.685
375.674;    3.080;   -3.494;  812.970
376.268;   -1.806;   -8.525;  691.759
376.863;   -7.280;  -10.086;  580.327
377.457;   -0.500;   -7.025;  662.490
378.052;   -2.674;   -3.585;  764.884
378.646;   -3.836;   -7.595;  741.167
379.240;   -4.450;   -8.335;  721.176
379.835;   -3.362;   -5.785;  636.978
380.429;   -5.262;   -4.335;  562.557
381.023;   -5.112;   -6.805;  779.205
381.617;   -6.897;   -9.195;  680.106
382.212;   -4.303;   -6.905;  685.303
382.806;   -3.424;   -3.745;  760.690
383.400;   -7.325;   -7.745;  672.281
383.994;   -8.922;   -9.765;  664.870
384.588;   -4.217;   -6.564;  697.701
385.182;   -3.796;   -5.344;  726.624
385.776;   -5.098;   -8.514;  706.875
386.370;   -8.008;   -9.555;  681.968
386.964;   -7.333;   -8.715;  684.155
387.558;   -5.627;   -6.174;  598.360
388.152;   -9.105;   -8.725;  681.959
388.745;   -7.020;   -7.965;  814.707
389.339;   -5.538;   -5.924;  747.642
389.933;   -5.081;   -5.524;  695.370
390.527;   -5.849;   -7.114;  859.029
391.120;  -11.426;  -10.725;  595.318
391.714;   -9.030;   -8.035;  711.633
392.308;   -6.148;   -3.574;  780.253
392.901;   -9.403;   -7.245;  642.460
393.495;  -11.015;   -9.285;  595.414
394.089;   -9.394;   -5.895;  760.452
394.682;  -10.070;   -4.295;  697.188
395.275;  -10.090;   -9.875;  719.927
395.869;  -11.343;   -8.485;  667.314
396.462;   -9.295;   -7.455;  616.609
397.056;   -5.458;   -5.424;  776.621
397.649;  -10.463;   -6.605;  731.575
398.242;   -7.954;   -8.224;  712.645
398.836;   -7.546;   -7.474;  766.408
399.429;   -7.905;   -7.094;  631.041
400.022;  -12.445;   -9.475;  665.902
400.615;   -9.157;   -7.145;  805.609
401.208;   -6.972;   -7.174;  691.451
401.802;  -10.349;   -5.515;  699.329
402.395;  -11.183;   -9.875;  683.502
402.988;  -11.267;   -8.845;  696.627
403.581;   -7.247;   -8.874;  646.878
404.174;   -6.250;   -5.324;  686.568
404.767;   -9.278;   -9.575;  638.583
405.360;  -11.450;  -10.965;  621.445
405.953;   -6.300;   -8.764;  759.034
406.545;   -6.260;   -7.514;  725.342
407.138;  -10.203;  -10.025;  618.350
407.731;   -8.839;  -10.034;  613.303
408.324;   -4.532;   -9.374;  660.554
408.917;   -6.128;   -6.534;  681.864
409.509;   -6.814;   -8.004;  740.396
410.102;   -9.520;   -9.875;  643.948
410.695;   -3.076;   -8.604;  665.758
411.287;   -4.505;   -6.794;  599.821
411.880;   -6.092;   -9.334;  585.421
412.472;   -8.429;  -10.254;  613.092
413.065;   -5.330;   -6.714;  629.408
413.657;   -4.368;   -7.234;  576.678
414.250;   -3.662;  -10.544;  646.681
414.842;   -4.833;   -9.744;  676.353
415.434;   -3.040;   -6.994;  570.463
416.027;    0.713;   -5.893;  652.196
416.619;   -0.465;   -7.264;  713.400
417.211;   -0.172;  -10.374;  599.352
417.804;    2.218;   -7.993;  628.499
418.396;   -2.057;   -7.234;  607.643
418.988;   -0.187;   -9.443;  659.238
419.580;   -3.306;  -10.724;  568.276
420.172;   -0.158;  -10.323;  536.196
420.764;    4.028;   -8.793;  672.482
421.356;    1.965;  -11.143;  636.898
421.948;    0.956;   -8.293;  677.661
422.540;    7.028;   -7.893;  680.027
423.132;    6.188;   -7.082;  600.641
423.724;    2.501;   -8.653;  561.267
424.316;    4.895;  -10.213;  621.345
424.908;    8.181;   -9.762;  591.517
425.500;    8.001;   -5.572;  647.978
426.092;    9.101;   -8.422;  648.268
426.683;    8.295;   -9.283;  684.836
427.275;   11.655;   -7.852;  641.471
427.867;   12.549;   -5.272;  668.948
428.458;   13.479;   -7.682;  732.344
429.050;   11.936;  -10.612;  680.749
429.642;   14.105;   -9.882;  743.124
430.233;   13.796;   -6.962;  569.356
430.825;   16.257;   -6.842;  724.809
431.416;   13.424;   -9.672;  698.241
432.008;   17.276;   -6.552;  651.723
432.599;   17.187;   -6.891;  656.073
433.190;   14.532;  -10.912;  637.670
433.782;   15.039;  -11.172;  590.395
434.373;   21.417;   -6.061;  884.765
434.964;   19.960;   -8.251;  602.920
435.556;   17.701;   -9.722;  634.537
436.147;   20.287;   -9.082;  758.490
436.738;   20.883;   -8.041;  701.099
437.329;   25.660;   -7.341;  721.723
437.920;   18.602;   -8.162;  666.688
438.511;   18.942;  -11.802;  564.526
439.103;   25.793;  -10.191;  623.998
439.694;   27.769;   -7.601;  681.583
440.285;   27.720;   -8.541;  764.432
440.876;   26.978;   -9.751;  845.738
441.466;   25.909;   -9.401;  575.162
442.057;   31.254;   -7.760;  665.814
442.648;   29.301;   -9.971;  746.255
443.239;   28.303;  -11.001;  620.477
443.830;   33.517;   -7.990;  704.958
444.421;   35.161;   -7.910;  655.474
445.011;   31.188;   -8.131;  693.619
445.602;   32.009;   -7.111;  743.126
446.193;   33.967;  -10.920;  488.117
446.783;   36.569;   -6.500;  640.397
447.374;   33.270;   -8.671;  692.759
447.964;   33.878;  -10.781;  713.770
448.555;   42.693;   -9.650;  822.742
449.145;   38.892;   -8.660;  662.853
449.736;   40.572;   -8.990;  803.179
450.326;   40.092;   -9.500;  713.626
450.917;   45.162;   -8.680;  675.324
451.507;   44.046;   -7.520;  600.661
452.097;   45.267;   -8.590;  746.267
452.688;   46.216;  -11.340;  742.160
453.278;   46.390;  -10.100;  566.840
453.868;   50.368;   -6.019;  793.550
454.458;   47.894;   -9.440;  651.141
455.048;   48.286;  -10.560;  711.783
455.639;   50.373;  -11.799;  567.096
456.229;   53.577;   -6.899;  710.694
456.819;   55.765;   -7.389;  751.158
457.409;   56.386;  -11.119;  773.993
457.999;   59.162;   -9.289;  737.505
458.589;   59.352;   -6.139;  686.606
459.179;   58.936;   -8.729;  717.658
459.769;   57.494;   -9.789;  627.099
460.358;   62.258;  -10.259;  797.262
460.948;   61.872;   -7.299;  689.503
461.538;   63.763;  -10.289;  660.677
462.128;   61.675;  -11.269;  664.934
462.717;   68.696;   -9.368;  710.326
463.307;   71.666;   -7.908;  705.846
463.897;   66.416;   -9.599;  656.942
464.486;   66.426;   -9.769;  837.128
465.076;   71.984;   -8.048;  733.776
465.666;   74.693;   -9.358;  652.900
466.255;   72.440;   -7.919;  785.651
466.845;   71.295;  -11.689;  666.749
467.434;   76.309;   -7.818;  725.873
468.023;   76.002;   -7.678;  658.357
468.613;   73.694;  -10.939;  713.946
469.202;   77.577;  -10.118;  646.507
469.791;   83.516;   -9.108;  737.811
470.381;   84.075;   -6.058;  742.813
470.970;   83.875;  -10.428;  711.099
471.559;   83.659;  -10.268;  733.291
472.148;   87.100;   -8.448;  675.737
472.738;   89.816;   -6.917;  765.466
473.327;   89.188;  -11.978;  637.529
473.916;   89.720;  -11.888;  737.446
474.505;   93.443;   -9.437;  751.703
475.094;   96.711;   -6.747;  806.570
475.683;   95.752;   -9.367;  797.699
476.272;   96.969;  -12.637;  730.632
476.861;  100.013;  -10.027;  706.754
477.449;  106.195;   -8.716;  728.487
478.038;  100.869;   -9.577;  692.513
478.627;  102.372;   -9.718;  714.852
479.216;  109.281;   -8.947;  769.441
479.805;  112.384;   -6.256;  783.375
480.393;  112.075;   -7.937; 1008.945
480.982;  111.705;   -7.717;  874.501
481.571;  117.592;   -9.266;  858.333
482.159;  118.694;   -7.636;  705.386
482.748;  118.479;   -9.667;  821.385
483.336;  124.284;  -10.376;  858.209
483.925;  124.842;   -7.147;  774.373
484.513;  131.761;   -7.996;  758.962
485.102;  129.252;  -10.027;  810.965
485.690;  137.395;  -10.446; 1011.050
486.278;  139.307;   -8.446;  979.329
486.867;  139.654;   -6.356;  809.662
487.455;  142.806;   -9.136;  898.229
488.043;  144.441;  -10.646;  748.361
488.631;  153.592;   -7.456; 1005.079
489.220;  158.312;   -6.636;  908.626
489.808;  158.558;  -11.036;  741.415
490.396;  167.554;  -10.246;  914.645
490.984;  176.306;   -8.556;  830.161
491.572;  187.171;   -5.886;  940.315
492.160;  196.113;   -9.486;  919.081
492.748;  211.429;  -10.976;  884.341
493.336;  236.085;   -8.776; 1019.693
493.924;  268.329;   -5.465;  958.077
494.512;  307.958;   -9.986; 1066.638
495.100;  361.732;  -10.636; 1103.280
495.687;  431.451;  -10.885; 1206.373
496.275;  490.579;   -8.126; 1150.796
496.863;  567.181;  -10.586; 1281.171
497.451;  695.110;  -11.926; 1386.805
498.038;  815.018;  -10.885; 1556.729
498.626;  921.442;   -6.315; 1741.407
499.214; 1087.204;   -7.326; 2016.609
499.801; 1335.945;  -11.906; 2220.633
500.389; 1624.036;  -10.466; 2312.494
500.976; 1903.385;   -5.236; 2744.849
501.564; 2373.137;   -8.936; 3148.565
502.151; 2878.818;  -13.176; 3515.999
502.738; 3468.007;  -10.646; 3971.274
503.326; 3890.597;   -9.525; 4403.796
503.913; 4216.518;  -10.856; 5161.749
504.500; 4775.404;  -11.586; 5986.420
505.088; 5087.358;  -10.336; 6381.201
505.675; 5591.308;   -6.355; 6925.547
506.262; 6108.815;   -9.046; 7619.060
506.849; 6689.569;  -10.416; 8733.969
507.436; 7295.859;  -10.305; 9790.121
508.023; 7814.721;   -5.496; 9985.472
508.610; 8688.018;   -7.856;10434.618
509.197;10082.919;  -10.097;11198.435
509.784;11704.398;  -10.886;12391.194
510.371;13168.956;   -9.315;13603.713
510.958;14140.366;   -9.936;14426.586
511.545;14928.178;   -9.326;15243.775
512.132;15515.277;  -10.075;15945.876
512.719;15696.235;   -7.796;16340.369
513.305;16665.824;  -10.606;18011.766
513.892;18081.275;  -11.486;19754.971
514.479;19987.254;   -9.126;20967.805
515.066;21735.793;   -6.026;22299.793
515.652;21956.652;   -8.466;22908.660
516.239;23047.020;  -10.886;23798.875
516.825;25624.482;  -11.496;25567.275
517.412;27951.031;   -5.796;28154.959
517.998;29979.736;  -10.506;28344.111
518.585;29536.496;  -10.076;27134.219
519.171;28090.834;   -8.315;27268.576
519.758;29149.145;   -8.596;28964.129
520.344;30482.072;   -8.466;30664.494
520.930;33142.895;  -11.006;32550.605
521.516;33660.574;  -10.495;35422.895
522.103;31969.143;   -5.526;38280.004
522.689;32554.830;   -8.746;37835.117
523.275;34220.656;  -11.376;37288.613
523.861;36485.582;  -11.156;37281.395
524.447;40275.805;   -8.135;37846.949
525.033;41229.988;   -7.896;38321.949
525.619;40757.664;  -12.476;38579.285
526.205;41005.039;   -9.516;40622.875
526.791;40752.949;   -6.926;42258.836
527.377;41714.371;   -8.346;42966.902
527.963;43159.391;   -8.717;42018.949
528.549;42114.109;  -11.016;42476.828
529.135;42548.766;   -8.536;41854.852
529.721;42330.410;   -9.666;41237.711
530.306;40549.992;  -10.066;41259.445
530.892;40354.438;  -11.356;41506.047
531.478;39739.914;   -6.596;43559.613
532.063;40334.531;   -8.836;47695.563
532.649;44102.703;  -10.047;50808.324
533.235;45298.691;   -9.746;51787.500
533.820;44473.594;   -6.566;52145.035
534.406;43654.863;  -10.817;51133.488
534.991;46739.980;   -9.416;49996.805
535.576;47904.914;   -9.036;48882.852
536.162;47893.922;   -6.156;46942.285
536.747;49285.094;  -11.607;45711.746
537.333;49811.301;  -11.787;48510.180
537.918;50108.141;  -12.437;50439.891
538.503;51378.148;   -7.196;50863.711
539.088;48657.305;  -10.556;50906.922
539.673;46862.059;   -8.767;52621.965
540.259;48086.461;  -10.026;52368.094
540.844;50054.004;   -7.416;50879.109
541.429;48999.359;   -9.467;52077.777
542.014;48763.699;   -9.527;52716.695
542.599;51165.965;   -9.946;52363.281
543.184;53709.305;   -7.927;53187.137
543.769;51817.051;   -9.297;54697.605
544.354;48392.727;  -10.127;53913.914
544.938;46790.398;   -9.267;49680.164
545.523;49138.125;   -6.506;47386.277
546.108;52698.813;   -9.787;49151.949
546.693;52262.266;  -11.587;51384.637
547.278;52193.805;  -10.986;51853.254
547.862;48946.391;   -8.206;51173.750
548.447;46135.266;  -10.067;51691.395
549.031;46917.977;   -9.637;52456.703
549.616;48154.316;   -9.926;52714.516
550.201;46904.582;   -6.347;52414.598
550.785;46229.543;   -7.917;52355.059
551.370;47713.355;  -10.867;54589.453
551.954;48636.633;   -9.047;58267.348
552.538;49453.582;   -7.827;59062.176
553.123;49315.148;  -10.287;58115.285
553.707;45355.516;  -12.178;56556.285
554.291;46123.586;   -8.717;56201.668
554.876;49308.461;   -7.457;55335.762
555.460;50201.777;  -10.387;54155.703
556.044;51154.852;   -9.618;53721.484
556.628;50125.457;  -11.567;53731.016
557.212;47865.617;   -8.097;54312.531
557.796;49547.324;  -11.077;53797.773
558.380;47612.020;  -11.108;56145.984
558.964;46238.730;   -9.057;57277.930
559.548;46065.137;   -6.977;56459.641
560.132;44832.809;  -11.457;54434.543
560.716;43880.914;  -11.378;54800.617
561.300;44708.168;   -9.577;57606.945
561.884;46800.785;   -7.127;58972.445
562.467;47742.641;   -7.118;57327.570
563.051;47095.730;  -13.358;54962.434
563.635;44672.930;  -10.178;52594.473
564.219;44049.895;   -7.837;50610.410
564.802;43582.121;  -11.398;49551.180
565.386;44691.328;  -12.788;48370.953
565.969;45568.969;   -9.077;48178.871
566.553;45686.039;   -6.207;49957.305
567.136;42788.859;   -8.568;50369.594
567.720;41876.371;  -11.868;49492.004
568.303;41775.824;   -8.268;50616.352
568.887;40816.785;   -8.698;50727.148
569.470;41026.363;   -6.808;51698.379
570.053;39631.563;  -13.188;52122.078
570.637;38250.480;  -12.037;52536.438
571.220;37646.715;   -8.577;51186.098
571.803;38121.898;   -8.498;51032.762
572.386;40800.902;  -10.498;49609.887
572.969;42430.336;   -9.388;48285.926
573.552;38717.980;   -8.338;47624.285
574.135;36459.719;   -8.518;45498.641
574.718;32907.609;  -13.628;41970.434
575.301;32468.045;  -10.893;41447.137
575.884;32028.480;   -8.158;40923.836
576.467;37328.422;  -10.328;45267.723
577.050;35883.477;  -13.058;48175.543
577.633;34858.711;   -9.458;47729.328
578.216;36484.020;   -8.928;47579.793
578.799;37170.945;   -9.358;47820.996
579.381;36451.824;  -11.388;48115.551
579.964;33641.258;  -11.718;47333.766
580.547;33389.434;   -8.588;46668.969
581.129;34901.441;   -8.859;44466.141
581.712;35222.734;  -10.729;44164.922
582.294;36643.816;  -11.118;46477.855
582.877;34384.660;   -5.218;48244.254
583.459;34390.559;   -8.679;47437.895
584.042;36415.730;  -10.709;46943.219
584.624;38386.547;  -11.669;46792.227
585.206;37143.738;   -8.218;46557.250
585.789;36072.918;  -10.569;45793.773
586.371;36667.582;  -11.859;43836.391
586.953;35379.590;  -10.719;42972.492
587.536;37298.133;   -7.198;42487.211
588.118;38677.020;   -8.720;42086.414
588.700;37658.164;  -10.439;43389.930
589.282;37554.074;   -9.198;43646.039
589.864;36357.145;   -9.199;43438.109
590.446;34260.219;  -11.319;43151.926
591.028;33959.352;  -11.159;42781.867
591.610;33845.297;  -11.779;42839.098
592.192;30718.707;   -7.668;42820.402
592.774;31232.135;  -11.949;40724.277
593.356;32179.650;  -12.129;39874.789
593.937;29970.080;  -10.669;39980.648
594.519;31451.479;   -6.509;42069.633
595.101;33558.047;  -10.849;42976.031
595.683;32312.826;  -11.679;44084.441
596.264;32111.609;   -9.049;43478.797
596.846;34211.949;   -8.849;43803.672
597.427;34160.785;   -9.570;42986.934
598.009;35465.301;  -12.620;42832.219
598.591;34714.945;  -10.039;42580.086
599.172;33665.355;  -10.369;43061.805
599.753;31786.568;   -9.140;41691.469
600.335;31591.609;  -11.430;40692.520
600.916;31890.949;   -9.939;39982.422
601.498;30399.461;   -8.479;40318.617
602.079;29244.422;  -10.920;40670.609
602.660;31110.527;  -11.480;41450.898
603.241;32586.453;  -11.699;41137.738
603.823;33063.438;   -9.579;38868.797
604.404;32881.809;  -10.620;38182.785
604.985;31695.188;  -10.450;38078.047
605.566;31396.742;   -9.129;38056.633
606.147;31535.783;   -7.510;37020.418
606.728;32698.881;  -10.660;37883.359
607.309;33524.188;  -11.740;38748.273
607.890;33092.414;   -9.759;38850.230
608.471;31321.693;   -8.250;37457.918
609.051;31459.447;   -9.240;36066.457
609.632;29755.340;  -12.120;35991.074
610.213;28648.082;   -9.110;37402.641
610.794;30790.164;   -8.030;38383.363
611.374;33192.785;   -8.110;40562.387
611.955;32799.277;  -13.560;38533.727
612.536;29955.328;  -11.400;36951.789
613.116;28657.078;   -8.070;37197.891
613.697;30835.334;  -10.830;38411.125
614.277;32361.584;  -11.641;38673.938
614.858;31580.367;  -13.310;37075.863
615.438;29945.627;   -7.460;35092.906
616.019;28249.426;   -7.601;33666.301
616.599;29244.779;  -12.020;34189.023
617.179;30877.348;  -11.780;36952.047
617.760;33759.652;   -8.570;39582.574
618.340;33928.523;  -11.471;38943.977
618.920;32520.705;  -11.170;37594.156
619.500;34416.969;  -11.071;37866.938
620.080;34553.383;   -7.750;37869.043
620.660;32535.328;  -12.711;36868.617
621.241;30925.094;  -10.211;36352.309
621.821;29984.584;  -10.961;35459.520
622.401;29209.076;   -7.720;35207.414
622.980;30384.758;   -8.981;35980.422
623.560;30751.748;   -9.331;37351.328
624.140;29370.313;   -9.850;34388.582
624.720;26649.594;   -7.451;32368.764
625.300;24757.502;   -9.070;32638.629
625.880;28212.740;  -12.601;34599.035
626.459;30228.211;  -11.751;36831.738
627.039;31100.576;   -9.281;38299.098
627.619;33089.398;   -8.801;38289.574
628.198;32407.260;  -12.071;37220.695
628.778;31239.063;   -9.461;37632.563
629.357;32231.568;   -8.491;38003.012
629.937;32447.473;   -9.721;38402.039
630.516;32671.539;   -9.951;37868.801
631.096;32980.941;  -11.731;35760.410
631.675;34231.340;   -8.572;35225.219
632.254;33776.070;  -11.282;35130.289
632.834;33017.102;  -13.322;35794.570
633.413;32970.859;  -10.301;35788.922
633.992;32203.209;   -8.582;34532.863
634.571;33818.637;   -8.352;33590.113
635.151;33972.395;  -11.912;34943.863
635.730;33005.727;  -10.511;35352.523
636.309;35359.559;   -7.731;35366.605
636.888;33325.906;   -9.952;36165.637
637.467;31212.307;  -11.672;37515.902
638.046;31316.412;   -8.901;39288.695
638.625;32351.291;   -7.912;38279.699
639.204;32607.318;  -10.022;37741.598
639.782;30511.004;  -12.252;38364.551
640.361;28790.691;  -10.041;36740.621
640.940;27871.391;  -11.161;34950.082
641.519;28768.334;   -9.701;34137.398
642.097;30364.600;  -11.271;35654.258
642.676;32172.471;   -8.651;35637.957
643.255;33698.105;   -8.711;36567.074
643.833;31189.387;   -9.581;37809.434
644.412;28872.820;  -13.711;37337.293
644.990;30780.510;  -11.811;37018.531
645.569;33394.469;   -9.411;36518.469
646.147;32801.953;  -10.291;36186.430
646.726;31603.492;  -12.401;36267.688
647.304;31523.695;  -10.411;36647.625
647.882;30676.861;   -9.651;39286.742
648.461;32138.080;   -9.631;39157.703
649.039;35573.070;  -11.881;35412.883
649.617;35734.215;   -9.661;34744.918
650.195;33489.602;   -9.301;35403.098
650.773;32253.367;  -10.511;35053.797
651.352;31446.611;  -11.521;33756.816
651.930;29345.131;  -12.211;31868.773
652.508;26311.932;   -9.171;33121.551
653.086;27092.143;   -9.371;33564.793
653.663;33044.328;  -13.161;34054.668
654.241;37284.680;  -13.031;35693.309
654.819;38059.719;   -9.371;36422.906
655.397;37908.387;  -10.511;38213.484
655.975;34055.141;  -10.371;39507.625
656.553;30436.549;  -10.051;39498.223
657.130;28692.711;  -10.061;40395.480
657.708;26786.232;   -9.561;39242.020
658.286;24405.867;  -11.511;38920.020
658.863;26712.924;  -10.261;40202.898
659.441;30418.283;   -7.531;39677.938
660.018;32421.459;   -9.501;40413.355
660.596;31806.275;  -13.301;39931.414
661.173;31711.891;  -11.211;39604.531
661.750;33366.699;   -9.951;39700.070
662.328;32230.773;   -9.390;39292.809
662.905;31058.094;  -11.330;38235.648
663.482;28713.457;   -9.050;36212.305
664.060;25924.414;   -8.240;35944.945
664.637;26575.066;  -10.050;35170.785
665.214;29710.891;  -11.760;34197.523
665.791;30079.574;  -10.530;34549.520
666.368;29105.326;   -9.690;35118.578
666.945;30641.373;   -9.320;36019.418
667.522;31323.135;  -11.860;36048.438
668.099;32750.586;  -10.770;36243.914
668.676;32627.063;   -6.260;35958.875
669.253;34819.137;   -7.000;37384.730
669.830;36110.406;  -10.190;36779.629
670.407;33080.496;   -9.550;35231.289
670.984;33543.078;   -9.260;35544.270
671.560;30937.166;   -9.280;35466.867
672.137;26921.357;  -11.810;34280.863
672.714;28610.301;  -11.490;34632.863
673.290;32131.795;   -7.740;35135.422
673.867;31796.344;  -10.660;36114.480
674.443;31982.445;  -12.230;36152.859
675.020;31558.865;  -10.450;35327.238
675.596;29741.275;   -9.260;35795.176
676.173;28480.852;  -10.780;35430.355
676.749;28241.963;  -13.690;33549.516
677.326;28398.941;  -11.980;32210.012
677.902;27678.131;   -8.630;32068.871
678.478;29425.342;  -10.730;32583.891
679.054;30174.809;  -10.520;32088.928
679.631;29407.820;  -11.920;30978.848
680.207;29528.914;   -7.490;33160.887
680.783;31317.895;   -9.860;35570.363
681.359;32948.473;  -13.380;36125.184
681.935;33818.891;  -12.480;35240.922
682.511;32994.281;   -7.900;34429.961
683.087;31715.992;   -7.710;34463.680
683.663;31334.164;  -11.480;34648.898
684.239;30169.646;  -14.090;34546.457
684.815;28960.672;   -7.560;35586.375
685.390;29245.039;   -9.910;35821.895
685.966;30531.029;  -11.159;35085.871
686.542;32104.518;  -11.169;34198.230
687.118;33440.855;   -5.959;32847.707
687.693;32489.338;  -10.329;32794.027
688.269;33631.660;  -12.059;33072.367
688.844;33547.922;  -10.909;33141.664
689.420;30574.461;   -8.019;33965.742
689.995;29320.844;   -8.399;34655.523
690.571;30720.648;  -10.949;33576.742
691.146;30144.637;   -9.619;32657.219
691.722;28770.455;   -8.999;32526.979
692.297;28260.086;  -11.589;33014.617
692.872;28199.533;  -11.739;34012.254
693.448;30958.424;  -11.059;34237.434
694.023;31601.641;  -10.139;34142.672
694.598;29931.770;   -9.029;34132.031
695.173;31005.043;  -13.319;34205.250
695.748;31202.779;  -10.169;32882.488
696.323;28724.789;   -8.339;32864.906
696.898;27000.109;   -8.169;33170.004
697.473;27644.971;  -12.309;32432.984
698.048;27847.951;  -10.989;31649.303
698.623;26577.533;   -9.329;30778.141
699.198;27439.340;   -9.849;31140.119
699.773;28462.021;  -12.329;31764.299
700.348;29773.234;  -10.389;31780.816
700.922;30084.910;   -9.269;32046.375
701.497;30997.678;   -9.329;32603.574
702.072;32006.555;  -10.789;34799.871
702.646;30885.924;  -10.839;35793.172
703.221;30174.162;   -9.099;35201.590
703.795;32275.150;  -10.939;34764.527
704.370;29872.990;  -12.859;34307.367
704.944;28287.178;  -11.559;33509.887
705.519;29539.980;   -7.939;31388.584
706.093;31791.078;  -10.499;31340.104
706.668;33761.160;  -11.289;32630.281
707.242;33026.395;  -11.509;32728.779
707.816;31309.375;   -9.639;32947.238
708.390;30139.879;  -11.429;33277.855
708.965;29380.795;  -11.869;33834.336
709.539;30653.990;  -11.689;33709.273
710.113;30835.643;  -10.478;33044.313
710.687;30186.053;  -10.228;31953.992
711.261;29518.732;  -13.698;30505.949
711.835;29821.674;  -13.378;30262.369
712.409;28748.457;   -9.698;31254.447
712.983;28434.439;  -11.898;32754.986
713.557;30830.539;  -15.138;34018.824
714.131;28836.902;  -14.098;34579.625
714.704;28306.883;   -9.958;33890.262
715.278;30486.520;  -10.028;33531.102
715.852;29227.064;  -11.148;33601.660
716.425;28033.598;   -9.068;33515.117
716.999;26783.211;  -10.038;33185.555
717.573;26457.512;   -9.798;33905.996
718.146;25882.211;  -12.378;35199.293
718.720;26250.545;  -11.918;35060.551
719.293;26460.799;   -8.088;34973.230
719.867;28653.967;  -10.888;36394.449
720.440;30490.547;  -11.938;36663.008
721.013;31237.857;  -12.818;35102.426
721.587;28877.314;  -10.298;33985.266
722.160;26826.268;  -10.048;33524.965
722.733;26049.451;  -12.108;32987.043
723.306;26375.670;  -10.818;33066.301
723.880;28372.223;   -8.908;33399.500
724.453;28104.840;   -9.878;33468.297
725.026;28113.973;  -11.188;33816.637
725.599;30695.160;  -11.678;32797.996
726.172;30232.336;   -9.618;33187.434
726.745;27861.229;   -8.258;35136.613
727.318;27449.057;  -12.978;35751.730
727.891;26731.242;  -12.148;35890.430
728.463;25878.533;   -8.968;34822.090
729.036;25950.014;  -10.188;32895.086
729.609;25885.898;  -11.788;31823.225
730.182;23807.477;  -11.788;31445.283
730.754;22529.045;  -10.268;32373.223
731.327;22772.418;   -9.998;33676.820
731.900;24002.621;  -12.228;33417.000
732.472;23645.359;  -13.848;31978.498
733.045;22607.410;   -8.698;30368.777
733.617;22494.973;  -10.607;30574.215
734.190;24594.664;  -11.507;31280.975
734.762;25490.248;  -13.647;31674.412
735.334;26902.838;   -9.767;31247.291
735.907;27393.023;   -9.897;29876.211
736.479;27054.695;  -11.637;29808.488
737.051;27824.707;   -9.567;30233.547
737.623;27055.805;   -8.187;31469.086
738.195;25686.982;  -11.187;31784.225
738.768;24525.537;  -12.337;32120.523
739.340;22943.770;  -12.227;32094.342
739.912;22181.904;  -11.057;31312.680
740.484;22265.809;  -10.207;31946.238
741.056;21978.797;  -10.047;32984.059
741.628;22961.986;  -13.627;33897.715
742.199;23748.467;   -7.177;33213.016
742.771;25933.252;  -10.797;31369.113
743.343;26767.055;  -11.997;31865.473
743.915;26462.559;  -12.867;32388.631
744.487;23998.631;   -7.617;31079.568
745.058;21285.777;   -9.557;30570.107
745.630;22278.365;   -9.877;29970.127
746.201;23734.059;  -14.177;29186.766
746.773;24167.664;   -9.237;28805.723
747.344;22307.506;   -9.847;29591.223
747.916;20704.154;  -11.657;31412.201
748.487;21762.465;  -10.587;32194.898
749.059;23529.955;   -8.707;32533.719
749.630;23814.064;  -10.537;32158.518
750.201;23121.275;  -11.687;30855.395
750.773;21905.883;  -11.647;28622.555
751.344;21887.313;   -7.147;28405.732
751.915;24092.277;   -9.757;28461.551
752.486;25237.578;  -12.427;27842.850
753.057;24027.564;  -12.227;27845.008
753.628;23915.977;  -10.417;27728.107
754.199;23549.182;  -11.767;27381.086
754.770;23148.352;  -11.187;25882.203
755.341;21988.561;  -10.507;25886.184
755.912;20472.145;   -9.387;26050.861
756.483;19067.031;  -10.647;26798.779
757.054;19501.238;  -11.837;27048.238
757.625;19563.656;  -12.716;26294.838
758.195;19255.842;   -9.666;26142.076
758.766;19371.916;   -8.656;26392.234
759.337;18897.771;  -12.856;26334.594
759.907;18645.783;  -13.366;27579.652
760.478;18414.615;   -8.576;28352.770
761.048;19531.500;  -10.526;27325.088
761.619;19693.135;  -11.116;26460.428
762.189;18333.965;  -12.136;26029.826
762.760;18009.914;   -9.456;26430.145
763.330;18401.035;   -7.136;26670.902
763.900;18420.014;  -11.786;26603.021
764.471;17979.492;  -11.546;25542.740
765.041;17165.191;   -8.096;24358.459
765.611;16432.201;   -8.876;23991.297
766.181;16455.768;  -12.196;24470.236
766.751;16283.085;  -11.636;24845.975
767.321;17289.371;  -10.156;24533.633
767.891;16634.361;  -11.766;24916.492
768.461;16728.955;  -14.936;24776.771
769.031;17773.857;  -12.356;24757.988
769.601;18368.141;   -7.526;24181.088
770.171;18128.357;  -10.766;23670.387
770.741;17456.430;  -13.176;22960.045
771.311;17061.879;  -10.616;22917.523
771.880;17351.188;   -9.576;23562.941
772.450;17017.514;  -10.336;24216.500
773.020;16622.344;  -13.516;24140.398
773.589;17177.918;  -13.466;24414.857
774.159;17021.631;   -8.686;23858.717
774.729;15632.305;   -9.476;22942.135
775.298;13870.218;  -13.666;22324.033
775.867;13559.553;  -11.716;21140.313
776.437;13635.882;   -9.906;20838.092
777.006;12966.956;  -12.166;20599.510
777.576;12503.792;  -12.356;20508.809
778.145;12434.427;  -11.646;20732.947
778.714;12889.977;   -8.226;21062.465
779.283;13922.907;   -9.556;20949.664
779.853;14532.735;  -14.116;20508.623
780.422;13967.718;  -11.506;20649.082
780.991;13566.991;   -9.556;21527.520
781.560;13289.379;   -9.095;22632.658
782.129;13120.158;  -12.135;23048.277
782.698;12898.610;  -10.865;23438.555
783.267;12570.550;   -9.335;23267.734
783.836;12825.322;  -11.045;22415.133
784.404;13561.438;  -13.865;20443.152
784.973;12783.340;  -13.095;19699.150
785.542;11389.566;  -11.575;19763.828
786.111;10735.096;   -9.705;20341.408
786.679;11475.200;  -12.105;20207.967
787.248;11788.068;  -12.455;19516.465
787.817;11484.662;  -11.535;18900.363
788.385;11529.233;   -9.765;17879.121
788.954;11502.967;  -14.005;17658.301
789.522;10985.019;  -11.955;17788.879
790.090;11191.898;  -10.135;18118.277
790.659;11989.416;  -10.975;18338.736
791.227;11879.009;  -13.375;18508.615
791.795;11394.162;  -12.375;17898.254
792.364;10928.771;  -10.725;17295.133
792.932;11082.708;   -9.715;16822.051
793.500;11210.370;  -12.675;17040.148
794.068;11018.814;  -13.495;17179.787
794.636; 9871.308;  -10.885;16664.246
795.204; 8846.360;  -11.045;16524.545
795.772; 9480.611;  -13.175;17274.564
796.340;10568.604;  -12.445;17891.002
796.908;10403.489;   -9.735;17648.561
797.476;10827.829;   -9.815;17064.080
798.044;11641.080;  -13.985;16672.777
798.612;11423.233;  -13.115;17023.996
799.180;10126.024;  -10.185;16561.615
799.747; 9137.105;   -9.055;15962.773
800.315; 8665.405;  -12.385;15296.992
800.883; 8986.828;  -15.035;14801.771
801.450; 9215.276;  -10.365;14534.430
802.018; 9234.079;   -9.855;14173.248
802.585; 9335.092;  -11.905;14029.547
803.153; 8932.448;  -11.585;13836.846
803.720; 8380.534;   -9.095;13567.324
804.287; 8450.528;   -9.135;13360.622
804.855; 8729.854;  -11.604;13681.981
805.422; 8842.753;  -11.794;13536.560
805.989; 8727.375;  -10.734;13355.958
806.556; 8329.143;  -10.444;13747.896
807.124; 8201.729;  -12.764;13987.376
807.691; 8705.605;  -12.964;14038.674
808.258; 9049.117;  -11.134;14120.152
808.825; 9297.369;   -9.854;13860.111
809.392; 9028.052;  -10.504;13268.790
809.959; 8552.368;  -13.054;12680.389
810.526; 8377.192;   -8.294;12427.308
811.093; 8022.210;   -8.394;12030.105
811.659; 7237.170;  -12.304;11653.664
812.226; 7020.563;  -13.944;11637.183
812.793; 7529.297;  -10.484;11611.521
813.360; 7641.148;  -10.144;11885.181
813.926; 6929.598;  -11.684;12770.539
814.493; 6352.904;  -13.644;12677.638
815.060; 6235.680;   -9.724;11974.336
815.626; 6572.145;   -9.854;11594.715
816.193; 6609.163;  -13.254;11579.474
816.759; 6586.142;  -13.204;11666.972
817.325; 6354.239;   -9.434;11325.530
817.892; 6026.957;  -10.134;11105.369
818.458; 5968.178;  -13.474;10843.928
819.024; 5996.725;  -11.854;10714.406
819.591; 6320.302;  -10.244;10469.165
820.157; 6423.200;  -10.704;10235.523
820.723; 6670.890;  -12.324;10847.563
821.289; 7067.909;   -9.444;11040.980
821.855; 7093.632;   -8.374;10357.100
822.421; 6670.256;  -10.234; 9978.918
822.987; 6419.041;  -13.294; 9754.177
823.553; 6295.091;  -10.884;10065.755
824.119; 5887.448;   -8.884;10036.294
824.685; 5712.874;   -6.784;10029.192
825.251; 5646.505;  -12.004;10199.230
825.816; 5725.089;  -11.474; 9820.189
826.382; 5493.069;   -9.174; 9297.248
826.948; 5251.986;   -9.214; 9381.347
827.513; 5068.062;  -10.774; 9450.726
828.079; 5016.075;  -11.924; 9472.444
828.645; 5095.142;  -10.543; 9292.643
829.210; 5299.266;  -10.533; 9065.341
829.776; 5320.671;  -10.753; 9132.620
830.341; 5231.783;  -10.173; 9092.878
830.906; 5339.334;  -10.743; 9078.557
831.472; 5216.008;  -11.113; 8534.535
832.037; 4722.901;  -10.603; 8677.874
832.602; 4646.662;  -13.323; 8628.692
833.167; 5000.182;  -10.823; 8879.031
833.733; 4964.553;  -10.113; 9189.790
834.298; 4679.577;  -13.583; 9052.608
834.863; 4538.608;  -12.703; 8895.087
835.428; 4415.533;  -10.523; 8824.266
835.993; 4365.045;   -6.963; 8845.385
836.558; 4458.803;  -10.763; 8888.563
837.123; 4587.843;   -9.903; 8966.582
837.688; 4461.289;   -9.913; 8617.860
838.253; 4316.083;  -10.283; 8590.699
838.817; 4425.746;  -12.963; 8443.797
839.382; 4603.187;  -14.243; 8799.356
839.947; 4518.668;  -10.733; 8810.595
840.511; 4581.074;   -9.383; 8796.394
841.076; 4579.471;  -12.563; 8347.231
841.641; 4386.714;  -12.953; 8224.330
842.205; 4124.027;   -7.043; 8223.349
842.770; 4087.889;   -8.163; 8622.107
843.334; 4111.127;  -12.503; 8410.386
843.898; 4065.447;  -11.693; 8337.465
844.463; 3972.065;  -10.203; 8506.283
845.027; 3884.209;   -9.533; 8280.962
845.591; 3916.126;  -13.443; 8231.141
846.156; 3822.798;  -13.143; 7969.179
846.720; 3637.938;   -9.433; 7768.278
847.284; 3383.103;  -11.033; 7630.957
847.848; 3241.036;  -10.403; 7472.395
848.412; 3253.533;  -11.553; 7437.394
848.976; 3431.525;   -8.393; 7674.592
849.540; 3470.395;   -8.713; 7836.011
850.104; 3450.610;  -12.463; 7913.669
850.668; 3582.461;  -12.973; 7694.508
851.232; 3619.045;  -10.793; 7756.887
851.796; 3528.931;  -10.662; 7926.545
852.359; 3551.975;  -13.082; 7827.844
852.923; 3312.585;  -12.192; 7641.163
853.487; 3240.076;  -11.912; 7342.501
854.050; 3400.457;  -10.892; 7042.820
854.614; 3387.833;  -13.992; 7151.338
855.177; 3272.781;  -11.732; 7105.077
855.741; 3185.217;   -8.962; 6989.675
856.304; 3078.131;   -9.442; 6596.634
856.868; 2851.120;  -14.192; 6356.272
857.431; 2636.337;  -12.702; 6468.571
857.995; 2663.777;   -9.942; 6373.210
858.558; 2692.295;   -9.112; 6324.448
859.121; 2520.975;  -12.932; 6408.327
859.684; 2467.458;  -13.442; 6347.886
860.247; 2863.329;  -10.632; 6321.264
860.810; 3176.877;  -11.272; 6301.903
861.374; 3196.037;   -9.832; 6607.881
861.937; 3167.255;  -11.762; 6408.200
862.500; 3021.926;   -9.722; 6572.639
863.062; 2730.582;  -10.512; 6387.297
863.625; 2638.225;  -11.232; 6190.836
864.188; 2653.835;  -14.112; 5807.254
864.751; 2664.449;  -11.302; 5682.413
865.314; 2770.406;  -10.112; 5547.492
865.876; 2776.330;  -12.182; 5500.150
866.439; 2676.994;  -10.722; 5415.909
867.002; 2522.145;   -9.252; 5501.567
867.564; 2414.649;   -9.572; 5413.946
868.127; 2293.899;  -13.142; 5160.325
868.689; 2025.768;  -12.902; 5133.183
869.252; 1893.866;   -9.732; 5252.382
869.814; 1901.392;   -9.432; 5297.141
870.377; 1997.391;  -11.552; 5390.919
870.939; 1982.411;   -9.052; 5599.898
871.501; 1916.769;  -10.982; 5248.336
872.063; 1949.352;  -12.292; 4854.235
872.626; 1968.886;  -14.912; 4817.074
873.188; 1982.016;  -13.112; 4987.732
873.750; 1934.016;  -13.442; 4868.651
874.312; 1988.401;   -9.402; 4779.330
874.874; 2126.562;  -11.062; 4866.348
875.436; 2011.936;  -13.931; 4718.887
875.998; 1730.686;   -9.561; 4660.005
876.560; 1575.958;  -11.321; 4462.964
877.122; 1565.331;  -12.221; 4145.042
877.683; 1554.058;  -12.191; 4056.481
878.245; 1634.511;  -12.101; 3950.740
878.807; 1768.478;   -8.971; 4058.958
879.369; 1801.759;  -12.071; 3954.677
879.930; 1732.304;  -14.621; 3941.495
880.492; 1565.389;  -10.311; 4067.014
881.053; 1418.182;  -10.901; 3859.633
881.615; 1407.639;  -14.411; 3776.071
882.176; 1436.770;  -13.761; 3734.750
882.738; 1447.545;   -9.181; 3678.489
883.299; 1410.832;  -11.791; 3405.407
883.860; 1344.489;  -13.121; 3351.106
884.422; 1239.890;  -11.211; 3394.044
884.983; 1160.787;  -10.091; 3166.443
885.544; 1140.430;   -8.461; 3189.802
886.105; 1087.070;  -12.361; 3160.360
886.666; 1010.385;  -14.141; 3093.059
887.227;  980.749;  -11.361; 2941.957
887.788;  994.604;  -11.401; 2974.836
888.349;  949.367;  -13.791; 2721.214
888.910;  855.244;  -13.191; 2696.493
889.471;  755.266;   -9.881; 2560.172
890.032;  680.322;   -9.881; 2558.190
890.593;  677.892;  -10.371; 2567.669
891.153;  679.707;  -13.301; 2460.307
891.714;  619.674;  -11.431; 2372.046
892.275;  571.765;  -11.291; 2309.505
892.835;  557.652;  -11.471; 2382.543
893.396;  547.963;  -11.541; 2295.502
893.956;  543.888;  -11.181; 2162.420
894.517;  532.633;  -11.741; 2125.439
895.077;  490.568;  -11.671; 2086.978
895.638;  440.629;  -11.311; 2126.316
896.198;  420.880;   -9.831; 1838.275
896.758;  419.987;   -8.421; 1892.813
897.319;  413.442;  -12.351; 1792.232
897.879;  395.007;  -13.511; 1762.751
898.439;  369.783;  -12.001; 1661.149
898.999;  350.566;  -10.180; 1781.468
899.559;  335.820;  -12.030; 1703.347
900.119;  327.358;  -15.710; 1537.525
900.679;  306.921;   -8.900; 1638.384
901.239;  278.852;   -8.340; 1527.902
901.799;  266.058;  -13.910; 1456.441
902.359;  257.384;  -13.460; 1357.140
902.919;  251.847;  -11.490; 1331.118
903.479;  248.912;  -12.110; 1317.257
904.038;  241.108;  -11.720; 1262.595
904.598;  225.740;  -13.610; 1152.034
905.158;  215.191;  -11.040; 1240.893
905.717;  209.932;  -10.900; 1233.691
906.277;  205.823;  -15.080; 1217.330
906.836;  203.254;  -13.380; 1222.408
907.396;  200.303;  -10.780; 1193.047
907.955;  193.280;   -8.500; 1182.526
908.515;  187.055;  -12.760; 1099.364
909.074;  183.236;  -11.900; 1092.863
909.633;  180.325;   -8.950; 1069.121
910.192;  176.576;   -8.770; 1196.460
910.752;  173.425;  -12.390; 1029.960
911.311;  169.711;  -13.680; 1009.780
911.870;  164.392;  -12.370;  971.460
912.429;  161.056;  -10.900; 1094.080
912.988;  158.776;  -11.690; 1081.060
913.547;  155.131;  -13.240;  940.380
914.106;  155.157;  -11.990;  999.420
914.665;  153.592;   -9.990;  984.020
915.224;  153.840;  -12.880; 1035.760
915.782;  152.272;  -12.350;  922.560
916.341;  152.150;   -9.110; 1049.840
916.900;  149.777;   -9.270;  925.260
917.458;  147.220;  -13.240;  884.220
918.017;  145.613;  -13.550;  942.600
918.576;  146.082;  -12.320;  904.440
919.134;  144.426;  -11.490;  837.980
919.693;  142.480;  -13.670;  893.060
920.251;  141.956;  -15.470;  876.500
920.809;  140.702;  -11.290;  839.580
921.368;  140.164;  -10.210;  885.360
921.926;  140.592;  -12.140;  842.940
922.484;  139.656;  -13.080;  903.360
923.042;  139.225;  -11.720;  880.340
923.601;  140.705;   -7.480;  998.680
924.159;  139.218;  -11.570;  935.560
924.717;  138.279;  -13.840;  841.080
925.275;  140.395;  -10.640;  903.240
925.833;  138.077;  -11.540;  779.320
926.391;  139.279;  -12.960;  938.380
926.949;  138.684;  -14.130;  857.680
927.506;  139.987;  -11.750;  903.500
928.064;  138.005;  -10.250;  877.580
928.622;  137.056;  -13.030;  880.100
929.180;  138.873;  -13.400;  814.180
929.737;  140.444;  -10.700;  808.540
930.295;  141.169;  -10.070;  928.480
930.853;  141.591;  -11.960;  849.100
931.410;  140.784;  -13.120;  821.120
931.968;  141.659;  -10.770;  940.660
932.525;  141.984;  -10.680;  909.380
933.082;  144.750;  -13.130;  811.440
933.640;  150.150;  -13.210;  925.900
934.197;  151.258;  -11.060;  886.360
934.754;  150.528;   -9.580;  897.780
935.312;  150.971;  -14.000;  863.340
935.869;  155.449;  -10.710; 1012.980
936.426;  152.392;   -9.860;  872.800
936.983;  151.222;   -9.710;  889.020
937.540;  150.148;  -13.990;  838.280
938.097;  150.613;  -14.040;  940.120
938.654;  153.298;  -10.310;  898.860
939.211;  153.987;  -10.560;  952.480
939.768;  152.776;  -13.900;  915.420
940.324;  153.350;  -14.760;  904.200
940.881;  158.338;  -10.370;  878.500
941.438;  164.236;   -8.260; 1021.200
941.995;  165.461;  -12.540;  992.560
942.551;  164.207;  -14.670;  875.620
943.108;  164.146;  -10.450;  937.920
943.664;  164.164;  -10.750;  869.340
944.221;  169.090;  -11.550; 1088.140
944.777;  171.289;  -14.770;  869.680
945.334;  170.484;  -12.820;  884.840
945.890;  168.483;  -10.130;  946.480
946.446;  166.164;  -13.470;  947.020
947.003;  166.082;  -12.120;  964.940
947.559;  166.183;   -9.980; 1063.040
948.115;  162.099;   -9.080; 1026.540
948.671;  158.450;  -10.830;  967.300
949.227;  157.377;  -12.440;  859.560
949.783;  157.251;  -12.910;  858.900
950.339;  159.077;  -10.270;  991.000
950.895;  159.966;  -13.630; 1023.840
951.451;  158.843;  -15.100;  925.280
952.007;  159.643;  -11.330;  998.540
952.563;  156.242;  -10.580;  937.780
953.118;  152.555;  -13.440;  904.940
953.674;  150.168;  -12.710;  935.780
954.230;  151.683;  -10.350;  949.640
954.785;  154.509;   -9.190;  936.640
955.341;  157.658;  -11.200;  998.160
955.897;  154.171;  -16.560;  834.660
956.452;  151.163;  -12.570;  953.840
957.008;  149.603;   -7.970; 1083.640
957.563;  147.540;  -11.940; 1009.540
958.118;  145.307;  -13.450;  877.700
958.674;  146.695;  -12.030;  946.780
959.229;  144.928;   -9.410; 1013.980
959.784;  143.642;  -12.000;  832.400
960.339;  141.345;  -14.780; 1001.280
960.894;  136.232;   -9.860;  963.760
961.449;  130.136;   -9.970;  859.960
962.004;  128.104;  -10.900; 1212.840
962.559;  123.251;  -13.150;  860.140
963.114;  121.415;  -13.740;  742.480
963.669;  122.902;   -9.820;  915.500
964.224;  121.568;  -13.890;  874.340
964.779;  122.534;  -12.600;  828.420
965.334;  122.912;  -10.950; 1017.860
965.888;  120.783;  -11.170;  875.360
966.443;  121.969;  -12.540;  972.380
966.998;  122.310;  -15.780;  819.460
967.552;  123.014;   -9.760;  908.380
968.107;  116.232;   -9.060;  868.300
968.661;  114.470;  -11.950;  922.440
969.216;  114.335;  -12.800;  856.280
969.770;  114.199;  -11.210;  917.200
970.324;  112.190;  -11.610;  923.140
970.879;  109.594;  -11.370;  947.180
971.433;  109.298;  -12.540;  952.720
971.987;  107.031;  -11.320;  895.340
972.541;  105.776;  -10.720;  917.100
973.095;  106.810;   -9.680; 1009.460
973.649;  106.042;  -11.440;  809.480
974.203;  106.299;  -11.210;  829.040
974.757;  105.813;  -10.240;  855.220
975.311;  106.799;  -13.720;  872.600
975.865;  106.806;  -13.770;  881.820
976.419;  106.237;  -11.690;  857.400
976.973;  104.913;   -9.510;  849.620
977.526;  104.786;  -12.620;  949.920
978.080;  101.615;  -12.010;  796.780
978.634;  100.297;  -10.170;  921.320
979.187;   97.408;   -9.020;  905.400
979.741;   96.869;   -9.820; 1018.380
980.294;   92.393;  -14.870;  789.160
980.848;   88.844;  -12.380;  717.220
981.401;   87.827;  -10.350;  816.540
981.955;   87.693;  -13.720;  844.300
982.508;   85.026;  -11.490;  746.340
983.061;   85.551;  -10.000;  915.260
983.615;   84.225;  -11.480;  798.800
984.168;   83.369;  -13.220;  770.080
984.721;   84.294;  -13.960;  880.760
985.274;   81.974;  -10.870;  867.500
985.827;   80.239;   -9.790;  834.220
986.380;   79.277;  -13.120;  721.340
986.933;   79.485;  -12.450;  864.800
987.486;   79.077;  -10.210;  861.920
988.039;   78.407;   -8.430;  863.100
988.591;   74.998;  -10.520;  893.260
989.144;   71.758;  -14.860;  737.260
989.697;   71.062;  -13.080;  758.740
990.250;   69.322;  -10.150;  858.100
990.802;   66.786;  -13.430;  755.860
991.355;   66.764;  -12.750;  974.880
991.907;   64.612;  -12.040;  864.320
992.460;   62.460;  -11.330;  753.760
993.012;   61.408;  -13.610;  749.540
993.565;   60.596;  -13.460;  711.360
994.117;   62.156;   -9.360;  950.780
994.669;   59.074;  -11.300;  701.320
995.221;   57.832;  -13.540;  791.920
995.774;   58.600;  -13.430;  787.580
996.326;   57.165;  -12.520;  740.220
996.878;   57.065;  -10.950;  838.420
997.430;   54.351;  -14.300;  699.860
997.982;   54.132;  -13.760;  750.140
998.534;   53.737;  -11.530;  739.060
999.086;   51.787;  -10.310;  738.220
999.638;   50.548;  -12.530;  661.380
1000.190;   49.834;  -11.840;  699.320
1000.741;   49.871;  -10.260;  742.700
1001.293;   49.505;   -8.860;  686.020
1001.845;   47.913;  -13.700;  676.640
1002.396;   49.518;  -12.100;  743.400
1002.948;   48.728;  -12.760;  737.400
1003.500;   47.242;  -10.380;  723.780
1004.051;   46.368;  -11.900;  907.580
1004.603;   46.500;  -12.250;  791.820
1005.154;   43.066;  -13.210;  608.980
1005.705;   41.452;  -10.950;  723.960
1006.257;   41.904;  -13.880;  707.220
1006.808;   41.900;  -12.840;  685.460
1007.359;   41.230;  -10.570;  763.240
1007.910;   39.752;   -9.620;  646.640
1008.461;   39.375;  -13.630;  732.940
1009.013;   38.225;  -17.200;  588.340
1009.564;   39.899;  -10.200;  793.520
1010.115;   36.951;  -12.570;  597.040
1010.665;   37.384;  -15.150;  602.160
1011.216;   37.854;  -14.480;  667.920
1011.767;   37.438;  -11.340;  697.920
1012.318;   36.649;   -9.780;  736.980
1012.869;   35.950;  -12.380;  679.000
1013.419;   35.573;  -15.560;  603.120
1013.970;   35.949;  -11.010;  666.640
1014.521;   34.587;  -11.610;  620.620
1015.071;   34.699;  -13.450;  670.380
1015.622;   35.285;  -13.870;  635.460
1016.172;   34.252;  -11.610;  596.820
1016.723;   34.048;  -12.120;  614.380
1017.273;   33.360;  -13.620;  604.160
1017.823;   33.732;  -14.140;  650.340
1018.374;   33.704;  -12.800;  611.760
1018.924;   32.962;  -12.340;  716.880
1019.474;   32.786;  -11.410;  718.880
1020.024;   32.032;  -14.770;  657.580
1020.574;   33.127;   -9.780;  726.160
1021.124;   32.449;   -8.560;  673.580
1021.674;   31.705;  -15.190;  559.120
1022.224;   33.176;  -13.530;  708.940
1022.774;   32.473;  -13.280;  668.820
1023.324;   32.495;  -10.690;  753.520
1023.874;   33.549;  -10.240;  875.760
1024.423;   31.315;  -12.540;  613.700
1024.973;   30.386;  -10.010;  610.760
1025.523;   30.821;  -10.550;  620.960
1026.072;   28.938;  -13.560;  606.420
1026.622;   30.015;  -15.120;  675.740
1027.172;   31.060;  -11.260;  715.660
1027.721;   29.070;  -11.410;  601.220
1028.270;   29.587;  -13.530;  663.400
1028.820;   30.101;  -13.680;  638.080
1029.369;   29.067;  -13.520;  612.700
1029.918;   29.168;  -10.980;  649.840
1030.468;   28.694;  -13.530;  564.780
1031.017;   29.260;  -13.170;  634.800
1031.566;   28.536;  -12.200;  608.900
1032.115;   29.020;   -9.960;  694.500
1032.664;   27.491;  -13.210;  596.480
1033.213;   28.605;  -12.500;  735.420
1033.762;   27.321;  -11.910;  635.620
1034.311;   27.583;   -9.640;  677.220
1034.860;   27.538;  -13.310;  691.000
1035.408;   27.746;  -11.830;  722.720
1035.957;   28.155;  -12.000;  719.540
1036.506;   25.084;  -11.690;  530.800
1037.055;   28.259;  -10.990;  844.320
1037.603;   26.466;  -15.120;  664.000
1038.152;   25.359;  -12.450;  534.760
1038.700;   25.593;  -10.560;  585.740
1039.249;   25.469;  -11.080;  681.220
1039.797;   26.296;  -12.540;  633.360
1040.345;   26.032;  -11.920;  705.420
1040.894;   25.115;  -11.410;  625.300
1041.442;   25.249;  -14.320;  632.200
1041.990;   24.305;  -16.240;  559.160
1042.538;   23.509;  -11.680;  536.180
1043.087;   24.085;  -10.760;  570.860
1043.635;   24.832;  -11.850;  670.500
1044.183;   24.744;  -15.480;  586.400
1044.731;   24.005;  -11.770;  576.000
1045.279;   23.615;  -13.090;  674.920
1045.827;   26.151;  -12.440;  892.400
1046.374;   22.640;  -13.840;  515.420
1046.922;   22.459;  -13.220;  590.580
1047.470;   23.539;  -10.230;  691.300
1048.018;   23.160;  -14.590;  647.960
1048.565;   24.600;  -12.050;  708.600
1049.113;   22.613;  -11.650;  557.000
1049.660;   22.051;  -10.510;  629.660
1050.208;   21.837;  -13.310;  675.640
1050.755;   22.614;  -15.900;  606.580
1051.303;   23.397;  -11.430;  686.820
1051.850;   21.979;   -8.480;  635.120
1052.397;   20.177;  -15.010;  473.960
1052.945;   20.914;  -13.960;  617.760
1053.492;   22.755;  -13.150;  741.840
1054.039;   22.047;   -9.630;  720.180
1054.586;   20.888;  -13.680;  557.240
1055.133;   21.864;  -14.570;  693.140
1055.680;   21.897;  -13.820;  646.620
1056.227;   20.585;  -11.730;  542.780
1056.774;   21.976;  -12.480;  794.980
1057.321;   20.873;  -13.930;  523.260
1057.868;   20.553;  -11.690;  651.320
1058.415;   19.689;   -9.520;  651.980
1058.961;   20.070;  -13.160;  678.940
1059.508;   20.364;  -12.920;  643.820
1060.055;   19.716;  -11.920;  581.780
1060.601;   20.097;  -11.500;  624.300
1061.148;   19.630;  -14.330;  616.820
1061.694;   19.607;  -16.870;  592.580
1062.241;   20.209;  -10.330;  596.320
1062.787;   19.711;  -10.620;  663.140
1063.334;   21.054;  -10.110;  808.560
1063.880;   19.650;  -13.400;  668.360
1064.426;   20.271;  -10.680;  706.820
1064.972;   18.329;   -9.920;  601.340
1065.518;   17.518;  -10.980;  566.640
1066.065;   18.730;  -14.890;  624.460
1066.611;   18.240;  -12.870;  598.800
1067.157;   18.493;  -12.950;  641.860
1067.703;   17.956;  -13.540;  668.480
1068.249;   18.405;  -13.540;  605.220
1068.794;   18.032;  -12.600;  626.880
1069.340;   16.686;  -10.620;  578.960
1069.886;   17.612;  -12.830;  590.700
1070.432;   17.087;  -14.870;  541.720
1070.977;   16.497;  -11.980;  601.080
1071.523;   17.123;   -8.200;  573.060
1072.068;   16.409;  -12.330;  582.000
1072.614;   15.929;  -16.370;  527.760
1073.160;   17.638;  -11.100;  687.040
1073.705;   15.787;  -10.480;  572.520
1074.250;   15.774;  -14.520;  559.900
1074.796;   17.291;  -11.460;  655.160
1075.341;   18.391;  -11.950;  664.100
1075.886;   16.413;  -11.460;  594.240
1076.431;   16.018;  -13.770;  649.880
1076.976;   15.889;  -12.680;  639.220
1077.521;   15.764;  -13.170;  583.080
1078.067;   14.711;  -10.860;  579.400
1078.612;   15.393;  -13.920;  661.620
1079.156;   15.453;  -13.880;  601.540
1079.701;   16.216;  -13.120;  693.260
1080.246;   16.203;   -9.940;  696.300
1080.791;   15.067;  -14.740;  625.020
1081.336;   15.352;  -13.750;  659.320
1081.880;   15.135;  -13.400;  649.680
1082.425;   14.383;  -12.220;  573.480
1082.970;   15.589;  -11.610;  717.040
1083.514;   14.535;  -13.580;  597.000
1084.059;   14.310;  -12.810;  586.720
1084.603;   13.416;  -12.320;  565.840
1085.147;   14.035;  -13.190;  645.220
1085.692;   15.156;  -12.480;  716.800
1086.236;   13.291;  -13.020;  503.140
1086.780;   15.047;   -9.190;  751.440
1087.325;   14.274;  -12.480;  654.620
1087.869;   14.531;  -12.450;  610.700
1088.413;   15.219;  -12.240;  705.040
1088.957;   12.262;   -9.020;  543.400
1089.501;   13.757;  -10.320;  766.640
1090.045;   13.563;  -12.720;  726.480
1090.589;   12.332;  -13.690;  569.920
1091.133;   12.331;  -10.020;  673.340
1091.676;   12.923;  -12.330;  591.940
1092.220;   12.554;  -14.970;  600.920
1092.764;   13.346;  -12.430;  706.960
1093.307;   13.036;   -9.800;  673.780
1093.851;   11.058;  -14.970;  556.540
1094.395;   13.144;  -15.310;  683.140
1094.938;   12.351;  -10.370;  632.520
1095.482;   11.406;  -11.050;  559.800
1096.025;   12.665;  -11.840;  710.880
1096.568;   13.163;  -12.840;  779.280
1097.112;   10.604;  -14.700;  508.180
1097.655;   11.334;   -8.720;  603.000
1098.198;    9.719;  -13.610;  600.180
1098.741;   10.770;  -13.350;  612.860
1099.285;   11.686;  -11.230;  657.300
1099.828;    9.504;  -11.840;  439.400
1100.371;   10.224;  -10.840;  608.160
1100.914;   11.476;  -14.190;  682.660
1101.457;   10.926;  -11.240;  679.900
1101.999;    9.610;  -11.270;  584.680
1102.542;   10.638;  -11.480;  641.440
1103.085;    9.828;  -11.750;  658.500
1103.628;   11.134;  -11.400;  762.060
1104.170;    9.794;  -10.490;  588.280
1104.713;   10.251;  -10.600;  646.700
1105.256;    9.327;  -14.360;  557.440
1105.798;    9.434;  -13.210;  499.980
1106.341;   10.878;  -10.270;  728.900
1106.883;    9.763;  -12.200;  521.340
1107.425;    9.822;  -13.110;  668.180
1107.968;    9.117;  -12.840;  612.380
1108.510;   10.102;   -6.480;  684.960
1109.052;    7.914;  -13.940;  612.620
1109.594;    8.617;  -13.690;  554.440
1110.136;   10.002;  -11.880;  643.220
1110.679;    8.344;   -9.500;  633.080
1111.221;    9.612;  -14.160;  604.460
1111.763;    8.319;  -13.980;  559.220
1112.304;    8.210;  -13.880;  547.140
1112.846;    9.094;  -12.210;  666.240
1113.388;   10.618;  -11.390;  942.180
1113.930;    8.464;  -14.540;  694.200
1114.472;    8.182;  -12.640;  606.540
1115.013;    6.344;  -11.620;  551.280
1115.555;    7.480;  -13.640;  587.100
1116.097;    6.302;  -15.380;  579.480
1116.638;    8.311;  -12.640;  684.600
1117.180;    8.187;   -9.850;  667.740
1117.721;    6.948;  -13.690;  568.580
1118.262;    7.683;  -12.680;  677.960
1118.804;    8.040;  -12.530;  637.340
1119.345;    6.540;  -11.690;  578.400
1119.886;    8.335;  -13.380;  704.040
1120.427;    6.653;  -14.070;  589.020
1120.969;    6.918;  -13.500;  597.920
1121.510;    5.938;  -11.480;  563.060
1122.051;    6.684;  -12.830;  723.580
1122.592;    5.796;  -14.290;  655.420
1123.133;    5.633;  -12.400;  547.940
1123.673;    6.671;  -10.130;  706.480
1124.214;    6.446;  -12.930;  612.460
1124.755;    7.030;  -14.380;  639.460
1125.296;    6.853;  -14.000;  627.320
1125.836;    6.916;  -10.070;  691.500
1126.377;    5.894;  -12.640;  599.660
1126.918;    6.826;  -12.960;  614.980
1127.458;    5.392;  -13.350;  622.220
1127.999;    6.106;  -10.750;  656.980
1128.539;    5.913;  -12.350;  694.240
1129.079;    4.543;  -14.860;  632.720
1129.620;    4.296;  -13.840;  558.100
1130.160;    4.640;  -12.330;  539.480
1130.700;    6.015;  -14.530;  640.840
1131.240;    6.296;  -12.530;  643.700
1131.781;    5.308;  -14.450;  619.680
1132.321;    4.753;   -9.790;  599.120
1132.861;    3.716;  -14.860;  564.200
1133.401;    3.793;  -14.290;  593.940
1133.941;    4.717;  -11.750;  626.280
1134.481;    3.884;   -9.920;  597.580
1135.020;    3.971;  -12.290;  609.160
1135.560;    4.579;  -11.650;  674.940
1136.100;    3.964;  -16.270;  501.160
1136.640;    3.701;  -10.890;  510.480
1137.179;    3.946;  -14.180;  537.960
1137.719;    3.808;  -16.250;  605.400
1138.258;    4.830;  -14.230;  587.360
1138.798;    4.415;   -9.090;  663.780
1139.337;    2.486;  -15.130;  482.840
1139.877;    3.916;  -13.680;  642.360
1140.416;    5.997;  -11.320;  878.060
1140.955;    2.809;  -10.860;  535.380
1141.494;    3.516;  -12.920;  669.280
1142.034;    2.733;  -13.930;  583.520
1142.573;    4.230;  -11.440;  646.280
1143.112;    2.352;  -12.000;  553.480
1143.651;    3.018;  -13.670;  536.480
1144.190;    3.748;  -12.730;  691.640
1144.729;    3.068;  -14.560;  607.420
1145.267;    2.023;  -11.830;  584.900
1145.806;    3.504;  -12.230;  637.040
1146.345;    2.020;  -14.130;  635.020
1146.884;    2.640;  -11.590;  622.500
1147.422;    2.162;  -12.550;  533.060
1147.961;    3.454;  -11.180;  708.460
1148.500;    4.318;  -11.510;  669.720
1149.038;    2.965;  -11.640;  632.500
1149.577;    2.748;  -10.130;  698.640
1150.115;    1.169;  -13.970;  452.280
1150.653;    2.511;  -14.520;  607.340
1151.192;    2.854;  -12.810;  552.920
1151.730;    2.026;   -9.100;  652.560
1152.268;    1.610;  -12.220;  589.520
1152.806;    1.773;  -14.140;  571.180
1153.344;    0.814;  -12.350;  577.640
1153.882;    1.410;   -8.980;  600.060
1154.421;   -0.007;  -15.190;  470.620
1154.958;    1.296;  -15.210;  595.240
1155.496;    1.763;  -12.850;  645.280
1156.034;    1.748;   -9.940;  721.880
1156.572;    2.074;  -13.570;  667.060
1157.110;    0.327;  -14.590;  473.940
1157.647;    2.162;  -13.030;  676.960
1158.185;    0.604;  -12.140;  564.320
1158.723;   -0.103;  -14.390;  509.200
1159.260;    1.170;  -14.090;  701.700
1159.798;    1.980;  -11.920;  658.160
1160.335;    0.282;  -11.110;  631.820

