
Integration time [ms]:   3.276
Averaging Nr. [scans]: 1000
Smoothing Nr. [pixels]: 0
Data measured with spectrometer [name]: 7414430SP
Wave   ;Sample   ;Dark     ;Reference
[nm]   ;[counts] ;[counts] ;[counts] 

288.544;  151.316;    7.793;  793.890
289.143;  153.993;    7.462;  681.602
289.742;  154.898;    8.602;  828.814
290.341;  142.939;    1.321;  789.841
290.940;  133.215;   -0.709;  730.702
291.538;  135.055;    0.881;  881.108
292.137;  134.471;    0.122;  792.581
292.736;  137.259;   -1.929;  975.101
293.335;  133.476;   -8.229;  735.086
293.934;  133.410;   -5.279;  781.677
294.532;  133.111;   -1.369; 1031.958
295.131;  120.092;   -7.641;  834.394
295.730;  119.958;   -8.420;  809.588
296.328;  118.417;   -5.611;  783.442
296.927;  118.747;   -5.781;  779.652
297.525;  118.876;   -6.361;  781.236
298.124;  108.965;  -11.382;  654.009
298.722;  113.801;   -7.641;  761.933
299.321;  112.754;   -6.811;  708.597
299.919;  109.575;   -6.991;  751.918
300.518;  105.096;  -10.362;  689.338
301.116;  106.453;   -9.581;  691.381
301.715;  106.954;   -4.891;  730.222
302.313;  106.874;   -8.801;  704.943
302.911;  102.091;   -8.522;  733.830
303.509;  106.179;   -6.171;  925.627
304.108;  103.684;   -7.311;  760.383
304.706;  104.582;   -8.321;  801.664
305.304;   98.456;  -10.222;  796.707
305.902;  102.925;   -6.021;  784.484
306.500;   99.787;   -4.971;  728.200
307.098;   97.771;   -7.061;  746.560
307.696;   96.276;   -8.801;  780.432
308.294;   96.987;   -6.411;  731.359
308.892;   97.860;   -2.901;  759.769
309.490;   94.359;   -5.041;  712.161
310.088;   91.711;   -5.002;  788.444
310.686;   95.939;   -2.041;  821.749
311.284;   91.785;   -2.351;  766.040
311.882;   90.118;   -4.422;  731.225
312.480;   87.302;   -4.192;  697.167
313.078;   88.220;   -1.172;  808.331
313.675;   89.716;   -2.601;  691.600
314.273;   85.079;   -1.312;  797.837
314.871;   83.058;   -3.942;  589.829
315.468;   81.647;   -2.802;  652.090
316.066;   85.386;   -0.701;  694.427
316.664;   78.173;   -4.362;  656.351
317.261;   80.860;   -2.872;  910.128
317.859;   76.332;   -2.022;  768.735
318.456;   77.353;   -0.531;  830.096
319.054;   73.865;   -3.912;  787.828
319.651;   71.977;   -4.752;  759.928
320.249;   70.340;   -2.602;  810.188
320.846;   68.921;   -0.821;  714.286
321.443;   65.768;   -4.642;  832.135
322.041;   62.094;   -5.002;  812.315
322.638;   61.158;   -3.982;  701.456
323.235;   62.519;   -3.411;  665.683
323.833;   60.020;   -7.361;  740.354
324.430;   54.019;   -8.611;  615.900
325.027;   54.959;   -4.061;  876.855
325.624;   54.781;   -4.031;  644.532
326.221;   53.166;   -7.481;  689.717
326.818;   51.909;   -5.281;  818.332
327.415;   54.618;   -7.460;  748.828
328.012;   53.620;   -5.510;  690.585
328.609;   52.617;   -7.880;  731.389
329.206;   51.007;   -8.331;  778.621
329.803;   50.792;   -5.121;  737.841
330.400;   53.684;   -4.510;  704.260
330.997;   55.632;   -6.441;  817.147
331.594;   54.048;   -8.831;  788.185
332.191;   58.545;   -7.621;  728.722
332.787;   62.454;   -4.591;  844.463
333.384;   61.065;   -7.412;  763.093
333.981;   58.611;   -8.293;  815.687
334.578;   61.218;   -7.052;  708.378
335.174;   64.354;   -3.102;  731.469
335.771;   64.606;   -5.943;  836.456
336.367;   61.803;   -7.393;  710.631
336.964;   65.058;   -4.063;  793.266
337.561;   63.916;   -3.813;  731.112
338.157;   59.689;   -4.654;  911.916
338.754;   57.017;   -7.934;  796.589
339.350;   56.187;   -4.414;  722.493
339.946;   57.518;   -4.664;  773.135
340.543;   50.272;   -6.375;  846.136
341.139;   44.809;   -9.815;  720.836
341.735;   41.764;   -4.526;  772.593
342.332;   41.407;   -4.895;  691.472
342.928;   41.456;   -4.295;  795.394
343.524;   34.274;   -5.476;  761.684
344.120;   30.422;   -5.856;  738.562
344.716;   33.874;   -2.155;  723.717
345.313;   31.813;   -6.275;  795.342
345.909;   26.152;   -8.815;  627.336
346.505;   28.306;   -5.305;  740.247
347.101;   29.471;   -2.674;  827.864
347.697;   29.157;   -4.344;  785.398
348.293;   23.211;   -9.975;  627.244
348.889;   23.418;   -5.774;  745.914
349.485;   24.249;   -5.004;  688.205
350.081;   25.004;   -4.704;  772.592
350.676;   19.827;   -6.635;  691.606
351.272;   22.713;   -4.504;  809.530
351.868;   23.663;   -3.914;  780.497
352.464;   20.698;   -9.044;  723.932
353.059;   16.699;   -8.314;  646.017
353.655;   19.390;   -7.024;  777.063
354.251;   21.153;   -5.343;  759.845
354.846;   15.591;   -8.604;  740.646
355.442;   13.319;   -6.945;  753.071
356.038;   14.552;   -7.564;  751.708
356.633;   15.254;   -5.814;  728.594
357.229;   13.209;   -7.364;  724.757
357.824;   11.783;   -8.024;  703.600
358.420;   10.814;   -9.384;  679.726
359.015;   12.241;   -5.104;  695.357
359.610;   12.843;   -6.854;  763.920
360.206;    6.384;  -10.185;  603.240
360.801;    9.464;   -7.054;  646.503
361.396;   11.418;   -5.034;  725.975
361.992;    6.644;   -8.284;  668.220
362.587;    3.804;   -8.625;  670.160
363.182;    5.741;   -7.674;  689.631
363.777;    6.941;   -5.164;  738.242
364.372;    6.826;   -8.604;  737.314
364.967;    2.051;   -9.055;  680.744
365.563;    6.461;   -6.114;  815.567
366.158;    3.748;   -5.814;  685.161
366.753;    4.508;   -7.854;  649.263
367.348;    3.104;   -7.804;  746.056
367.942;    2.512;   -7.954;  697.298
368.537;    1.916;   -4.984;  754.245
369.132;    2.357;   -8.564;  703.428
369.727;   -2.368;   -8.855;  638.079
370.322;   -0.587;   -6.245;  580.186
370.917;   -0.898;   -6.425;  710.646
371.511;    2.051;   -6.294;  861.834
372.106;   -2.473;   -7.685;  776.964
372.701;   -5.580;   -7.335;  585.988
373.296;    0.572;   -4.564;  863.135
373.890;   -3.877;  -10.235;  647.840
374.485;   -6.493;   -7.885;  691.199
375.079;   -2.234;   -7.324;  738.685
375.674;   -1.559;   -3.494;  812.970
376.268;   -5.266;   -8.525;  691.759
376.863;  -11.120;  -10.086;  580.327
377.457;   -5.280;   -7.025;  662.490
378.052;   -7.075;   -3.585;  764.884
378.646;   -7.349;   -7.595;  741.167
379.240;   -8.255;   -8.335;  721.176
379.835;   -7.532;   -5.785;  636.978
380.429;   -9.575;   -4.335;  562.557
381.023;   -8.563;   -6.805;  779.205
381.617;  -11.217;   -9.195;  680.106
382.212;   -8.207;   -6.905;  685.303
382.806;   -7.832;   -3.745;  760.690
383.400;  -11.718;   -7.745;  672.281
383.994;  -12.169;   -9.765;  664.870
384.588;   -8.948;   -6.564;  697.701
385.182;   -7.179;   -5.344;  726.624
385.776;   -9.344;   -8.514;  706.875
386.370;  -12.545;   -9.555;  681.968
386.964;  -11.443;   -8.715;  684.155
387.558;   -9.420;   -6.174;  598.360
388.152;  -12.900;   -8.725;  681.959
388.745;  -10.671;   -7.965;  814.707
389.339;   -8.826;   -5.924;  747.642
389.933;   -8.974;   -5.524;  695.370
390.527;   -9.528;   -7.114;  859.029
391.120;  -15.786;  -10.725;  595.318
391.714;  -13.167;   -8.035;  711.633
392.308;   -9.894;   -3.574;  780.253
392.901;  -13.425;   -7.245;  642.460
393.495;  -15.520;   -9.285;  595.414
394.089;  -13.153;   -5.895;  760.452
394.682;  -13.647;   -4.295;  697.188
395.275;  -14.730;   -9.875;  719.927
395.869;  -15.708;   -8.485;  667.314
396.462;  -14.179;   -7.455;  616.609
397.056;  -10.114;   -5.424;  776.621
397.649;  -14.260;   -6.605;  731.575
398.242;  -12.328;   -8.224;  712.645
398.836;  -11.697;   -7.474;  766.408
399.429;  -12.682;   -7.094;  631.041
400.022;  -16.255;   -9.475;  665.902
400.615;  -13.683;   -7.145;  805.609
401.208;  -11.646;   -7.174;  691.451
401.802;  -14.028;   -5.515;  699.329
402.395;  -15.085;   -9.875;  683.502
402.988;  -16.292;   -8.845;  696.627
403.581;  -13.280;   -8.874;  646.878
404.174;  -10.637;   -5.324;  686.568
404.767;  -13.764;   -9.575;  638.583
405.360;  -16.953;  -10.965;  621.445
405.953;  -11.373;   -8.764;  759.034
406.545;   -9.977;   -7.514;  725.342
407.138;  -13.850;  -10.025;  618.350
407.731;  -13.017;  -10.034;  613.303
408.324;   -9.584;   -9.374;  660.554
408.917;  -10.450;   -6.534;  681.864
409.509;  -12.106;   -8.004;  740.396
410.102;  -14.712;   -9.875;  643.948
410.695;   -8.546;   -8.604;  665.758
411.287;   -9.192;   -6.794;  599.821
411.880;  -10.570;   -9.334;  585.421
412.472;  -13.809;  -10.254;  613.092
413.065;  -11.601;   -6.714;  629.408
413.657;   -7.866;   -7.234;  576.678
414.250;   -8.376;  -10.544;  646.681
414.842;  -10.792;   -9.744;  676.353
415.434;   -8.652;   -6.994;  570.463
416.027;   -4.385;   -5.893;  652.196
416.619;   -6.165;   -7.264;  713.400
417.211;   -7.497;  -10.374;  599.352
417.804;   -3.299;   -7.993;  628.499
418.396;   -7.356;   -7.234;  607.643
418.988;   -5.067;   -9.443;  659.238
419.580;   -8.612;  -10.724;  568.276
420.172;   -6.363;  -10.323;  536.196
420.764;   -2.001;   -8.793;  672.482
421.356;   -2.916;  -11.143;  636.898
421.948;   -4.482;   -8.293;  677.661
422.540;    0.413;   -7.893;  680.027
423.132;    0.189;   -7.082;  600.641
423.724;   -3.223;   -8.653;  561.267
424.316;   -1.311;  -10.213;  621.345
424.908;    2.019;   -9.762;  591.517
425.500;    2.662;   -5.572;  647.978
426.092;    3.175;   -8.422;  648.268
426.683;    2.145;   -9.283;  684.836
427.275;    4.368;   -7.852;  641.471
427.867;    6.831;   -5.272;  668.948
428.458;    7.622;   -7.682;  732.344
429.050;    5.111;  -10.612;  680.749
429.642;    7.574;   -9.882;  743.124
430.233;    8.332;   -6.962;  569.356
430.825;    9.776;   -6.842;  724.809
431.416;    5.734;   -9.672;  698.241
432.008;   10.311;   -6.552;  651.723
432.599;   10.681;   -6.891;  656.073
433.190;    8.178;  -10.912;  637.670
433.782;    6.654;  -11.172;  590.395
434.373;   14.039;   -6.061;  884.765
434.964;   13.050;   -8.251;  602.920
435.556;   11.605;   -9.722;  634.537
436.147;   12.384;   -9.082;  758.490
436.738;   13.259;   -8.041;  701.099
437.329;   18.478;   -7.341;  721.723
437.920;   11.854;   -8.162;  666.688
438.511;   11.208;  -11.802;  564.526
439.103;   18.546;  -10.191;  623.998
439.694;   20.086;   -7.601;  681.583
440.285;   20.742;   -8.541;  764.432
440.876;   18.151;   -9.751;  845.738
441.466;   18.069;   -9.401;  575.162
442.057;   23.272;   -7.760;  665.814
442.648;   21.912;   -9.971;  746.255
443.239;   20.143;  -11.001;  620.477
443.830;   24.957;   -7.990;  704.958
444.421;   27.522;   -7.910;  655.474
445.011;   23.589;   -8.131;  693.619
445.602;   22.218;   -7.111;  743.126
446.193;   25.118;  -10.920;  488.117
446.783;   29.761;   -6.500;  640.397
447.374;   25.260;   -8.671;  692.759
447.964;   25.278;  -10.781;  713.770
448.555;   34.014;   -9.650;  822.742
449.145;   30.374;   -8.660;  662.853
449.736;   31.559;   -8.990;  803.179
450.326;   30.435;   -9.500;  713.626
450.917;   35.980;   -8.680;  675.324
451.507;   35.457;   -7.520;  600.661
452.097;   35.135;   -8.590;  746.267
452.688;   36.188;  -11.340;  742.160
453.278;   36.348;  -10.100;  566.840
453.868;   40.866;   -6.019;  793.550
454.458;   39.547;   -9.440;  651.141
455.048;   38.466;  -10.560;  711.783
455.639;   40.863;  -11.799;  567.096
456.229;   44.440;   -6.899;  710.694
456.819;   45.694;   -7.389;  751.158
457.409;   46.044;  -11.119;  773.993
457.999;   48.572;   -9.289;  737.505
458.589;   48.369;   -6.139;  686.606
459.179;   48.114;   -8.729;  717.658
459.769;   46.838;   -9.789;  627.099
460.358;   50.773;  -10.259;  797.262
460.948;   50.782;   -7.299;  689.503
461.538;   53.487;  -10.289;  660.677
462.128;   50.488;  -11.269;  664.934
462.717;   56.714;   -9.368;  710.326
463.307;   60.729;   -7.908;  705.846
463.897;   55.855;   -9.599;  656.942
464.486;   54.920;   -9.769;  837.128
465.076;   58.848;   -8.048;  733.776
465.666;   62.470;   -9.358;  652.900
466.255;   60.519;   -7.919;  785.651
466.845;   60.074;  -11.689;  666.749
467.434;   62.887;   -7.818;  725.873
468.023;   63.801;   -7.678;  658.357
468.613;   61.730;  -10.939;  713.946
469.202;   66.198;  -10.118;  646.507
469.791;   69.809;   -9.108;  737.811
470.381;   72.165;   -6.058;  742.813
470.970;   71.841;  -10.428;  711.099
471.559;   71.316;  -10.268;  733.291
472.148;   73.956;   -8.448;  675.737
472.738;   76.772;   -6.917;  765.466
473.327;   76.167;  -11.978;  637.529
473.916;   75.552;  -11.888;  737.446
474.505;   79.795;   -9.437;  751.703
475.094;   84.349;   -6.747;  806.570
475.683;   83.270;   -9.367;  797.699
476.272;   83.588;  -12.637;  730.632
476.861;   86.059;  -10.027;  706.754
477.449;   92.692;   -8.716;  728.487
478.038;   87.100;   -9.577;  692.513
478.627;   88.464;   -9.718;  714.852
479.216;   94.777;   -8.947;  769.441
479.805;   98.456;   -6.256;  783.375
480.393;   98.069;   -7.937; 1008.945
480.982;   97.279;   -7.717;  874.501
481.571;  103.831;   -9.266;  858.333
482.159;  104.561;   -7.636;  705.386
482.748;  103.858;   -9.667;  821.385
483.336;  109.092;  -10.376;  858.209
483.925;  109.497;   -7.147;  774.373
484.513;  116.496;   -7.996;  758.962
485.102;  113.724;  -10.027;  810.965
485.690;  121.390;  -10.446; 1011.050
486.278;  123.780;   -8.446;  979.329
486.867;  125.663;   -6.356;  809.662
487.455;  128.714;   -9.136;  898.229
488.043;  129.691;  -10.646;  748.361
488.631;  139.290;   -7.456; 1005.079
489.220;  144.321;   -6.636;  908.626
489.808;  146.752;  -11.036;  741.415
490.396;  155.275;  -10.246;  914.645
490.984;  165.414;   -8.556;  830.161
491.572;  180.040;   -5.886;  940.315
492.160;  190.581;   -9.486;  919.081
492.748;  206.302;  -10.976;  884.341
493.336;  237.979;   -8.776; 1019.693
493.924;  284.281;   -5.465;  958.077
494.512;  343.741;   -9.986; 1066.638
495.100;  404.901;  -10.636; 1103.280
495.687;  501.714;  -10.885; 1206.373
496.275;  602.159;   -8.126; 1150.796
496.863;  700.769;  -10.586; 1281.171
497.451;  851.323;  -11.926; 1386.805
498.038;  983.052;  -10.885; 1556.729
498.626; 1162.226;   -6.315; 1741.407
499.214; 1448.640;   -7.326; 2016.609
499.801; 1780.361;  -11.906; 2220.633
500.389; 2175.811;  -10.466; 2312.494
500.976; 2497.962;   -5.236; 2744.849
501.564; 3051.050;   -8.936; 3148.565
502.151; 3842.932;  -13.176; 3515.999
502.738; 4443.371;  -10.646; 3971.274
503.326; 4896.777;   -9.525; 4403.796
503.913; 5252.200;  -10.856; 5161.749
504.500; 5807.000;  -11.586; 5986.420
505.088; 6485.738;  -10.336; 6381.201
505.675; 7423.949;   -6.355; 6925.547
506.262; 8020.216;   -9.046; 7619.060
506.849; 8352.238;  -10.416; 8733.969
507.436; 9155.015;  -10.305; 9790.121
508.023; 9746.095;   -5.496; 9985.472
508.610; 9679.603;   -7.856;10434.618
509.197;10406.571;  -10.097;11198.435
509.784;11899.260;  -10.886;12391.194
510.371;13440.550;   -9.315;13603.713
510.958;14785.807;   -9.936;14426.586
511.545;15336.666;   -9.326;15243.775
512.132;15262.107;  -10.075;15945.876
512.719;15726.421;   -7.796;16340.369
513.305;16862.654;  -10.606;18011.766
513.892;18709.873;  -11.486;19754.971
514.479;20234.219;   -9.126;20967.805
515.066;20944.090;   -6.026;22299.793
515.652;20496.010;   -8.466;22908.660
516.239;20887.760;  -10.886;23798.875
516.825;21972.543;  -11.496;25567.275
517.412;23477.139;   -5.796;28154.959
517.998;24682.727;  -10.506;28344.111
518.585;25646.170;  -10.076;27134.219
519.171;24975.598;   -8.315;27268.576
519.758;26211.764;   -8.596;28964.129
520.344;28311.967;   -8.466;30664.494
520.930;27381.250;  -11.006;32550.605
521.516;26293.707;  -10.495;35422.895
522.103;28137.158;   -5.526;38280.004
522.689;29609.859;   -8.746;37835.117
523.275;30483.639;  -11.376;37288.613
523.861;32389.080;  -11.156;37281.395
524.447;32623.230;   -8.135;37846.949
525.033;32853.730;   -7.896;38321.949
525.619;33343.637;  -12.476;38579.285
526.205;33531.129;   -9.516;40622.875
526.791;33032.188;   -6.926;42258.836
527.377;32304.383;   -8.346;42966.902
527.963;33824.512;   -8.717;42018.949
528.549;35161.957;  -11.016;42476.828
529.135;33696.707;   -8.536;41854.852
529.721;34232.559;   -9.666;41237.711
530.306;33230.871;  -10.066;41259.445
530.892;32637.934;  -11.356;41506.047
531.478;34538.789;   -6.596;43559.613
532.063;36943.078;   -8.836;47695.563
532.649;35692.715;  -10.047;50808.324
533.235;36306.297;   -9.746;51787.500
533.820;37953.879;   -6.566;52145.035
534.406;39130.945;  -10.817;51133.488
534.991;40661.375;   -9.416;49996.805
535.576;38827.832;   -9.036;48882.852
536.162;36304.012;   -6.156;46942.285
536.747;37115.988;  -11.607;45711.746
537.333;38920.117;  -11.787;48510.180
537.918;39846.254;  -12.437;50439.891
538.503;40236.922;   -7.196;50863.711
539.088;41191.145;  -10.556;50906.922
539.673;41754.453;   -8.767;52621.965
540.259;38803.469;  -10.026;52368.094
540.844;38808.039;   -7.416;50879.109
541.429;38839.551;   -9.467;52077.777
542.014;37921.840;   -9.527;52716.695
542.599;40700.703;   -9.946;52363.281
543.184;41913.445;   -7.927;53187.137
543.769;42697.574;   -9.297;54697.605
544.354;42918.895;  -10.127;53913.914
544.938;40617.605;   -9.267;49680.164
545.523;39315.133;   -6.506;47386.277
546.108;41923.094;   -9.787;49151.949
546.693;41940.082;  -11.587;51384.637
547.278;41193.461;  -10.986;51853.254
547.862;41942.512;   -8.206;51173.750
548.447;40472.039;  -10.067;51691.395
549.031;40054.367;   -9.637;52456.703
549.616;40143.461;   -9.926;52714.516
550.201;39726.168;   -6.347;52414.598
550.785;40206.129;   -7.917;52355.059
551.370;41089.340;  -10.867;54589.453
551.954;42921.816;   -9.047;58267.348
552.538;41978.516;   -7.827;59062.176
553.123;40501.730;  -10.287;58115.285
553.707;39299.066;  -12.178;56556.285
554.291;37859.648;   -8.717;56201.668
554.876;39785.652;   -7.457;55335.762
555.460;41960.266;  -10.387;54155.703
556.044;43366.328;   -9.618;53721.484
556.628;43443.590;  -11.567;53731.016
557.212;43926.254;   -8.097;54312.531
557.796;45457.395;  -11.077;53797.773
558.380;44167.996;  -11.108;56145.984
558.964;42823.672;   -9.057;57277.930
559.548;40661.891;   -6.977;56459.641
560.132;38415.730;  -11.457;54434.543
560.716;39393.324;  -11.378;54800.617
561.300;40083.840;   -9.577;57606.945
561.884;38626.930;   -7.127;58972.445
562.467;38962.113;   -7.118;57327.570
563.051;37568.301;  -13.358;54962.434
563.635;35243.426;  -10.178;52594.473
564.219;36984.133;   -7.837;50610.410
564.802;40842.020;  -11.398;49551.180
565.386;41511.469;  -12.788;48370.953
565.969;41674.438;   -9.077;48178.871
566.553;40932.391;   -6.207;49957.305
567.136;39805.402;   -8.568;50369.594
567.720;40577.129;  -11.868;49492.004
568.303;41590.508;   -8.268;50616.352
568.887;40632.535;   -8.698;50727.148
569.470;38712.938;   -6.808;51698.379
570.053;36852.504;  -13.188;52122.078
570.637;34335.910;  -12.037;52536.438
571.220;34559.570;   -8.577;51186.098
571.803;34583.875;   -8.498;51032.762
572.386;36162.754;  -10.498;49609.887
572.969;37017.027;   -9.388;48285.926
573.552;37029.582;   -8.338;47624.285
574.135;35757.570;   -8.518;45498.641
574.718;32020.051;  -13.628;41970.434
575.301;32935.719;  -10.893;41447.137
575.884;33851.387;   -8.158;40923.836
576.467;39395.230;  -10.328;45267.723
577.050;40437.391;  -13.058;48175.543
577.633;39258.977;   -9.458;47729.328
578.216;36089.969;   -8.928;47579.793
578.799;33958.773;   -9.358;47820.996
579.381;34523.961;  -11.388;48115.551
579.964;34424.141;  -11.718;47333.766
580.547;33224.715;   -8.588;46668.969
581.129;33385.570;   -8.859;44466.141
581.712;35015.934;  -10.729;44164.922
582.294;35248.797;  -11.118;46477.855
582.877;35465.016;   -5.218;48244.254
583.459;35555.539;   -8.679;47437.895
584.042;36945.793;  -10.709;46943.219
584.624;35207.520;  -11.669;46792.227
585.206;34357.148;   -8.218;46557.250
585.789;35327.715;  -10.569;45793.773
586.371;35624.012;  -11.859;43836.391
586.953;36182.219;  -10.719;42972.492
587.536;38051.957;   -7.198;42487.211
588.118;37458.594;   -8.720;42086.414
588.700;36419.199;  -10.439;43389.930
589.282;34017.977;   -9.198;43646.039
589.864;31556.012;   -9.199;43438.109
590.446;30903.188;  -11.319;43151.926
591.028;31084.738;  -11.159;42781.867
591.610;30832.195;  -11.779;42839.098
592.192;31035.494;   -7.668;42820.402
592.774;29074.311;  -11.949;40724.277
593.356;26054.547;  -12.129;39874.789
593.937;26115.643;  -10.669;39980.648
594.519;29322.195;   -6.509;42069.633
595.101;30685.555;  -10.849;42976.031
595.683;30674.672;  -11.679;44084.441
596.264;30680.314;   -9.049;43478.797
596.846;30256.221;   -8.849;43803.672
597.427;30581.855;   -9.570;42986.934
598.009;32572.707;  -12.620;42832.219
598.591;32711.650;  -10.039;42580.086
599.172;34195.668;  -10.369;43061.805
599.753;35794.914;   -9.140;41691.469
600.335;35166.070;  -11.430;40692.520
600.916;32618.416;   -9.939;39982.422
601.498;29802.732;   -8.479;40318.617
602.079;28985.451;  -10.920;40670.609
602.660;29091.738;  -11.480;41450.898
603.241;30906.955;  -11.699;41137.738
603.823;31539.412;   -9.579;38868.797
604.404;31185.299;  -10.620;38182.785
604.985;33867.883;  -10.450;38078.047
605.566;34792.668;   -9.129;38056.633
606.147;35727.516;   -7.510;37020.418
606.728;34230.324;  -10.660;37883.359
607.309;32176.645;  -11.740;38748.273
607.890;32123.680;   -9.759;38850.230
608.471;30870.240;   -8.250;37457.918
609.051;29994.742;   -9.240;36066.457
609.632;29103.307;  -12.120;35991.074
610.213;29210.234;   -9.110;37402.641
610.794;30571.301;   -8.030;38383.363
611.374;29628.020;   -8.110;40562.387
611.955;29467.344;  -13.560;38533.727
612.536;30053.313;  -11.400;36951.789
613.116;29403.021;   -8.070;37197.891
613.697;30651.963;  -10.830;38411.125
614.277;30489.398;  -11.641;38673.938
614.858;30021.813;  -13.310;37075.863
615.438;30416.988;   -7.460;35092.906
616.019;28122.771;   -7.601;33666.301
616.599;28781.867;  -12.020;34189.023
617.179;28920.379;  -11.780;36952.047
617.760;28088.178;   -8.570;39582.574
618.340;28367.693;  -11.471;38943.977
618.920;27886.676;  -11.170;37594.156
619.500;28412.654;  -11.071;37866.938
620.080;29363.238;   -7.750;37869.043
620.660;29986.523;  -12.711;36868.617
621.241;30727.553;  -10.211;36352.309
621.821;29949.898;  -10.961;35459.520
622.401;29985.402;   -7.720;35207.414
622.980;32030.000;   -8.981;35980.422
623.560;30605.459;   -9.331;37351.328
624.140;26821.678;   -9.850;34388.582
624.720;23320.590;   -7.451;32368.764
625.300;22674.455;   -9.070;32638.629
625.880;26801.531;  -12.601;34599.035
626.459;29835.277;  -11.751;36831.738
627.039;29567.924;   -9.281;38299.098
627.619;29290.318;   -8.801;38289.574
628.198;28891.354;  -12.071;37220.695
628.778;28721.717;   -9.461;37632.563
629.357;29368.957;   -8.491;38003.012
629.937;29212.514;   -9.721;38402.039
630.516;29994.270;   -9.951;37868.801
631.096;31713.336;  -11.731;35760.410
631.675;34366.238;   -8.572;35225.219
632.254;33723.301;  -11.282;35130.289
632.834;32375.740;  -13.322;35794.570
633.413;33074.582;  -10.301;35788.922
633.992;33648.133;   -8.582;34532.863
634.571;34535.551;   -8.352;33590.113
635.151;33435.699;  -11.912;34943.863
635.730;31935.590;  -10.511;35352.523
636.309;31880.189;   -7.731;35366.605
636.888;31517.219;   -9.952;36165.637
637.467;31178.660;  -11.672;37515.902
638.046;29678.453;   -8.901;39288.695
638.625;28969.678;   -7.912;38279.699
639.204;28201.141;  -10.022;37741.598
639.782;30054.717;  -12.252;38364.551
640.361;31484.969;  -10.041;36740.621
640.940;30250.992;  -11.161;34950.082
641.519;29884.457;   -9.701;34137.398
642.097;30864.047;  -11.271;35654.258
642.676;30429.775;   -8.651;35637.957
643.255;29977.607;   -8.711;36567.074
643.833;30734.807;   -9.581;37809.434
644.412;31021.393;  -13.711;37337.293
644.990;32021.266;  -11.811;37018.531
645.569;34248.867;   -9.411;36518.469
646.147;34921.855;  -10.291;36186.430
646.726;34321.422;  -12.401;36267.688
647.304;33207.012;  -10.411;36647.625
647.882;33582.766;   -9.651;39286.742
648.461;32963.992;   -9.631;39157.703
649.039;29945.068;  -11.881;35412.883
649.617;29545.225;   -9.661;34744.918
650.195;30102.922;   -9.301;35403.098
650.773;29540.246;  -10.511;35053.797
651.352;29116.621;  -11.521;33756.816
651.930;28491.064;  -12.211;31868.773
652.508;28219.199;   -9.171;33121.551
653.086;29228.402;   -9.371;33564.793
653.663;31573.568;  -13.161;34054.668
654.241;30341.262;  -13.031;35693.309
654.819;28064.465;   -9.371;36422.906
655.397;28576.779;  -10.511;38213.484
655.975;28701.818;  -10.371;39507.625
656.553;29846.930;  -10.051;39498.223
657.130;30650.359;  -10.061;40395.480
657.708;26950.461;   -9.561;39242.020
658.286;24040.270;  -11.511;38920.020
658.863;24168.695;  -10.261;40202.898
659.441;26858.303;   -7.531;39677.938
660.018;29861.584;   -9.501;40413.355
660.596;30529.127;  -13.301;39931.414
661.173;32844.230;  -11.211;39604.531
661.750;32100.164;   -9.951;39700.070
662.328;29544.994;   -9.390;39292.809
662.905;27939.998;  -11.330;38235.648
663.482;25195.367;   -9.050;36212.305
664.060;23614.771;   -8.240;35944.945
664.637;27356.051;  -10.050;35170.785
665.214;31159.748;  -11.760;34197.523
665.791;30145.508;  -10.530;34549.520
666.368;30767.170;   -9.690;35118.578
666.945;31845.480;   -9.320;36019.418
667.522;32315.559;  -11.860;36048.438
668.099;31841.674;  -10.770;36243.914
668.676;32956.207;   -6.260;35958.875
669.253;34388.664;   -7.000;37384.730
669.830;33664.313;  -10.190;36779.629
670.407;31800.869;   -9.550;35231.289
670.984;31168.543;   -9.260;35544.270
671.560;30350.793;   -9.280;35466.867
672.137;28811.594;  -11.810;34280.863
672.714;28534.592;  -11.490;34632.863
673.290;29146.715;   -7.740;35135.422
673.867;29103.258;  -10.660;36114.480
674.443;28061.529;  -12.230;36152.859
675.020;26771.520;  -10.450;35327.238
675.596;25413.820;   -9.260;35795.176
676.173;26337.500;  -10.780;35430.355
676.749;27143.938;  -13.690;33549.516
677.326;27767.979;  -11.980;32210.012
677.902;25673.207;   -8.630;32068.871
678.478;24756.668;  -10.730;32583.891
679.054;26880.748;  -10.520;32088.928
679.631;27774.211;  -11.920;30978.848
680.207;28216.582;   -7.490;33160.887
680.783;29697.389;   -9.860;35570.363
681.359;31517.934;  -13.380;36125.184
681.935;31844.576;  -12.480;35240.922
682.511;31551.664;   -7.900;34429.961
683.087;30858.127;   -7.710;34463.680
683.663;31487.096;  -11.480;34648.898
684.239;31755.395;  -14.090;34546.457
684.815;33285.414;   -7.560;35586.375
685.390;33270.199;   -9.910;35821.895
685.966;32478.824;  -11.159;35085.871
686.542;32855.863;  -11.169;34198.230
687.118;31483.357;   -5.959;32847.707
687.693;31377.139;  -10.329;32794.027
688.269;31000.822;  -12.059;33072.367
688.844;31455.080;  -10.909;33141.664
689.420;32089.377;   -8.019;33965.742
689.995;28903.402;   -8.399;34655.523
690.571;27984.373;  -10.949;33576.742
691.146;27322.613;   -9.619;32657.219
691.722;25673.439;   -8.999;32526.979
692.297;25440.375;  -11.589;33014.617
692.872;26043.848;  -11.739;34012.254
693.448;26104.379;  -11.059;34237.434
694.023;27895.672;  -10.139;34142.672
694.598;30103.439;   -9.029;34132.031
695.173;29654.023;  -13.319;34205.250
695.748;27273.992;  -10.169;32882.488
696.323;25403.963;   -8.339;32864.906
696.898;25818.551;   -8.169;33170.004
697.473;28590.920;  -12.309;32432.984
698.048;27542.480;  -10.989;31649.303
698.623;26372.738;   -9.329;30778.141
699.198;27630.379;   -9.849;31140.119
699.773;29048.385;  -12.329;31764.299
700.348;28819.488;  -10.389;31780.816
700.922;26942.721;   -9.269;32046.375
701.497;25822.656;   -9.329;32603.574
702.072;27594.410;  -10.789;34799.871
702.646;27828.258;  -10.839;35793.172
703.221;28926.584;   -9.099;35201.590
703.795;29343.875;  -10.939;34764.527
704.370;27614.066;  -12.859;34307.367
704.944;28716.111;  -11.559;33509.887
705.519;29550.057;   -7.939;31388.584
706.093;30987.246;  -10.499;31340.104
706.668;32222.625;  -11.289;32630.281
707.242;31441.072;  -11.509;32728.779
707.816;30389.846;   -9.639;32947.238
708.390;29720.432;  -11.429;33277.855
708.965;30662.199;  -11.869;33834.336
709.539;31131.891;  -11.689;33709.273
710.113;31160.492;  -10.478;33044.313
710.687;28599.334;  -10.228;31953.992
711.261;27350.863;  -13.698;30505.949
711.835;26884.883;  -13.378;30262.369
712.409;27185.686;   -9.698;31254.447
712.983;26341.121;  -11.898;32754.986
713.557;25050.164;  -15.138;34018.824
714.131;26709.686;  -14.098;34579.625
714.704;26631.680;   -9.958;33890.262
715.278;26233.287;  -10.028;33531.102
715.852;25671.438;  -11.148;33601.660
716.425;25097.730;   -9.068;33515.117
716.999;26188.930;  -10.038;33185.555
717.573;26384.150;   -9.798;33905.996
718.146;27966.947;  -12.378;35199.293
718.720;28906.738;  -11.918;35060.551
719.293;27943.844;   -8.088;34973.230
719.867;26751.527;  -10.888;36394.449
720.440;27451.801;  -11.938;36663.008
721.013;29807.404;  -12.818;35102.426
721.587;31431.398;  -10.298;33985.266
722.160;30773.807;  -10.048;33524.965
722.733;28542.971;  -12.108;32987.043
723.306;26523.115;  -10.818;33066.301
723.880;27139.477;   -8.908;33399.500
724.453;25898.154;   -9.878;33468.297
725.026;25577.225;  -11.188;33816.637
725.599;25920.844;  -11.678;32797.996
726.172;25384.408;   -9.618;33187.434
726.745;26133.063;   -8.258;35136.613
727.318;28950.861;  -12.978;35751.730
727.891;30602.939;  -12.148;35890.430
728.463;31690.516;   -8.968;34822.090
729.036;31736.682;  -10.188;32895.086
729.609;29657.734;  -11.788;31823.225
730.182;28202.281;  -11.788;31445.283
730.754;27671.939;  -10.268;32373.223
731.327;27485.520;   -9.998;33676.820
731.900;26491.305;  -12.228;33417.000
732.472;25560.029;  -13.848;31978.498
733.045;25653.502;   -8.698;30368.777
733.617;25285.266;  -10.607;30574.215
734.190;23267.740;  -11.507;31280.975
734.762;23554.764;  -13.647;31674.412
735.334;25131.729;   -9.767;31247.291
735.907;24923.082;   -9.897;29876.211
736.479;22740.277;  -11.637;29808.488
737.051;22633.131;   -9.567;30233.547
737.623;23318.641;   -8.187;31469.086
738.195;24660.551;  -11.187;31784.225
738.768;25240.516;  -12.337;32120.523
739.340;24968.701;  -12.227;32094.342
739.912;24757.727;  -11.057;31312.680
740.484;25437.293;  -10.207;31946.238
741.056;26635.795;  -10.047;32984.059
741.628;26377.197;  -13.627;33897.715
742.199;26865.066;   -7.177;33213.016
742.771;25057.879;  -10.797;31369.113
743.343;23541.166;  -11.997;31865.473
743.915;23333.984;  -12.867;32388.631
744.487;23759.648;   -7.617;31079.568
745.058;24864.619;   -9.557;30570.107
745.630;24513.016;   -9.877;29970.127
746.201;23158.982;  -14.177;29186.766
746.773;22978.670;   -9.237;28805.723
747.344;23413.969;   -9.847;29591.223
747.916;23094.113;  -11.657;31412.201
748.487;21977.990;  -10.587;32194.898
749.059;21864.695;   -8.707;32533.719
749.630;21131.592;  -10.537;32158.518
750.201;21119.443;  -11.687;30855.395
750.773;21641.771;  -11.647;28622.555
751.344;23233.740;   -7.147;28405.732
751.915;23196.492;   -9.757;28461.551
752.486;22821.404;  -12.427;27842.850
753.057;21547.738;  -12.227;27845.008
753.628;20989.352;  -10.417;27728.107
754.199;20769.107;  -11.767;27381.086
754.770;20117.039;  -11.187;25882.203
755.341;19438.809;  -10.507;25886.184
755.912;19642.959;   -9.387;26050.861
756.483;20182.424;  -10.647;26798.779
757.054;19524.549;  -11.837;27048.238
757.625;17943.607;  -12.716;26294.838
758.195;17652.316;   -9.666;26142.076
758.766;18442.078;   -8.656;26392.234
759.337;17907.822;  -12.856;26334.594
759.907;16916.939;  -13.366;27579.652
760.478;16215.246;   -8.576;28352.770
761.048;16732.230;  -10.526;27325.088
761.619;17411.943;  -11.116;26460.428
762.189;17034.133;  -12.136;26029.826
762.760;16777.445;   -9.456;26430.145
763.330;16763.795;   -7.136;26670.902
763.900;16599.088;  -11.786;26603.021
764.471;16088.148;  -11.546;25542.740
765.041;15963.590;   -8.096;24358.459
765.611;15852.053;   -8.876;23991.297
766.181;15970.295;  -12.196;24470.236
766.751;16898.113;  -11.636;24845.975
767.321;16753.063;  -10.156;24533.633
767.891;16257.229;  -11.766;24916.492
768.461;16041.011;  -14.936;24776.771
769.031;15443.173;  -12.356;24757.988
769.601;15263.543;   -7.526;24181.088
770.171;15485.769;  -10.766;23670.387
770.741;16181.015;  -13.176;22960.045
771.311;15923.160;  -10.616;22917.523
771.880;14663.223;   -9.576;23562.941
772.450;14167.785;  -10.336;24216.500
773.020;14447.742;  -13.516;24140.398
773.589;14619.249;  -13.466;24414.857
774.159;14117.364;   -8.686;23858.717
774.729;13224.757;   -9.476;22942.135
775.298;13093.702;  -13.666;22324.033
775.867;13008.497;  -11.716;21140.313
776.437;12329.313;   -9.906;20838.092
777.006;12221.717;  -12.166;20599.510
777.576;13369.475;  -12.356;20508.809
778.145;13057.546;  -11.646;20732.947
778.714;12434.103;   -8.226;21062.465
779.283;12360.421;   -9.556;20949.664
779.853;12068.492;  -14.116;20508.623
780.422;11811.293;  -11.506;20649.082
780.991;12151.811;   -9.556;21527.520
781.560;12720.479;   -9.095;22632.658
782.129;11889.582;  -12.135;23048.277
782.698;11204.903;  -10.865;23438.555
783.267;10837.291;   -9.335;23267.734
783.836;10938.440;  -11.045;22415.133
784.404;11372.811;  -13.865;20443.152
784.973;11541.308;  -13.095;19699.150
785.542;11309.003;  -11.575;19763.828
786.111;11146.312;   -9.705;20341.408
786.679;11201.989;  -12.105;20207.967
787.248;11271.137;  -12.455;19516.465
787.817;11380.080;  -11.535;18900.363
788.385;11191.377;   -9.765;17879.121
788.954;10996.904;  -14.005;17658.301
789.522;10873.406;  -11.955;17788.879
790.090;10135.587;  -10.135;18118.277
790.659; 9483.663;  -10.975;18338.736
791.227; 9700.980;  -13.375;18508.615
791.795;10154.195;  -12.375;17898.254
792.364;10383.723;  -10.725;17295.133
792.932;10749.834;   -9.715;16822.051
793.500;10802.366;  -12.675;17040.148
794.068;11288.421;  -13.495;17179.787
794.636;11488.578;  -10.885;16664.246
795.204;11309.629;  -11.045;16524.545
795.772;11383.011;  -13.175;17274.564
796.340;11039.738;  -12.445;17891.002
796.908;11085.588;   -9.735;17648.561
797.476;11457.009;   -9.815;17064.080
798.044;11276.473;  -13.985;16672.777
798.612;10592.112;  -13.115;17023.996
799.180; 9735.280;  -10.185;16561.615
799.747; 9700.848;   -9.055;15962.773
800.315;10153.398;  -12.385;15296.992
800.883; 9552.618;  -15.035;14801.771
801.450; 8912.314;  -10.365;14534.430
802.018; 8801.975;   -9.855;14173.248
802.585; 8833.471;  -11.905;14029.547
803.153; 8942.000;  -11.585;13836.846
803.720; 8665.297;   -9.095;13567.324
804.287; 8520.043;   -9.135;13360.622
804.855; 8632.801;  -11.604;13681.981
805.422; 9100.465;  -11.794;13536.560
805.989; 9324.523;  -10.734;13355.958
806.556; 9352.063;  -10.444;13747.896
807.124; 9927.257;  -12.764;13987.376
807.691;10358.899;  -12.964;14038.674
808.258;10301.339;  -11.134;14120.152
808.825;10411.351;   -9.854;13860.111
809.392;10119.607;  -10.504;13268.790
809.959; 9317.787;  -13.054;12680.389
810.526; 8458.931;   -8.294;12427.308
811.093; 7694.356;   -8.394;12030.105
811.659; 7469.821;  -12.304;11653.664
812.226; 7694.425;  -13.944;11637.183
812.793; 8097.177;  -10.484;11611.521
813.360; 8196.945;  -10.144;11885.181
813.926; 8270.212;  -11.684;12770.539
814.493; 8165.498;  -13.644;12677.638
815.060; 8088.692;   -9.724;11974.336
815.626; 8295.364;   -9.854;11594.715
816.193; 8325.473;  -13.254;11579.474
816.759; 7620.202;  -13.204;11666.972
817.325; 7159.968;   -9.434;11325.530
817.892; 6995.191;  -10.134;11105.369
818.458; 7137.412;  -13.474;10843.928
819.024; 7516.491;  -11.854;10714.406
819.591; 7437.385;  -10.244;10469.165
820.157; 7118.828;  -10.704;10235.523
820.723; 7114.246;  -12.324;10847.563
821.289; 6973.259;   -9.444;11040.980
821.855; 7006.608;   -8.374;10357.100
822.421; 7350.865;  -10.234; 9978.918
822.987; 7339.667;  -13.294; 9754.177
823.553; 7077.895;  -10.884;10065.755
824.119; 6785.109;   -8.884;10036.294
824.685; 6161.175;   -6.784;10029.192
825.251; 5930.610;  -12.004;10199.230
825.816; 5578.208;  -11.474; 9820.189
826.382; 5338.492;   -9.174; 9297.248
826.948; 5679.057;   -9.214; 9381.347
827.513; 6087.830;  -10.774; 9450.726
828.079; 6078.320;  -11.924; 9472.444
828.645; 5840.195;  -10.543; 9292.643
829.210; 5640.570;  -10.533; 9065.341
829.776; 5504.854;  -10.753; 9132.620
830.341; 5643.679;  -10.173; 9092.878
830.906; 5694.499;  -10.743; 9078.557
831.472; 5519.604;  -11.113; 8534.535
832.037; 5211.062;  -10.603; 8677.874
832.602; 5060.531;  -13.323; 8628.692
833.167; 4793.432;  -10.823; 8879.031
833.733; 4614.988;  -10.113; 9189.790
834.298; 4389.711;  -13.583; 9052.608
834.863; 4531.716;  -12.703; 8895.087
835.428; 4708.569;  -10.523; 8824.266
835.993; 4645.695;   -6.963; 8845.385
836.558; 4609.352;  -10.763; 8888.563
837.123; 4763.906;   -9.903; 8966.582
837.688; 5165.378;   -9.913; 8617.860
838.253; 5199.601;  -10.283; 8590.699
838.817; 4868.349;  -12.963; 8443.797
839.382; 4757.396;  -14.243; 8799.356
839.947; 4805.432;  -10.733; 8810.595
840.511; 4769.196;   -9.383; 8796.394
841.076; 4623.361;  -12.563; 8347.231
841.641; 4470.911;  -12.953; 8224.330
842.205; 4358.405;   -7.043; 8223.349
842.770; 4134.621;   -8.163; 8622.107
843.334; 4307.382;  -12.503; 8410.386
843.898; 4533.426;  -11.693; 8337.465
844.463; 4113.369;  -10.203; 8506.283
845.027; 3781.418;   -9.533; 8280.962
845.591; 3778.438;  -13.443; 8231.141
846.156; 3803.136;  -13.143; 7969.179
846.720; 3649.092;   -9.433; 7768.278
847.284; 3631.690;  -11.033; 7630.957
847.848; 3704.749;  -10.403; 7472.395
848.412; 3563.293;  -11.553; 7437.394
848.976; 3409.765;   -8.393; 7674.592
849.540; 3374.102;   -8.713; 7836.011
850.104; 3412.455;  -12.463; 7913.669
850.668; 3499.034;  -12.973; 7694.508
851.232; 3459.418;  -10.793; 7756.887
851.796; 3481.304;  -10.662; 7926.545
852.359; 3569.961;  -13.082; 7827.844
852.923; 3569.041;  -12.192; 7641.163
853.487; 3565.802;  -11.912; 7342.501
854.050; 3391.372;  -10.892; 7042.820
854.614; 3470.957;  -13.992; 7151.338
855.177; 3560.698;  -11.732; 7105.077
855.741; 3414.180;   -8.962; 6989.675
856.304; 3261.296;   -9.442; 6596.634
856.868; 3106.075;  -14.192; 6356.272
857.431; 3074.747;  -12.702; 6468.571
857.995; 3156.217;   -9.942; 6373.210
858.558; 3298.832;   -9.112; 6324.448
859.121; 3224.548;  -12.932; 6408.327
859.684; 3129.356;  -13.442; 6347.886
860.247; 3070.443;  -10.632; 6321.264
860.810; 3004.772;  -11.272; 6301.903
861.374; 2923.855;   -9.832; 6607.881
861.937; 2818.774;  -11.762; 6408.200
862.500; 2795.508;   -9.722; 6572.639
863.062; 2737.406;  -10.512; 6387.297
863.625; 2706.400;  -11.232; 6190.836
864.188; 2759.966;  -14.112; 5807.254
864.751; 2791.481;  -11.302; 5682.413
865.314; 2686.554;  -10.112; 5547.492
865.876; 2563.846;  -12.182; 5500.150
866.439; 2439.064;  -10.722; 5415.909
867.002; 2345.774;   -9.252; 5501.567
867.564; 2415.237;   -9.572; 5413.946
868.127; 2447.464;  -13.142; 5160.325
868.689; 2488.898;  -12.902; 5133.183
869.252; 2582.595;   -9.732; 5252.382
869.814; 2517.258;   -9.432; 5297.141
870.377; 2422.207;  -11.552; 5390.919
870.939; 2401.002;   -9.052; 5599.898
871.501; 2335.355;  -10.982; 5248.336
872.063; 2235.462;  -12.292; 4854.235
872.626; 2179.003;  -14.912; 4817.074
873.188; 2092.263;  -13.112; 4987.732
873.750; 2070.597;  -13.442; 4868.651
874.312; 2048.670;   -9.402; 4779.330
874.874; 2027.654;  -11.062; 4866.348
875.436; 1900.574;  -13.931; 4718.887
875.998; 1769.690;   -9.561; 4660.005
876.560; 1743.725;  -11.321; 4462.964
877.122; 1801.725;  -12.221; 4145.042
877.683; 1906.841;  -12.191; 4056.481
878.245; 1953.940;  -12.101; 3950.740
878.807; 1991.970;   -8.971; 4058.958
879.369; 1944.250;  -12.071; 3954.677
879.930; 1803.030;  -14.621; 3941.495
880.492; 1713.712;  -10.311; 4067.014
881.053; 1702.783;  -10.901; 3859.633
881.615; 1670.840;  -14.411; 3776.071
882.176; 1595.675;  -13.761; 3734.750
882.738; 1530.151;   -9.181; 3678.489
883.299; 1520.284;  -11.791; 3405.407
883.860; 1529.011;  -13.121; 3351.106
884.422; 1463.988;  -11.211; 3394.044
884.983; 1372.977;  -10.091; 3166.443
885.544; 1324.945;   -8.461; 3189.802
886.105; 1254.907;  -12.361; 3160.360
886.666; 1192.924;  -14.141; 3093.059
887.227; 1170.563;  -11.361; 2941.957
887.788; 1109.568;  -11.401; 2974.836
888.349; 1006.134;  -13.791; 2721.214
888.910;  963.888;  -13.191; 2696.493
889.471;  938.017;   -9.881; 2560.172
890.032;  944.628;   -9.881; 2558.190
890.593;  918.987;  -10.371; 2567.669
891.153;  824.778;  -13.301; 2460.307
891.714;  727.769;  -11.431; 2372.046
892.275;  690.977;  -11.291; 2309.505
892.835;  694.164;  -11.471; 2382.543
893.396;  676.380;  -11.541; 2295.502
893.956;  645.692;  -11.181; 2162.420
894.517;  602.486;  -11.741; 2125.439
895.077;  549.288;  -11.671; 2086.978
895.638;  512.709;  -11.311; 2126.316
896.198;  502.468;   -9.831; 1838.275
896.758;  489.578;   -8.421; 1892.813
897.319;  466.991;  -12.351; 1792.232
897.879;  444.967;  -13.511; 1762.751
898.439;  410.137;  -12.001; 1661.149
898.999;  387.732;  -10.180; 1781.468
899.559;  380.810;  -12.030; 1703.347
900.119;  370.072;  -15.710; 1537.525
900.679;  357.120;   -8.900; 1638.384
901.239;  337.650;   -8.340; 1527.902
901.799;  308.827;  -13.910; 1456.441
902.359;  286.599;  -13.460; 1357.140
902.919;  279.957;  -11.490; 1331.118
903.479;  280.586;  -12.110; 1317.257
904.038;  273.049;  -11.720; 1262.595
904.598;  262.737;  -13.610; 1152.034
905.158;  251.650;  -11.040; 1240.893
905.717;  235.832;  -10.900; 1233.691
906.277;  227.649;  -15.080; 1217.330
906.836;  226.753;  -13.380; 1222.408
907.396;  222.574;  -10.780; 1193.047
907.955;  214.758;   -8.500; 1182.526
908.515;  209.610;  -12.760; 1099.364
909.074;  209.195;  -11.900; 1092.863
909.633;  208.144;   -8.950; 1069.121
910.192;  205.320;   -8.770; 1196.460
910.752;  194.848;  -12.390; 1029.960
911.311;  183.614;  -13.680; 1009.780
911.870;  173.820;  -12.370;  971.460
912.429;  169.114;  -10.900; 1094.080
912.988;  166.921;  -11.690; 1081.060
913.547;  163.427;  -13.240;  940.380
914.106;  162.560;  -11.990;  999.420
914.665;  160.638;   -9.990;  984.020
915.224;  158.996;  -12.880; 1035.760
915.782;  156.396;  -12.350;  922.560
916.341;  154.641;   -9.110; 1049.840
916.900;  151.861;   -9.270;  925.260
917.458;  150.577;  -13.240;  884.220
918.017;  149.522;  -13.550;  942.600
918.576;  146.647;  -12.320;  904.440
919.134;  144.634;  -11.490;  837.980
919.693;  143.093;  -13.670;  893.060
920.251;  141.710;  -15.470;  876.500
920.809;  141.776;  -11.290;  839.580
921.368;  141.656;  -10.210;  885.360
921.926;  138.895;  -12.140;  842.940
922.484;  137.103;  -13.080;  903.360
923.042;  135.649;  -11.720;  880.340
923.601;  136.617;   -7.480;  998.680
924.159;  134.214;  -11.570;  935.560
924.717;  131.994;  -13.840;  841.080
925.275;  132.485;  -10.640;  903.240
925.833;  132.347;  -11.540;  779.320
926.391;  132.740;  -12.960;  938.380
926.949;  133.081;  -14.130;  857.680
927.506;  132.153;  -11.750;  903.500
928.064;  132.868;  -10.250;  877.580
928.622;  134.193;  -13.030;  880.100
929.180;  135.315;  -13.400;  814.180
929.737;  137.037;  -10.700;  808.540
930.295;  139.691;  -10.070;  928.480
930.853;  139.788;  -11.960;  849.100
931.410;  140.373;  -13.120;  821.120
931.968;  141.647;  -10.770;  940.660
932.525;  142.189;  -10.680;  909.380
933.082;  141.722;  -13.130;  811.440
933.640;  142.859;  -13.210;  925.900
934.197;  142.689;  -11.060;  886.360
934.754;  144.013;   -9.580;  897.780
935.312;  145.447;  -14.000;  863.340
935.869;  145.698;  -10.710; 1012.980
936.426;  143.973;   -9.860;  872.800
936.983;  144.483;   -9.710;  889.020
937.540;  145.262;  -13.990;  838.280
938.097;  149.973;  -14.040;  940.120
938.654;  153.412;  -10.310;  898.860
939.211;  153.482;  -10.560;  952.480
939.768;  154.718;  -13.900;  915.420
940.324;  155.518;  -14.760;  904.200
940.881;  158.706;  -10.370;  878.500
941.438;  163.062;   -8.260; 1021.200
941.995;  162.129;  -12.540;  992.560
942.551;  161.974;  -14.670;  875.620
943.108;  163.859;  -10.450;  937.920
943.664;  163.732;  -10.750;  869.340
944.221;  168.782;  -11.550; 1088.140
944.777;  167.657;  -14.770;  869.680
945.334;  166.181;  -12.820;  884.840
945.890;  161.406;  -10.130;  946.480
946.446;  159.026;  -13.470;  947.020
947.003;  160.335;  -12.120;  964.940
947.559;  161.260;   -9.980; 1063.040
948.115;  157.193;   -9.080; 1026.540
948.671;  155.468;  -10.830;  967.300
949.227;  155.498;  -12.440;  859.560
949.783;  154.844;  -12.910;  858.900
950.339;  160.278;  -10.270;  991.000
950.895;  162.963;  -13.630; 1023.840
951.451;  161.396;  -15.100;  925.280
952.007;  158.713;  -11.330;  998.540
952.563;  154.290;  -10.580;  937.780
953.118;  151.262;  -13.440;  904.940
953.674;  150.990;  -12.710;  935.780
954.230;  153.065;  -10.350;  949.640
954.785;  158.638;   -9.190;  936.640
955.341;  159.609;  -11.200;  998.160
955.897;  154.681;  -16.560;  834.660
956.452;  152.488;  -12.570;  953.840
957.008;  150.078;   -7.970; 1083.640
957.563;  145.329;  -11.940; 1009.540
958.118;  140.860;  -13.450;  877.700
958.674;  138.843;  -12.030;  946.780
959.229;  141.002;   -9.410; 1013.980
959.784;  141.450;  -12.000;  832.400
960.339;  142.717;  -14.780; 1001.280
960.894;  140.755;   -9.860;  963.760
961.449;  137.750;   -9.970;  859.960
962.004;  139.559;  -10.900; 1212.840
962.559;  138.404;  -13.150;  860.140
963.114;  138.239;  -13.740;  742.480
963.669;  134.770;   -9.820;  915.500
964.224;  130.237;  -13.890;  874.340
964.779;  123.153;  -12.600;  828.420
965.334;  115.680;  -10.950; 1017.860
965.888;  103.971;  -11.170;  875.360
966.443;   97.427;  -12.540;  972.380
966.998;   93.628;  -15.780;  819.460
967.552;   94.539;   -9.760;  908.380
968.107;   96.536;   -9.060;  868.300
968.661;  101.474;  -11.950;  922.440
969.216;  102.401;  -12.800;  856.280
969.770;  101.824;  -11.210;  917.200
970.324;  102.728;  -11.610;  923.140
970.879;  105.009;  -11.370;  947.180
971.433;  106.839;  -12.540;  952.720
971.987;  105.312;  -11.320;  895.340
972.541;  104.716;  -10.720;  917.100
973.095;  104.955;   -9.680; 1009.460
973.649;  101.960;  -11.440;  809.480
974.203;  100.530;  -11.210;  829.040
974.757;  101.865;  -10.240;  855.220
975.311;  102.195;  -13.720;  872.600
975.865;  102.065;  -13.770;  881.820
976.419;   99.249;  -11.690;  857.400
976.973;   97.818;   -9.510;  849.620
977.526;   96.660;  -12.620;  949.920
978.080;   94.344;  -12.010;  796.780
978.634;   94.266;  -10.170;  921.320
979.187;   93.982;   -9.020;  905.400
979.741;   96.228;   -9.820; 1018.380
980.294;   93.269;  -14.870;  789.160
980.848;   92.966;  -12.380;  717.220
981.401;   93.038;  -10.350;  816.540
981.955;   92.424;  -13.720;  844.300
982.508;   88.788;  -11.490;  746.340
983.061;   88.866;  -10.000;  915.260
983.615;   86.643;  -11.480;  798.800
984.168;   85.298;  -13.220;  770.080
984.721;   84.161;  -13.960;  880.760
985.274;   81.330;  -10.870;  867.500
985.827;   79.872;   -9.790;  834.220
986.380;   77.704;  -13.120;  721.340
986.933;   76.294;  -12.450;  864.800
987.486;   75.975;  -10.210;  861.920
988.039;   77.557;   -8.430;  863.100
988.591;   76.208;  -10.520;  893.260
989.144;   74.757;  -14.860;  737.260
989.697;   73.071;  -13.080;  758.740
990.250;   73.057;  -10.150;  858.100
990.802;   70.510;  -13.430;  755.860
991.355;   70.264;  -12.750;  974.880
991.907;   68.598;  -12.040;  864.320
992.460;   66.931;  -11.330;  753.760
993.012;   64.938;  -13.610;  749.540
993.565;   63.504;  -13.460;  711.360
994.117;   63.843;   -9.360;  950.780
994.669;   61.264;  -11.300;  701.320
995.221;   60.878;  -13.540;  791.920
995.774;   59.365;  -13.430;  787.580
996.326;   57.994;  -12.520;  740.220
996.878;   58.187;  -10.950;  838.420
997.430;   56.473;  -14.300;  699.860
997.982;   54.262;  -13.760;  750.140
998.534;   54.327;  -11.530;  739.060
999.086;   53.108;  -10.310;  738.220
999.638;   52.353;  -12.530;  661.380
1000.190;   51.479;  -11.840;  699.320
1000.741;   50.472;  -10.260;  742.700
1001.293;   50.028;   -8.860;  686.020
1001.845;   49.678;  -13.700;  676.640
1002.396;   49.693;  -12.100;  743.400
1002.948;   48.417;  -12.760;  737.400
1003.500;   46.585;  -10.380;  723.780
1004.051;   47.551;  -11.900;  907.580
1004.603;   46.925;  -12.250;  791.820
1005.154;   42.064;  -13.210;  608.980
1005.705;   42.812;  -10.950;  723.960
1006.257;   42.226;  -13.880;  707.220
1006.808;   40.412;  -12.840;  685.460
1007.359;   39.468;  -10.570;  763.240
1007.910;   38.922;   -9.620;  646.640
1008.461;   39.166;  -13.630;  732.940
1009.013;   37.067;  -17.200;  588.340
1009.564;   38.834;  -10.200;  793.520
1010.115;   36.212;  -12.570;  597.040
1010.665;   36.496;  -15.150;  602.160
1011.216;   36.367;  -14.480;  667.920
1011.767;   35.723;  -11.340;  697.920
1012.318;   36.390;   -9.780;  736.980
1012.869;   35.916;  -12.380;  679.000
1013.419;   34.541;  -15.560;  603.120
1013.970;   35.453;  -11.010;  666.640
1014.521;   34.037;  -11.610;  620.620
1015.071;   34.951;  -13.450;  670.380
1015.622;   34.225;  -13.870;  635.460
1016.172;   33.602;  -11.610;  596.820
1016.723;   33.214;  -12.120;  614.380
1017.273;   33.245;  -13.620;  604.160
1017.823;   32.941;  -14.140;  650.340
1018.374;   32.549;  -12.800;  611.760
1018.924;   32.396;  -12.340;  716.880
1019.474;   33.110;  -11.410;  718.880
1020.024;   31.364;  -14.770;  657.580
1020.574;   31.614;   -9.780;  726.160
1021.124;   32.003;   -8.560;  673.580
1021.674;   31.032;  -15.190;  559.120
1022.224;   32.466;  -13.530;  708.940
1022.774;   31.255;  -13.280;  668.820
1023.324;   32.153;  -10.690;  753.520
1023.874;   32.813;  -10.240;  875.760
1024.423;   30.584;  -12.540;  613.700
1024.973;   29.667;  -10.010;  610.760
1025.523;   29.084;  -10.550;  620.960
1026.072;   29.263;  -13.560;  606.420
1026.622;   29.461;  -15.120;  675.740
1027.172;   30.318;  -11.260;  715.660
1027.721;   28.798;  -11.410;  601.220
1028.270;   29.171;  -13.530;  663.400
1028.820;   29.215;  -13.680;  638.080
1029.369;   27.958;  -13.520;  612.700
1029.918;   28.707;  -10.980;  649.840
1030.468;   28.069;  -13.530;  564.780
1031.017;   27.801;  -13.170;  634.800
1031.566;   26.765;  -12.200;  608.900
1032.115;   27.879;   -9.960;  694.500
1032.664;   27.464;  -13.210;  596.480
1033.213;   26.505;  -12.500;  735.420
1033.762;   26.512;  -11.910;  635.620
1034.311;   26.816;   -9.640;  677.220
1034.860;   27.360;  -13.310;  691.000
1035.408;   26.511;  -11.830;  722.720
1035.957;   26.541;  -12.000;  719.540
1036.506;   24.583;  -11.690;  530.800
1037.055;   27.556;  -10.990;  844.320
1037.603;   25.595;  -15.120;  664.000
1038.152;   24.363;  -12.450;  534.760
1038.700;   24.490;  -10.560;  585.740
1039.249;   25.006;  -11.080;  681.220
1039.797;   25.093;  -12.540;  633.360
1040.345;   24.754;  -11.920;  705.420
1040.894;   23.945;  -11.410;  625.300
1041.442;   24.144;  -14.320;  632.200
1041.990;   23.522;  -16.240;  559.160
1042.538;   22.600;  -11.680;  536.180
1043.087;   23.161;  -10.760;  570.860
1043.635;   24.606;  -11.850;  670.500
1044.183;   22.958;  -15.480;  586.400
1044.731;   22.311;  -11.770;  576.000
1045.279;   22.486;  -13.090;  674.920
1045.827;   25.145;  -12.440;  892.400
1046.374;   21.810;  -13.840;  515.420
1046.922;   20.957;  -13.220;  590.580
1047.470;   23.101;  -10.230;  691.300
1048.018;   22.301;  -14.590;  647.960
1048.565;   22.745;  -12.050;  708.600
1049.113;   21.201;  -11.650;  557.000
1049.660;   21.040;  -10.510;  629.660
1050.208;   21.874;  -13.310;  675.640
1050.755;   20.222;  -15.900;  606.580
1051.303;   21.957;  -11.430;  686.820
1051.850;   21.352;   -8.480;  635.120
1052.397;   20.082;  -15.010;  473.960
1052.945;   20.063;  -13.960;  617.760
1053.492;   21.149;  -13.150;  741.840
1054.039;   21.512;   -9.630;  720.180
1054.586;   19.749;  -13.680;  557.240
1055.133;   20.439;  -14.570;  693.140
1055.680;   20.240;  -13.820;  646.620
1056.227;   19.188;  -11.730;  542.780
1056.774;   20.946;  -12.480;  794.980
1057.321;   19.380;  -13.930;  523.260
1057.868;   19.263;  -11.690;  651.320
1058.415;   18.635;   -9.520;  651.980
1058.961;   19.371;  -13.160;  678.940
1059.508;   18.800;  -12.920;  643.820
1060.055;   18.995;  -11.920;  581.780
1060.601;   19.030;  -11.500;  624.300
1061.148;   19.404;  -14.330;  616.820
1061.694;   18.187;  -16.870;  592.580
1062.241;   17.923;  -10.330;  596.320
1062.787;   18.595;  -10.620;  663.140
1063.334;   19.597;  -10.110;  808.560
1063.880;   18.360;  -13.400;  668.360
1064.426;   17.814;  -10.680;  706.820
1064.972;   17.888;   -9.920;  601.340
1065.518;   16.723;  -10.980;  566.640
1066.065;   17.408;  -14.890;  624.460
1066.611;   16.142;  -12.870;  598.800
1067.157;   17.818;  -12.950;  641.860
1067.703;   17.588;  -13.540;  668.480
1068.249;   16.657;  -13.540;  605.220
1068.794;   16.669;  -12.600;  626.880
1069.340;   16.040;  -10.620;  578.960
1069.886;   16.451;  -12.830;  590.700
1070.432;   15.261;  -14.870;  541.720
1070.977;   15.411;  -11.980;  601.080
1071.523;   16.469;   -8.200;  573.060
1072.068;   15.974;  -12.330;  582.000
1072.614;   15.627;  -16.370;  527.760
1073.160;   16.030;  -11.100;  687.040
1073.705;   15.650;  -10.480;  572.520
1074.250;   15.269;  -14.520;  559.900
1074.796;   16.041;  -11.460;  655.160
1075.341;   15.210;  -11.950;  664.100
1075.886;   14.681;  -11.460;  594.240
1076.431;   14.771;  -13.770;  649.880
1076.976;   14.435;  -12.680;  639.220
1077.521;   14.075;  -13.170;  583.080
1078.067;   13.832;  -10.860;  579.400
1078.612;   14.844;  -13.920;  661.620
1079.156;   13.977;  -13.880;  601.540
1079.701;   14.008;  -13.120;  693.260
1080.246;   15.285;   -9.940;  696.300
1080.791;   13.871;  -14.740;  625.020
1081.336;   14.038;  -13.750;  659.320
1081.880;   13.768;  -13.400;  649.680
1082.425;   13.352;  -12.220;  573.480
1082.970;   14.425;  -11.610;  717.040
1083.514;   13.530;  -13.580;  597.000
1084.059;   12.097;  -12.810;  586.720
1084.603;   12.002;  -12.320;  565.840
1085.147;   13.299;  -13.190;  645.220
1085.692;   13.506;  -12.480;  716.800
1086.236;   12.078;  -13.020;  503.140
1086.780;   13.559;   -9.190;  751.440
1087.325;   12.560;  -12.480;  654.620
1087.869;   12.512;  -12.450;  610.700
1088.413;   13.184;  -12.240;  705.040
1088.957;   10.505;   -9.020;  543.400
1089.501;   13.190;  -10.320;  766.640
1090.045;   12.045;  -12.720;  726.480
1090.589;   10.261;  -13.690;  569.920
1091.133;   11.984;  -10.020;  673.340
1091.676;   11.874;  -12.330;  591.940
1092.220;   11.531;  -14.970;  600.920
1092.764;   11.864;  -12.430;  706.960
1093.307;   12.090;   -9.800;  673.780
1093.851;    9.893;  -14.970;  556.540
1094.395;   11.463;  -15.310;  683.140
1094.938;   10.619;  -10.370;  632.520
1095.482;   10.730;  -11.050;  559.800
1096.025;   11.957;  -11.840;  710.880
1096.568;   11.319;  -12.840;  779.280
1097.112;    9.069;  -14.700;  508.180
1097.655;   11.309;   -8.720;  603.000
1098.198;    9.008;  -13.610;  600.180
1098.741;    9.368;  -13.350;  612.860
1099.285;    9.828;  -11.230;  657.300
1099.828;    8.474;  -11.840;  439.400
1100.371;    9.373;  -10.840;  608.160
1100.914;    9.215;  -14.190;  682.660
1101.457;    9.440;  -11.240;  679.900
1101.999;    8.789;  -11.270;  584.680
1102.542;    9.582;  -11.480;  641.440
1103.085;    8.858;  -11.750;  658.500
1103.628;    9.865;  -11.400;  762.060
1104.170;    9.120;  -10.490;  588.280
1104.713;    9.002;  -10.600;  646.700
1105.256;    7.880;  -14.360;  557.440
1105.798;    7.388;  -13.210;  499.980
1106.341;   10.265;  -10.270;  728.900
1106.883;    8.503;  -12.200;  521.340
1107.425;    8.297;  -13.110;  668.180
1107.968;    7.758;  -12.840;  612.380
1108.510;    8.470;   -6.480;  684.960
1109.052;    7.369;  -13.940;  612.620
1109.594;    8.088;  -13.690;  554.440
1110.136;    7.863;  -11.880;  643.220
1110.679;    7.555;   -9.500;  633.080
1111.221;    8.051;  -14.160;  604.460
1111.763;    6.892;  -13.980;  559.220
1112.304;    6.439;  -13.880;  547.140
1112.846;    7.251;  -12.210;  666.240
1113.388;    9.716;  -11.390;  942.180
1113.930;    6.578;  -14.540;  694.200
1114.472;    6.777;  -12.640;  606.540
1115.013;    5.652;  -11.620;  551.280
1115.555;    6.312;  -13.640;  587.100
1116.097;    5.278;  -15.380;  579.480
1116.638;    6.848;  -12.640;  684.600
1117.180;    6.451;   -9.850;  667.740
1117.721;    6.536;  -13.690;  568.580
1118.262;    6.939;  -12.680;  677.960
1118.804;    6.815;  -12.530;  637.340
1119.345;    5.307;  -11.690;  578.400
1119.886;    6.733;  -13.380;  704.040
1120.427;    5.637;  -14.070;  589.020
1120.969;    4.686;  -13.500;  597.920
1121.510;    5.238;  -11.480;  563.060
1122.051;    6.195;  -12.830;  723.580
1122.592;    4.542;  -14.290;  655.420
1123.133;    3.829;  -12.400;  547.940
1123.673;    6.493;  -10.130;  706.480
1124.214;    4.722;  -12.930;  612.460
1124.755;    5.410;  -14.380;  639.460
1125.296;    4.908;  -14.000;  627.320
1125.836;    4.973;  -10.070;  691.500
1126.377;    4.082;  -12.640;  599.660
1126.918;    5.852;  -12.960;  614.980
1127.458;    3.788;  -13.350;  622.220
1127.999;    5.313;  -10.750;  656.980
1128.539;    4.884;  -12.350;  694.240
1129.079;    4.043;  -14.860;  632.720
1129.620;    2.798;  -13.840;  558.100
1130.160;    3.803;  -12.330;  539.480
1130.700;    3.842;  -14.530;  640.840
1131.240;    4.977;  -12.530;  643.700
1131.781;    3.092;  -14.450;  619.680
1132.321;    3.076;   -9.790;  599.120
1132.861;    3.017;  -14.860;  564.200
1133.401;    2.893;  -14.290;  593.940
1133.941;    3.430;  -11.750;  626.280
1134.481;    2.914;   -9.920;  597.580
1135.020;    2.739;  -12.290;  609.160
1135.560;    3.508;  -11.650;  674.940
1136.100;    1.930;  -16.270;  501.160
1136.640;    2.677;  -10.890;  510.480
1137.179;    2.641;  -14.180;  537.960
1137.719;    2.913;  -16.250;  605.400
1138.258;    2.256;  -14.230;  587.360
1138.798;    3.216;   -9.090;  663.780
1139.337;    1.239;  -15.130;  482.840
1139.877;    2.567;  -13.680;  642.360
1140.416;    4.754;  -11.320;  878.060
1140.955;    2.119;  -10.860;  535.380
1141.494;    2.693;  -12.920;  669.280
1142.034;    2.005;  -13.930;  583.520
1142.573;    2.413;  -11.440;  646.280
1143.112;    1.611;  -12.000;  553.480
1143.651;    2.375;  -13.670;  536.480
1144.190;    2.146;  -12.730;  691.640
1144.729;    1.574;  -14.560;  607.420
1145.267;    1.741;  -11.830;  584.900
1145.806;    2.724;  -12.230;  637.040
1146.345;    1.467;  -14.130;  635.020
1146.884;    0.698;  -11.590;  622.500
1147.422;    0.924;  -12.550;  533.060
1147.961;    2.856;  -11.180;  708.460
1148.500;    2.654;  -11.510;  669.720
1149.038;    1.343;  -11.640;  632.500
1149.577;    1.731;  -10.130;  698.640
1150.115;   -0.517;  -13.970;  452.280
1150.653;    0.495;  -14.520;  607.340
1151.192;    0.658;  -12.810;  552.920
1151.730;    1.441;   -9.100;  652.560
1152.268;    0.714;  -12.220;  589.520
1152.806;    0.142;  -14.140;  571.180
1153.344;   -1.214;  -12.350;  577.640
1153.882;    0.679;   -8.980;  600.060
1154.421;   -0.582;  -15.190;  470.620
1154.958;    0.184;  -15.210;  595.240
1155.496;    0.658;  -12.850;  645.280
1156.034;    1.255;   -9.940;  721.880
1156.572;    1.609;  -13.570;  667.060
1157.110;   -0.426;  -14.590;  473.940
1157.647;   -0.198;  -13.030;  676.960
1158.185;   -0.725;  -12.140;  564.320
1158.723;   -1.083;  -14.390;  509.200
1159.260;   -0.502;  -14.090;  701.700
1159.798;   -0.231;  -11.920;  658.160
1160.335;   -0.458;  -11.110;  631.820

