
Integration time [ms]:   3.276
Averaging Nr. [scans]: 1000
Smoothing Nr. [pixels]: 0
Data measured with spectrometer [name]: 7414430SP
Wave   ;Sample   ;Dark     ;Reference
[nm]   ;[counts] ;[counts] ;[counts] 

288.544;  151.271;    7.793;  793.890
289.143;  154.740;    7.462;  681.602
289.742;  154.915;    8.602;  828.814
290.341;  140.678;    1.321;  789.841
290.940;  129.990;   -0.709;  730.702
291.538;  130.211;    0.881;  881.108
292.137;  130.145;    0.122;  792.581
292.736;  135.769;   -1.929;  975.101
293.335;  132.537;   -8.229;  735.086
293.934;  132.961;   -5.279;  781.677
294.532;  129.916;   -1.369; 1031.958
295.131;  117.030;   -7.641;  834.394
295.730;  117.517;   -8.420;  809.588
296.328;  115.157;   -5.611;  783.442
296.927;  116.088;   -5.781;  779.652
297.525;  117.328;   -6.361;  781.236
298.124;  107.845;  -11.382;  654.009
298.722;  111.360;   -7.641;  761.933
299.321;  108.701;   -6.811;  708.597
299.919;  107.489;   -6.991;  751.918
300.518;  104.359;  -10.362;  689.338
301.116;  105.823;   -9.581;  691.381
301.715;  105.157;   -4.891;  730.222
302.313;  104.737;   -8.801;  704.943
302.911;  100.194;   -8.522;  733.830
303.509;  105.113;   -6.171;  925.627
304.108;  102.897;   -7.311;  760.383
304.706;  103.238;   -8.321;  801.664
305.304;   96.810;  -10.222;  796.707
305.902;  101.693;   -6.021;  784.484
306.500;   98.075;   -4.971;  728.200
307.098;   97.091;   -7.061;  746.560
307.696;   94.145;   -8.801;  780.432
308.294;   94.068;   -6.411;  731.359
308.892;   96.277;   -2.901;  759.769
309.490;   93.660;   -5.041;  712.161
310.088;   91.697;   -5.002;  788.444
310.686;   95.579;   -2.041;  821.749
311.284;   91.300;   -2.351;  766.040
311.882;   89.625;   -4.422;  731.225
312.480;   86.391;   -4.192;  697.167
313.078;   86.541;   -1.172;  808.331
313.675;   88.124;   -2.601;  691.600
314.273;   83.934;   -1.312;  797.837
314.871;   82.711;   -3.942;  589.829
315.468;   80.713;   -2.802;  652.090
316.066;   82.718;   -0.701;  694.427
316.664;   76.614;   -4.362;  656.351
317.261;   80.911;   -2.872;  910.128
317.859;   75.667;   -2.022;  768.735
318.456;   75.127;   -0.531;  830.096
319.054;   72.844;   -3.912;  787.828
319.651;   71.970;   -4.752;  759.928
320.249;   70.343;   -2.602;  810.188
320.846;   67.794;   -0.821;  714.286
321.443;   66.178;   -4.642;  832.135
322.041;   62.546;   -5.002;  812.315
322.638;   59.164;   -3.982;  701.456
323.235;   60.628;   -3.411;  665.683
323.833;   58.843;   -7.361;  740.354
324.430;   54.403;   -8.611;  615.900
325.027;   54.509;   -4.061;  876.855
325.624;   53.292;   -4.031;  644.532
326.221;   52.192;   -7.481;  689.717
326.818;   51.973;   -5.281;  818.332
327.415;   54.696;   -7.460;  748.828
328.012;   53.225;   -5.510;  690.585
328.609;   52.820;   -7.880;  731.389
329.206;   51.040;   -8.331;  778.621
329.803;   50.213;   -5.121;  737.841
330.400;   52.747;   -4.510;  704.260
330.997;   54.584;   -6.441;  817.147
331.594;   53.801;   -8.831;  788.185
332.191;   58.199;   -7.621;  728.722
332.787;   61.000;   -4.591;  844.463
333.384;   60.570;   -7.412;  763.093
333.981;   59.237;   -8.293;  815.687
334.578;   61.148;   -7.052;  708.378
335.174;   63.725;   -3.102;  731.469
335.771;   64.669;   -5.943;  836.456
336.367;   60.963;   -7.393;  710.631
336.964;   64.282;   -4.063;  793.266
337.561;   61.876;   -3.813;  731.112
338.157;   58.312;   -4.654;  911.916
338.754;   56.911;   -7.934;  796.589
339.350;   53.623;   -4.414;  722.493
339.946;   56.113;   -4.664;  773.135
340.543;   48.265;   -6.375;  846.136
341.139;   42.810;   -9.815;  720.836
341.735;   40.511;   -4.526;  772.593
342.332;   38.978;   -4.895;  691.472
342.928;   39.925;   -4.295;  795.394
343.524;   33.944;   -5.476;  761.684
344.120;   29.324;   -5.856;  738.562
344.716;   32.087;   -2.155;  723.717
345.313;   30.983;   -6.275;  795.342
345.909;   25.473;   -8.815;  627.336
346.505;   26.509;   -5.305;  740.247
347.101;   27.285;   -2.674;  827.864
347.697;   28.645;   -4.344;  785.398
348.293;   23.000;   -9.975;  627.244
348.889;   23.040;   -5.774;  745.914
349.485;   22.492;   -5.004;  688.205
350.081;   23.408;   -4.704;  772.592
350.676;   19.159;   -6.635;  691.606
351.272;   22.429;   -4.504;  809.530
351.868;   22.389;   -3.914;  780.497
352.464;   20.017;   -9.044;  723.932
353.059;   16.536;   -8.314;  646.017
353.655;   19.263;   -7.024;  777.063
354.251;   19.918;   -5.343;  759.845
354.846;   15.276;   -8.604;  740.646
355.442;   12.433;   -6.945;  753.071
356.038;   13.857;   -7.564;  751.708
356.633;   14.560;   -5.814;  728.594
357.229;   13.183;   -7.364;  724.757
357.824;   10.958;   -8.024;  703.600
358.420;    9.256;   -9.384;  679.726
359.015;   10.669;   -5.104;  695.357
359.610;   11.828;   -6.854;  763.920
360.206;    5.711;  -10.185;  603.240
360.801;    8.634;   -7.054;  646.503
361.396;    9.979;   -5.034;  725.975
361.992;    6.100;   -8.284;  668.220
362.587;    3.516;   -8.625;  670.160
363.182;    5.093;   -7.674;  689.631
363.777;    5.925;   -5.164;  738.242
364.372;    6.019;   -8.604;  737.314
364.967;    2.699;   -9.055;  680.744
365.563;    6.211;   -6.114;  815.567
366.158;    3.120;   -5.814;  685.161
366.753;    4.455;   -7.854;  649.263
367.348;    2.350;   -7.804;  746.056
367.942;    1.289;   -7.954;  697.298
368.537;    0.642;   -4.984;  754.245
369.132;    2.125;   -8.564;  703.428
369.727;   -2.716;   -8.855;  638.079
370.322;   -1.947;   -6.245;  580.186
370.917;   -2.330;   -6.425;  710.646
371.511;    0.826;   -6.294;  861.834
372.106;   -2.037;   -7.685;  776.964
372.701;   -5.805;   -7.335;  585.988
373.296;   -1.452;   -4.564;  863.135
373.890;   -4.441;  -10.235;  647.840
374.485;   -6.729;   -7.885;  691.199
375.079;   -3.206;   -7.324;  738.685
375.674;   -1.783;   -3.494;  812.970
376.268;   -5.763;   -8.525;  691.759
376.863;  -11.431;  -10.086;  580.327
377.457;   -5.882;   -7.025;  662.490
378.052;   -7.758;   -3.585;  764.884
378.646;   -8.719;   -7.595;  741.167
379.240;   -7.934;   -8.335;  721.176
379.835;   -8.667;   -5.785;  636.978
380.429;  -10.031;   -4.335;  562.557
381.023;   -9.289;   -6.805;  779.205
381.617;  -11.786;   -9.195;  680.106
382.212;   -9.504;   -6.905;  685.303
382.806;   -8.989;   -3.745;  760.690
383.400;  -11.595;   -7.745;  672.281
383.994;  -12.471;   -9.765;  664.870
384.588;   -9.761;   -6.564;  697.701
385.182;   -8.473;   -5.344;  726.624
385.776;   -9.303;   -8.514;  706.875
386.370;  -11.771;   -9.555;  681.968
386.964;  -11.563;   -8.715;  684.155
387.558;   -9.833;   -6.174;  598.360
388.152;  -12.850;   -8.725;  681.959
388.745;  -10.332;   -7.965;  814.707
389.339;   -9.999;   -5.924;  747.642
389.933;   -9.128;   -5.524;  695.370
390.527;   -9.735;   -7.114;  859.029
391.120;  -15.061;  -10.725;  595.318
391.714;  -13.129;   -8.035;  711.633
392.308;  -11.074;   -3.574;  780.253
392.901;  -13.702;   -7.245;  642.460
393.495;  -15.271;   -9.285;  595.414
394.089;  -13.675;   -5.895;  760.452
394.682;  -14.920;   -4.295;  697.188
395.275;  -14.594;   -9.875;  719.927
395.869;  -15.319;   -8.485;  667.314
396.462;  -14.422;   -7.455;  616.609
397.056;  -10.889;   -5.424;  776.621
397.649;  -14.918;   -6.605;  731.575
398.242;  -12.524;   -8.224;  712.645
398.836;  -11.739;   -7.474;  766.408
399.429;  -13.317;   -7.094;  631.041
400.022;  -15.790;   -9.475;  665.902
400.615;  -13.441;   -7.145;  805.609
401.208;  -12.082;   -7.174;  691.451
401.802;  -14.568;   -5.515;  699.329
402.395;  -14.879;   -9.875;  683.502
402.988;  -16.089;   -8.845;  696.627
403.581;  -13.258;   -8.874;  646.878
404.174;  -12.063;   -5.324;  686.568
404.767;  -12.992;   -9.575;  638.583
405.360;  -16.223;  -10.965;  621.445
405.953;  -11.522;   -8.764;  759.034
406.545;  -10.791;   -7.514;  725.342
407.138;  -14.034;  -10.025;  618.350
407.731;  -12.876;  -10.034;  613.303
408.324;   -9.796;   -9.374;  660.554
408.917;  -10.808;   -6.534;  681.864
409.509;  -11.740;   -8.004;  740.396
410.102;  -13.886;   -9.875;  643.948
410.695;   -7.736;   -8.604;  665.758
411.287;   -9.513;   -6.794;  599.821
411.880;   -9.518;   -9.334;  585.421
412.472;  -12.606;  -10.254;  613.092
413.065;  -10.195;   -6.714;  629.408
413.657;   -9.348;   -7.234;  576.678
414.250;   -8.476;  -10.544;  646.681
414.842;   -9.206;   -9.744;  676.353
415.434;   -7.399;   -6.994;  570.463
416.027;   -4.085;   -5.893;  652.196
416.619;   -5.509;   -7.264;  713.400
417.211;   -5.745;  -10.374;  599.352
417.804;   -2.981;   -7.993;  628.499
418.396;   -7.204;   -7.234;  607.643
418.988;   -4.983;   -9.443;  659.238
419.580;   -7.240;  -10.724;  568.276
420.172;   -6.160;  -10.323;  536.196
420.764;   -1.780;   -8.793;  672.482
421.356;   -1.757;  -11.143;  636.898
421.948;   -2.709;   -8.293;  677.661
422.540;    1.479;   -7.893;  680.027
423.132;    0.569;   -7.082;  600.641
423.724;   -1.923;   -8.653;  561.267
424.316;    0.037;  -10.213;  621.345
424.908;    2.636;   -9.762;  591.517
425.500;    3.356;   -5.572;  647.978
426.092;    4.153;   -8.422;  648.268
426.683;    3.997;   -9.283;  684.836
427.275;    6.016;   -7.852;  641.471
427.867;    6.928;   -5.272;  668.948
428.458;    8.140;   -7.682;  732.344
429.050;    6.748;  -10.612;  680.749
429.642;    8.282;   -9.882;  743.124
430.233;    8.021;   -6.962;  569.356
430.825;   10.529;   -6.842;  724.809
431.416;    7.743;   -9.672;  698.241
432.008;   11.514;   -6.552;  651.723
432.599;   11.051;   -6.891;  656.073
433.190;    9.506;  -10.912;  637.670
433.782;    9.079;  -11.172;  590.395
434.373;   15.631;   -6.061;  884.765
434.964;   14.662;   -8.251;  602.920
435.556;   12.194;   -9.722;  634.537
436.147;   15.869;   -9.082;  758.490
436.738;   15.999;   -8.041;  701.099
437.329;   20.295;   -7.341;  721.723
437.920;   12.796;   -8.162;  666.688
438.511;   14.082;  -11.802;  564.526
439.103;   19.770;  -10.191;  623.998
439.694;   21.042;   -7.601;  681.583
440.285;   22.484;   -8.541;  764.432
440.876;   20.994;   -9.751;  845.738
441.466;   19.486;   -9.401;  575.162
442.057;   24.311;   -7.760;  665.814
442.648;   23.743;   -9.971;  746.255
443.239;   22.654;  -11.001;  620.477
443.830;   27.364;   -7.990;  704.958
444.421;   28.384;   -7.910;  655.474
445.011;   25.482;   -8.131;  693.619
445.602;   25.042;   -7.111;  743.126
446.193;   27.181;  -10.920;  488.117
446.783;   30.795;   -6.500;  640.397
447.374;   27.074;   -8.671;  692.759
447.964;   28.167;  -10.781;  713.770
448.555;   35.572;   -9.650;  822.742
449.145;   32.546;   -8.660;  662.853
449.736;   33.772;   -8.990;  803.179
450.326;   33.213;   -9.500;  713.626
450.917;   38.252;   -8.680;  675.324
451.507;   37.091;   -7.520;  600.661
452.097;   37.749;   -8.590;  746.267
452.688;   39.456;  -11.340;  742.160
453.278;   38.308;  -10.100;  566.840
453.868;   42.474;   -6.019;  793.550
454.458;   41.944;   -9.440;  651.141
455.048;   41.704;  -10.560;  711.783
455.639;   42.992;  -11.799;  567.096
456.229;   46.546;   -6.899;  710.694
456.819;   48.640;   -7.389;  751.158
457.409;   48.869;  -11.119;  773.993
457.999;   51.438;   -9.289;  737.505
458.589;   50.810;   -6.139;  686.606
459.179;   50.887;   -8.729;  717.658
459.769;   50.143;   -9.789;  627.099
460.358;   54.297;  -10.259;  797.262
460.948;   53.708;   -7.299;  689.503
461.538;   55.349;  -10.289;  660.677
462.128;   54.002;  -11.269;  664.934
462.717;   60.285;   -9.368;  710.326
463.307;   63.089;   -7.908;  705.846
463.897;   59.063;   -9.599;  656.942
464.486;   58.870;   -9.769;  837.128
465.076;   62.654;   -8.048;  733.776
465.666;   66.423;   -9.358;  652.900
466.255;   64.804;   -7.919;  785.651
466.845;   63.643;  -11.689;  666.749
467.434;   66.687;   -7.818;  725.873
468.023;   66.661;   -7.678;  658.357
468.613;   65.245;  -10.939;  713.946
469.202;   69.565;  -10.118;  646.507
469.791;   73.888;   -9.108;  737.811
470.381;   75.253;   -6.058;  742.813
470.970;   75.499;  -10.428;  711.099
471.559;   75.083;  -10.268;  733.291
472.148;   78.987;   -8.448;  675.737
472.738;   79.467;   -6.917;  765.466
473.327;   80.395;  -11.978;  637.529
473.916;   80.435;  -11.888;  737.446
474.505;   83.808;   -9.437;  751.703
475.094;   87.202;   -6.747;  806.570
475.683;   86.768;   -9.367;  797.699
476.272;   88.403;  -12.637;  730.632
476.861;   90.445;  -10.027;  706.754
477.449;   96.678;   -8.716;  728.487
478.038;   91.200;   -9.577;  692.513
478.627;   93.041;   -9.718;  714.852
479.216;   98.317;   -8.947;  769.441
479.805;  102.276;   -6.256;  783.375
480.393;  101.804;   -7.937; 1008.945
480.982;  101.042;   -7.717;  874.501
481.571;  106.682;   -9.266;  858.333
482.159;  106.771;   -7.636;  705.386
482.748;  107.502;   -9.667;  821.385
483.336;  112.145;  -10.376;  858.209
483.925;  112.376;   -7.147;  774.373
484.513;  119.610;   -7.996;  758.962
485.102;  115.467;  -10.027;  810.965
485.690;  124.275;  -10.446; 1011.050
486.278;  126.959;   -8.446;  979.329
486.867;  126.613;   -6.356;  809.662
487.455;  129.127;   -9.136;  898.229
488.043;  130.850;  -10.646;  748.361
488.631;  139.256;   -7.456; 1005.079
489.220;  141.848;   -6.636;  908.626
489.808;  143.593;  -11.036;  741.415
490.396;  151.796;  -10.246;  914.645
490.984;  156.647;   -8.556;  830.161
491.572;  165.939;   -5.886;  940.315
492.160;  171.381;   -9.486;  919.081
492.748;  183.864;  -10.976;  884.341
493.336;  206.095;   -8.776; 1019.693
493.924;  232.171;   -5.465;  958.077
494.512;  260.437;   -9.986; 1066.638
495.100;  298.125;  -10.636; 1103.280
495.687;  352.157;  -10.885; 1206.373
496.275;  414.867;   -8.126; 1150.796
496.863;  484.283;  -10.586; 1281.171
497.451;  586.479;  -11.926; 1386.805
498.038;  715.158;  -10.885; 1556.729
498.626;  820.469;   -6.315; 1741.407
499.214;  969.349;   -7.326; 2016.609
499.801; 1162.534;  -11.906; 2220.633
500.389; 1410.799;  -10.466; 2312.494
500.976; 1718.865;   -5.236; 2744.849
501.564; 2160.790;   -8.936; 3148.565
502.151; 2533.042;  -13.176; 3515.999
502.738; 2971.089;  -10.646; 3971.274
503.326; 3358.510;   -9.525; 4403.796
503.913; 3739.045;  -10.856; 5161.749
504.500; 4103.721;  -11.586; 5986.420
505.088; 4525.601;  -10.336; 6381.201
505.675; 5060.169;   -6.355; 6925.547
506.262; 5787.282;   -9.046; 7619.060
506.849; 6489.415;  -10.416; 8733.969
507.436; 6945.563;  -10.305; 9790.121
508.023; 7524.733;   -5.496; 9985.472
508.610; 7798.938;   -7.856;10434.618
509.197; 8460.476;  -10.097;11198.435
509.784; 9851.317;  -10.886;12391.194
510.371;10903.903;   -9.315;13603.713
510.958;11609.605;   -9.936;14426.586
511.545;12372.048;   -9.326;15243.775
512.132;13244.863;  -10.075;15945.876
512.719;13795.549;   -7.796;16340.369
513.305;14744.423;  -10.606;18011.766
513.892;15450.260;  -11.486;19754.971
514.479;16786.014;   -9.126;20967.805
515.066;18315.391;   -6.026;22299.793
515.652;19579.516;   -8.466;22908.660
516.239;20870.709;  -10.886;23798.875
516.825;21963.172;  -11.496;25567.275
517.412;22943.189;   -5.796;28154.959
517.998;23523.398;  -10.506;28344.111
518.585;23622.316;  -10.076;27134.219
519.171;24193.205;   -8.315;27268.576
519.758;25540.467;   -8.596;28964.129
520.344;27357.664;   -8.466;30664.494
520.930;27473.752;  -11.006;32550.605
521.516;28821.693;  -10.495;35422.895
522.103;31009.672;   -5.526;38280.004
522.689;31564.682;   -8.746;37835.117
523.275;31041.322;  -11.376;37288.613
523.861;32238.475;  -11.156;37281.395
524.447;33529.121;   -8.135;37846.949
525.033;33215.582;   -7.896;38321.949
525.619;33158.551;  -12.476;38579.285
526.205;34674.148;   -9.516;40622.875
526.791;36821.609;   -6.926;42258.836
527.377;36765.266;   -8.346;42966.902
527.963;37625.285;   -8.717;42018.949
528.549;34613.066;  -11.016;42476.828
529.135;31008.590;   -8.536;41854.852
529.721;29575.445;   -9.666;41237.711
530.306;31196.336;  -10.066;41259.445
530.892;33849.320;  -11.356;41506.047
531.478;36714.949;   -6.596;43559.613
532.063;40008.016;   -8.836;47695.563
532.649;40442.824;  -10.047;50808.324
533.235;41103.164;   -9.746;51787.500
533.820;41374.035;   -6.566;52145.035
534.406;42458.492;  -10.817;51133.488
534.991;41897.984;   -9.416;49996.805
535.576;39767.621;   -9.036;48882.852
536.162;38949.055;   -6.156;46942.285
536.747;37289.930;  -11.607;45711.746
537.333;37130.895;  -11.787;48510.180
537.918;37820.574;  -12.437;50439.891
538.503;39272.602;   -7.196;50863.711
539.088;41167.523;  -10.556;50906.922
539.673;44758.867;   -8.767;52621.965
540.259;46331.535;  -10.026;52368.094
540.844;44188.051;   -7.416;50879.109
541.429;45523.945;   -9.467;52077.777
542.014;48270.063;   -9.527;52716.695
542.599;47443.973;   -9.946;52363.281
543.184;45210.328;   -7.927;53187.137
543.769;46793.898;   -9.297;54697.605
544.354;46049.781;  -10.127;53913.914
544.938;44687.836;   -9.267;49680.164
545.523;46640.035;   -6.506;47386.277
546.108;49296.863;   -9.787;49151.949
546.693;51329.301;  -11.587;51384.637
547.278;51060.371;  -10.986;51853.254
547.862;48114.309;   -8.206;51173.750
548.447;43510.063;  -10.067;51691.395
549.031;42820.621;   -9.637;52456.703
549.616;47825.012;   -9.926;52714.516
550.201;47169.344;   -6.347;52414.598
550.785;48412.117;   -7.917;52355.059
551.370;47408.934;  -10.867;54589.453
551.954;46961.336;   -9.047;58267.348
552.538;47797.848;   -7.827;59062.176
553.123;46095.195;  -10.287;58115.285
553.707;43902.797;  -12.178;56556.285
554.291;45130.145;   -8.717;56201.668
554.876;47384.816;   -7.457;55335.762
555.460;47717.387;  -10.387;54155.703
556.044;48933.215;   -9.618;53721.484
556.628;47532.301;  -11.567;53731.016
557.212;46287.387;   -8.097;54312.531
557.796;44735.563;  -11.077;53797.773
558.380;44657.805;  -11.108;56145.984
558.964;45025.137;   -9.057;57277.930
559.548;46188.203;   -6.977;56459.641
560.132;44450.465;  -11.457;54434.543
560.716;43071.305;  -11.378;54800.617
561.300;44274.578;   -9.577;57606.945
561.884;45450.148;   -7.127;58972.445
562.467;43913.934;   -7.118;57327.570
563.051;43307.633;  -13.358;54962.434
563.635;44339.039;  -10.178;52594.473
564.219;44497.133;   -7.837;50610.410
564.802;45338.500;  -11.398;49551.180
565.386;45331.848;  -12.788;48370.953
565.969;44695.816;   -9.077;48178.871
566.553;43871.660;   -6.207;49957.305
567.136;44374.297;   -8.568;50369.594
567.720;40681.133;  -11.868;49492.004
568.303;38519.691;   -8.268;50616.352
568.887;38592.324;   -8.698;50727.148
569.470;38819.781;   -6.808;51698.379
570.053;37460.621;  -13.188;52122.078
570.637;35914.234;  -12.037;52536.438
571.220;35839.891;   -8.577;51186.098
571.803;36485.164;   -8.498;51032.762
572.386;38812.375;  -10.498;49609.887
572.969;41288.023;   -9.388;48285.926
573.552;39188.316;   -8.338;47624.285
574.135;37731.828;   -8.518;45498.641
574.718;35419.793;  -13.628;41970.434
575.301;34441.164;  -10.893;41447.137
575.884;33462.531;   -8.158;40923.836
576.467;34620.727;  -10.328;45267.723
577.050;36510.938;  -13.058;48175.543
577.633;37888.082;   -9.458;47729.328
578.216;36879.344;   -8.928;47579.793
578.799;35998.887;   -9.358;47820.996
579.381;34952.922;  -11.388;48115.551
579.964;33265.883;  -11.718;47333.766
580.547;35006.617;   -8.588;46668.969
581.129;36031.625;   -8.859;44466.141
581.712;36653.074;  -10.729;44164.922
582.294;37213.590;  -11.118;46477.855
582.877;37149.125;   -5.218;48244.254
583.459;34705.652;   -8.679;47437.895
584.042;32845.438;  -10.709;46943.219
584.624;33511.309;  -11.669;46792.227
585.206;32978.109;   -8.218;46557.250
585.789;32991.320;  -10.569;45793.773
586.371;35863.344;  -11.859;43836.391
586.953;36475.754;  -10.719;42972.492
587.536;37715.590;   -7.198;42487.211
588.118;37611.824;   -8.720;42086.414
588.700;34090.133;  -10.439;43389.930
589.282;33283.145;   -9.198;43646.039
589.864;34012.398;   -9.199;43438.109
590.446;34883.605;  -11.319;43151.926
591.028;34930.930;  -11.159;42781.867
591.610;34026.625;  -11.779;42839.098
592.192;31480.795;   -7.668;42820.402
592.774;29955.131;  -11.949;40724.277
593.356;28657.109;  -12.129;39874.789
593.937;27529.658;  -10.669;39980.648
594.519;29602.498;   -6.509;42069.633
595.101;31842.186;  -10.849;42976.031
595.683;32035.121;  -11.679;44084.441
596.264;33154.270;   -9.049;43478.797
596.846;32590.488;   -8.849;43803.672
597.427;32341.678;   -9.570;42986.934
598.009;33992.656;  -12.620;42832.219
598.591;34404.152;  -10.039;42580.086
599.172;33528.895;  -10.369;43061.805
599.753;33665.609;   -9.140;41691.469
600.335;35158.391;  -11.430;40692.520
600.916;33417.977;   -9.939;39982.422
601.498;30837.377;   -8.479;40318.617
602.079;29322.949;  -10.920;40670.609
602.660;29264.936;  -11.480;41450.898
603.241;30961.201;  -11.699;41137.738
603.823;29833.631;   -9.579;38868.797
604.404;29404.559;  -10.620;38182.785
604.985;30909.490;  -10.450;38078.047
605.566;30651.039;   -9.129;38056.633
606.147;30835.154;   -7.510;37020.418
606.728;32520.123;  -10.660;37883.359
607.309;31222.955;  -11.740;38748.273
607.890;30652.521;   -9.759;38850.230
608.471;30090.795;   -8.250;37457.918
609.051;29216.131;   -9.240;36066.457
609.632;28169.732;  -12.120;35991.074
610.213;28990.078;   -9.110;37402.641
610.794;29695.900;   -8.030;38383.363
611.374;29154.264;   -8.110;40562.387
611.955;29578.779;  -13.560;38533.727
612.536;30923.719;  -11.400;36951.789
613.116;30894.414;   -8.070;37197.891
613.697;31253.881;  -10.830;38411.125
614.277;29726.258;  -11.641;38673.938
614.858;30545.859;  -13.310;37075.863
615.438;29602.670;   -7.460;35092.906
616.019;26960.268;   -7.601;33666.301
616.599;27727.000;  -12.020;34189.023
617.179;29596.037;  -11.780;36952.047
617.760;30606.816;   -8.570;39582.574
618.340;31737.563;  -11.471;38943.977
618.920;33030.367;  -11.170;37594.156
619.500;32700.377;  -11.071;37866.938
620.080;31725.604;   -7.750;37869.043
620.660;32828.691;  -12.711;36868.617
621.241;34194.754;  -10.211;36352.309
621.821;34426.664;  -10.961;35459.520
622.401;33446.773;   -7.720;35207.414
622.980;32766.984;   -8.981;35980.422
623.560;31298.018;   -9.331;37351.328
624.140;30007.338;   -9.850;34388.582
624.720;24846.006;   -7.451;32368.764
625.300;21358.166;   -9.070;32638.629
625.880;24814.232;  -12.601;34599.035
626.459;28835.398;  -11.751;36831.738
627.039;31964.426;   -9.281;38299.098
627.619;31949.002;   -8.801;38289.574
628.198;30391.676;  -12.071;37220.695
628.778;29548.457;   -9.461;37632.563
629.357;30196.926;   -8.491;38003.012
629.937;30124.303;   -9.721;38402.039
630.516;29480.848;   -9.951;37868.801
631.096;29177.654;  -11.731;35760.410
631.675;31861.250;   -8.572;35225.219
632.254;36959.035;  -11.282;35130.289
632.834;36410.867;  -13.322;35794.570
633.413;34544.441;  -10.301;35788.922
633.992;31729.982;   -8.582;34532.863
634.571;32471.885;   -8.352;33590.113
635.151;35476.438;  -11.912;34943.863
635.730;33912.625;  -10.511;35352.523
636.309;30519.943;   -7.731;35366.605
636.888;28109.008;   -9.952;36165.637
637.467;28972.229;  -11.672;37515.902
638.046;30580.510;   -8.901;39288.695
638.625;33656.480;   -7.912;38279.699
639.204;33402.977;  -10.022;37741.598
639.782;31835.881;  -12.252;38364.551
640.361;28105.729;  -10.041;36740.621
640.940;25196.875;  -11.161;34950.082
641.519;25846.924;   -9.701;34137.398
642.097;28900.193;  -11.271;35654.258
642.676;31893.695;   -8.651;35637.957
643.255;32484.473;   -8.711;36567.074
643.833;31582.010;   -9.581;37809.434
644.412;31613.133;  -13.711;37337.293
644.990;30752.566;  -11.811;37018.531
645.569;30838.664;   -9.411;36518.469
646.147;29779.252;  -10.291;36186.430
646.726;29365.793;  -12.401;36267.688
647.304;30579.129;  -10.411;36647.625
647.882;32514.234;   -9.651;39286.742
648.461;34330.273;   -9.631;39157.703
649.039;32611.670;  -11.881;35412.883
649.617;31931.566;   -9.661;34744.918
650.195;31526.723;   -9.301;35403.098
650.773;30085.576;  -10.511;35053.797
651.352;27567.234;  -11.521;33756.816
651.930;25156.834;  -12.211;31868.773
652.508;23679.936;   -9.171;33121.551
653.086;27645.434;   -9.371;33564.793
653.663;30480.857;  -13.161;34054.668
654.241;29343.932;  -13.031;35693.309
654.819;31098.207;   -9.371;36422.906
655.397;31297.688;  -10.511;38213.484
655.975;30946.857;  -10.371;39507.625
656.553;30667.646;  -10.051;39498.223
657.130;29031.605;  -10.061;40395.480
657.708;28219.363;   -9.561;39242.020
658.286;28206.203;  -11.511;38920.020
658.863;29513.662;  -10.261;40202.898
659.441;32643.977;   -7.531;39677.938
660.018;32227.363;   -9.501;40413.355
660.596;31170.527;  -13.301;39931.414
661.173;33237.305;  -11.211;39604.531
661.750;33278.039;   -9.951;39700.070
662.328;31785.506;   -9.390;39292.809
662.905;30823.820;  -11.330;38235.648
663.482;26628.477;   -9.050;36212.305
664.060;24751.557;   -8.240;35944.945
664.637;27612.018;  -10.050;35170.785
665.214;29470.252;  -11.760;34197.523
665.791;30941.105;  -10.530;34549.520
666.368;29809.295;   -9.690;35118.578
666.945;30495.740;   -9.320;36019.418
667.522;32169.980;  -11.860;36048.438
668.099;31895.039;  -10.770;36243.914
668.676;30677.119;   -6.260;35958.875
669.253;29357.547;   -7.000;37384.730
669.830;30048.375;  -10.190;36779.629
670.407;29758.213;   -9.550;35231.289
670.984;29609.732;   -9.260;35544.270
671.560;30154.936;   -9.280;35466.867
672.137;29314.705;  -11.810;34280.863
672.714;30100.881;  -11.490;34632.863
673.290;30744.221;   -7.740;35135.422
673.867;30943.623;  -10.660;36114.480
674.443;30837.158;  -12.230;36152.859
675.020;29114.646;  -10.450;35327.238
675.596;30111.059;   -9.260;35795.176
676.173;30565.426;  -10.780;35430.355
676.749;30403.875;  -13.690;33549.516
677.326;30423.691;  -11.980;32210.012
677.902;30411.514;   -8.630;32068.871
678.478;29683.271;  -10.730;32583.891
679.054;29032.576;  -10.520;32088.928
679.631;29300.588;  -11.920;30978.848
680.207;30935.479;   -7.490;33160.887
680.783;32676.578;   -9.860;35570.363
681.359;31814.270;  -13.380;36125.184
681.935;31132.359;  -12.480;35240.922
682.511;30194.512;   -7.900;34429.961
683.087;30261.803;   -7.710;34463.680
683.663;29826.480;  -11.480;34648.898
684.239;28622.145;  -14.090;34546.457
684.815;28320.342;   -7.560;35586.375
685.390;28702.627;   -9.910;35821.895
685.966;29208.873;  -11.159;35085.871
686.542;31632.229;  -11.169;34198.230
687.118;33683.754;   -5.959;32847.707
687.693;33901.707;  -10.329;32794.027
688.269;33630.500;  -12.059;33072.367
688.844;31882.893;  -10.909;33141.664
689.420;29687.949;   -8.019;33965.742
689.995;27365.352;   -8.399;34655.523
690.571;26001.834;  -10.949;33576.742
691.146;26478.291;   -9.619;32657.219
691.722;25946.127;   -8.999;32526.979
692.297;25797.604;  -11.589;33014.617
692.872;27682.172;  -11.739;34012.254
693.448;27207.357;  -11.059;34237.434
694.023;26363.918;  -10.139;34142.672
694.598;28357.156;   -9.029;34132.031
695.173;28782.721;  -13.319;34205.250
695.748;28099.582;  -10.169;32882.488
696.323;28264.947;   -8.339;32864.906
696.898;28528.109;   -8.169;33170.004
697.473;28279.400;  -12.309;32432.984
698.048;27680.352;  -10.989;31649.303
698.623;27617.830;   -9.329;30778.141
699.198;29574.928;   -9.849;31140.119
699.773;30497.678;  -12.329;31764.299
700.348;28784.699;  -10.389;31780.816
700.922;28763.389;   -9.269;32046.375
701.497;29571.604;   -9.329;32603.574
702.072;29790.850;  -10.789;34799.871
702.646;28527.629;  -10.839;35793.172
703.221;26451.475;   -9.099;35201.590
703.795;28540.070;  -10.939;34764.527
704.370;28947.414;  -12.859;34307.367
704.944;29374.887;  -11.559;33509.887
705.519;30185.170;   -7.939;31388.584
706.093;31651.568;  -10.499;31340.104
706.668;32040.559;  -11.289;32630.281
707.242;30895.213;  -11.509;32728.779
707.816;29239.012;   -9.639;32947.238
708.390;27650.217;  -11.429;33277.855
708.965;28125.777;  -11.869;33834.336
709.539;28158.385;  -11.689;33709.273
710.113;28698.322;  -10.478;33044.313
710.687;28211.055;  -10.228;31953.992
711.261;26591.746;  -13.698;30505.949
711.835;26522.189;  -13.378;30262.369
712.409;27351.857;   -9.698;31254.447
712.983;29218.811;  -11.898;32754.986
713.557;30132.865;  -15.138;34018.824
714.131;29686.438;  -14.098;34579.625
714.704;28621.408;   -9.958;33890.262
715.278;26368.746;  -10.028;33531.102
715.852;25373.924;  -11.148;33601.660
716.425;26261.639;   -9.068;33515.117
716.999;26996.387;  -10.038;33185.555
717.573;27936.758;   -9.798;33905.996
718.146;29030.984;  -12.378;35199.293
718.720;28971.689;  -11.918;35060.551
719.293;28402.938;   -8.088;34973.230
719.867;31386.432;  -10.888;36394.449
720.440;31187.260;  -11.938;36663.008
721.013;29463.148;  -12.818;35102.426
721.587;27974.699;  -10.298;33985.266
722.160;27020.273;  -10.048;33524.965
722.733;25988.178;  -12.108;32987.043
723.306;26246.484;  -10.818;33066.301
723.880;28611.949;   -8.908;33399.500
724.453;30547.912;   -9.878;33468.297
725.026;29610.799;  -11.188;33816.637
725.599;27008.127;  -11.678;32797.996
726.172;27434.713;   -9.618;33187.434
726.745;28417.314;   -8.258;35136.613
727.318;29601.201;  -12.978;35751.730
727.891;29862.041;  -12.148;35890.430
728.463;29530.723;   -8.968;34822.090
729.036;28649.703;  -10.188;32895.086
729.609;29173.418;  -11.788;31823.225
730.182;26240.000;  -11.788;31445.283
730.754;23762.066;  -10.268;32373.223
731.327;23771.316;   -9.998;33676.820
731.900;24085.027;  -12.228;33417.000
732.472;25507.641;  -13.848;31978.498
733.045;27505.367;   -8.698;30368.777
733.617;27612.316;  -10.607;30574.215
734.190;27214.893;  -11.507;31280.975
734.762;24281.375;  -13.647;31674.412
735.334;22505.959;   -9.767;31247.291
735.907;23139.088;   -9.897;29876.211
736.479;23304.287;  -11.637;29808.488
737.051;22974.963;   -9.567;30233.547
737.623;23894.797;   -8.187;31469.086
738.195;24711.084;  -11.187;31784.225
738.768;26751.379;  -12.337;32120.523
739.340;26917.111;  -12.227;32094.342
739.912;25600.475;  -11.057;31312.680
740.484;24131.195;  -10.207;31946.238
741.056;23062.014;  -10.047;32984.059
741.628;24911.055;  -13.627;33897.715
742.199;27142.416;   -7.177;33213.016
742.771;25428.762;  -10.797;31369.113
743.343;23091.936;  -11.997;31865.473
743.915;22112.291;  -12.867;32388.631
744.487;22239.572;   -7.617;31079.568
745.058;22454.398;   -9.557;30570.107
745.630;22883.088;   -9.877;29970.127
746.201;23617.387;  -14.177;29186.766
746.773;23938.045;   -9.237;28805.723
747.344;23662.744;   -9.847;29591.223
747.916;22247.586;  -11.657;31412.201
748.487;22522.986;  -10.587;32194.898
749.059;23734.545;   -8.707;32533.719
749.630;24442.121;  -10.537;32158.518
750.201;23527.588;  -11.687;30855.395
750.773;21794.574;  -11.647;28622.555
751.344;21880.486;   -7.147;28405.732
751.915;23218.338;   -9.757;28461.551
752.486;23111.063;  -12.427;27842.850
753.057;20764.932;  -12.227;27845.008
753.628;19493.764;  -10.417;27728.107
754.199;20659.934;  -11.767;27381.086
754.770;21718.559;  -11.187;25882.203
755.341;21726.314;  -10.507;25886.184
755.912;21708.162;   -9.387;26050.861
756.483;21171.508;  -10.647;26798.779
757.054;19386.461;  -11.837;27048.238
757.625;18083.949;  -12.716;26294.838
758.195;17850.508;   -9.666;26142.076
758.766;17576.465;   -8.656;26392.234
759.337;18366.324;  -12.856;26334.594
759.907;20124.572;  -13.366;27579.652
760.478;21065.412;   -8.576;28352.770
761.048;20441.854;  -10.526;27325.088
761.619;19558.184;  -11.116;26460.428
762.189;19570.084;  -12.136;26029.826
762.760;20669.004;   -9.456;26430.145
763.330;21804.348;   -7.136;26670.902
763.900;21226.441;  -11.786;26603.021
764.471;18650.141;  -11.546;25542.740
765.041;17402.846;   -8.096;24358.459
765.611;17471.068;   -8.876;23991.297
766.181;17863.525;  -12.196;24470.236
766.751;18779.266;  -11.636;24845.975
767.321;18536.232;  -10.156;24533.633
767.891;16612.064;  -11.766;24916.492
768.461;16125.990;  -14.936;24776.771
769.031;16698.732;  -12.356;24757.988
769.601;18279.307;   -7.526;24181.088
770.171;18053.627;  -10.766;23670.387
770.741;17235.609;  -13.176;22960.045
771.311;17393.559;  -10.616;22917.523
771.880;17726.365;   -9.576;23562.941
772.450;17358.135;  -10.336;24216.500
773.020;17411.258;  -13.516;24140.398
773.589;16821.570;  -13.466;24414.857
774.159;16182.669;   -8.686;23858.717
774.729;15759.113;   -9.476;22942.135
775.298;15231.315;  -13.666;22324.033
775.867;14849.876;  -11.716;21140.313
776.437;14968.535;   -9.906;20838.092
777.006;14784.361;  -12.166;20599.510
777.576;14695.209;  -12.356;20508.809
778.145;14830.551;  -11.646;20732.947
778.714;14702.456;   -8.226;21062.465
779.283;13928.179;   -9.556;20949.664
779.853;13407.354;  -14.116;20508.623
780.422;13893.773;  -11.506;20649.082
780.991;13488.320;   -9.556;21527.520
781.560;12288.425;   -9.095;22632.658
782.129;12109.118;  -12.135;23048.277
782.698;12138.494;  -10.865;23438.555
783.267;11733.686;   -9.335;23267.734
783.836;11705.575;  -11.045;22415.133
784.404;12790.952;  -13.865;20443.152
784.973;13401.551;  -13.095;19699.150
785.542;13298.468;  -11.575;19763.828
786.111;13070.972;   -9.705;20341.408
786.679;12545.504;  -12.105;20207.967
787.248;12334.926;  -12.455;19516.465
787.817;12197.026;  -11.535;18900.363
788.385;11783.756;   -9.765;17879.121
788.954;11173.763;  -14.005;17658.301
789.522;10634.123;  -11.955;17788.879
790.090;11209.594;  -10.135;18118.277
790.659;11618.577;  -10.975;18338.736
791.227;11099.676;  -13.375;18508.615
791.795;11508.072;  -12.375;17898.254
792.364;11892.752;  -10.725;17295.133
792.932;12243.430;   -9.715;16822.051
793.500;12419.719;  -12.675;17040.148
794.068;12617.569;  -13.495;17179.787
794.636;12732.388;  -10.885;16664.246
795.204;12165.615;  -11.045;16524.545
795.772;12258.042;  -13.175;17274.564
796.340;11787.768;  -12.445;17891.002
796.908;11593.825;   -9.735;17648.561
797.476;11479.182;   -9.815;17064.080
798.044;11035.461;  -13.985;16672.777
798.612;10225.050;  -13.115;17023.996
799.180; 9829.572;  -10.185;16561.615
799.747; 9740.591;   -9.055;15962.773
800.315; 9483.690;  -12.385;15296.992
800.883; 9145.629;  -15.035;14801.771
801.450; 9148.938;  -10.365;14534.430
802.018; 9216.627;   -9.855;14173.248
802.585; 9382.934;  -11.905;14029.547
803.153; 9444.974;  -11.585;13836.846
803.720; 9224.490;   -9.095;13567.324
804.287; 8741.361;   -9.135;13360.622
804.855; 8318.538;  -11.604;13681.981
805.422; 8184.125;  -11.794;13536.560
805.989; 8191.772;  -10.734;13355.958
806.556; 8368.755;  -10.444;13747.896
807.124; 8599.707;  -12.764;13987.376
807.691; 8565.004;  -12.964;14038.674
808.258; 8367.402;  -11.134;14120.152
808.825; 8050.771;   -9.854;13860.111
809.392; 8118.792;  -10.504;13268.790
809.959; 7624.436;  -13.054;12680.389
810.526; 7179.482;   -8.294;12427.308
811.093; 7227.965;   -8.394;12030.105
811.659; 7849.858;  -12.304;11653.664
812.226; 8373.014;  -13.944;11637.183
812.793; 8079.038;  -10.484;11611.521
813.360; 7441.853;  -10.144;11885.181
813.926; 7135.369;  -11.684;12770.539
814.493; 6909.971;  -13.644;12677.638
815.060; 6518.634;   -9.724;11974.336
815.626; 6523.823;   -9.854;11594.715
816.193; 6935.757;  -13.254;11579.474
816.759; 6948.586;  -13.204;11666.972
817.325; 6993.491;   -9.434;11325.530
817.892; 7349.315;  -10.134;11105.369
818.458; 7788.969;  -13.474;10843.928
819.024; 7398.596;  -11.854;10714.406
819.591; 7054.966;  -10.244;10469.165
820.157; 6840.805;  -10.704;10235.523
820.723; 6337.716;  -12.324;10847.563
821.289; 6015.594;   -9.444;11040.980
821.855; 5928.164;   -8.374;10357.100
822.421; 5898.213;  -10.234; 9978.918
822.987; 5901.927;  -13.294; 9754.177
823.553; 5602.257;  -10.884;10065.755
824.119; 5426.126;   -8.884;10036.294
824.685; 5508.235;   -6.784;10029.192
825.251; 5589.139;  -12.004;10199.230
825.816; 5544.801;  -11.474; 9820.189
826.382; 5304.115;   -9.174; 9297.248
826.948; 5504.761;   -9.214; 9381.347
827.513; 5914.609;  -10.774; 9450.726
828.079; 5743.787;  -11.924; 9472.444
828.645; 5162.522;  -10.543; 9292.643
829.210; 5080.931;  -10.533; 9065.341
829.776; 5075.924;  -10.753; 9132.620
830.341; 4958.902;  -10.173; 9092.878
830.906; 5148.009;  -10.743; 9078.557
831.472; 5484.293;  -11.113; 8534.535
832.037; 5208.996;  -10.603; 8677.874
832.602; 4653.250;  -13.323; 8628.692
833.167; 4394.889;  -10.823; 8879.031
833.733; 4336.227;  -10.113; 9189.790
834.298; 4474.646;  -13.583; 9052.608
834.863; 4537.514;  -12.703; 8895.087
835.428; 4505.258;  -10.523; 8824.266
835.993; 4360.840;   -6.963; 8845.385
836.558; 4212.502;  -10.763; 8888.563
837.123; 4348.445;   -9.903; 8966.582
837.688; 4582.843;   -9.913; 8617.860
838.253; 4824.394;  -10.283; 8590.699
838.817; 5028.047;  -12.963; 8443.797
839.382; 4934.951;  -14.243; 8799.356
839.947; 4611.741;  -10.733; 8810.595
840.511; 4304.666;   -9.383; 8796.394
841.076; 3925.204;  -12.563; 8347.231
841.641; 3981.006;  -12.953; 8224.330
842.205; 4083.197;   -7.043; 8223.349
842.770; 4198.927;   -8.163; 8622.107
843.334; 4372.818;  -12.503; 8410.386
843.898; 4317.958;  -11.693; 8337.465
844.463; 4338.196;  -10.203; 8506.283
845.027; 4111.494;   -9.533; 8280.962
845.591; 3937.112;  -13.443; 8231.141
846.156; 3917.746;  -13.143; 7969.179
846.720; 3798.216;   -9.433; 7768.278
847.284; 3674.874;  -11.033; 7630.957
847.848; 3545.848;  -10.403; 7472.395
848.412; 3448.979;  -11.553; 7437.394
848.976; 3497.291;   -8.393; 7674.592
849.540; 3437.420;   -8.713; 7836.011
850.104; 3560.964;  -12.463; 7913.669
850.668; 3925.169;  -12.973; 7694.508
851.232; 4021.085;  -10.793; 7756.887
851.796; 3856.134;  -10.662; 7926.545
852.359; 3556.667;  -13.082; 7827.844
852.923; 3382.281;  -12.192; 7641.163
853.487; 3193.532;  -11.912; 7342.501
854.050; 3142.826;  -10.892; 7042.820
854.614; 3289.168;  -13.992; 7151.338
855.177; 3423.611;  -11.732; 7105.077
855.741; 3464.852;   -8.962; 6989.675
856.304; 3356.533;   -9.442; 6596.634
856.868; 3303.359;  -14.192; 6356.272
857.431; 3406.028;  -12.702; 6468.571
857.995; 3535.516;   -9.942; 6373.210
858.558; 3546.448;   -9.112; 6324.448
859.121; 3265.262;  -12.932; 6408.327
859.684; 3134.568;  -13.442; 6347.886
860.247; 3239.352;  -10.632; 6321.264
860.810; 3231.483;  -11.272; 6301.903
861.374; 2973.613;   -9.832; 6607.881
861.937; 2712.748;  -11.762; 6408.200
862.500; 2711.501;   -9.722; 6572.639
863.062; 2896.362;  -10.512; 6387.297
863.625; 3071.847;  -11.232; 6190.836
864.188; 3234.637;  -14.112; 5807.254
864.751; 3301.829;  -11.302; 5682.413
865.314; 3193.189;  -10.112; 5547.492
865.876; 2980.871;  -12.182; 5500.150
866.439; 2961.276;  -10.722; 5415.909
867.002; 2906.446;   -9.252; 5501.567
867.564; 2698.242;   -9.572; 5413.946
868.127; 2470.501;  -13.142; 5160.325
868.689; 2363.504;  -12.902; 5133.183
869.252; 2267.674;   -9.732; 5252.382
869.814; 2174.802;   -9.432; 5297.141
870.377; 2191.967;  -11.552; 5390.919
870.939; 2266.265;   -9.052; 5599.898
871.501; 2329.522;  -10.982; 5248.336
872.063; 2333.276;  -12.292; 4854.235
872.626; 2292.822;  -14.912; 4817.074
873.188; 2327.741;  -13.112; 4987.732
873.750; 2297.755;  -13.442; 4868.651
874.312; 2190.156;   -9.402; 4779.330
874.874; 2100.816;  -11.062; 4866.348
875.436; 2012.157;  -13.931; 4718.887
875.998; 2006.900;   -9.561; 4660.005
876.560; 2037.760;  -11.321; 4462.964
877.122; 1985.192;  -12.221; 4145.042
877.683; 1898.777;  -12.191; 4056.481
878.245; 1830.415;  -12.101; 3950.740
878.807; 1881.060;   -8.971; 4058.958
879.369; 1904.678;  -12.071; 3954.677
879.930; 1795.616;  -14.621; 3941.495
880.492; 1724.314;  -10.311; 4067.014
881.053; 1694.103;  -10.901; 3859.633
881.615; 1607.923;  -14.411; 3776.071
882.176; 1563.538;  -13.761; 3734.750
882.738; 1597.090;   -9.181; 3678.489
883.299; 1617.628;  -11.791; 3405.407
883.860; 1566.925;  -13.121; 3351.106
884.422; 1360.994;  -11.211; 3394.044
884.983; 1033.512;  -10.091; 3166.443
885.544;  765.396;   -8.461; 3189.802
886.105;  657.382;  -12.361; 3160.360
886.666;  651.709;  -14.141; 3093.059
887.227;  668.352;  -11.361; 2941.957
887.788;  671.691;  -11.401; 2974.836
888.349;  672.586;  -13.791; 2721.214
888.910;  703.577;  -13.191; 2696.493
889.471;  734.265;   -9.881; 2560.172
890.032;  737.430;   -9.881; 2558.190
890.593;  730.647;  -10.371; 2567.669
891.153;  716.413;  -13.301; 2460.307
891.714;  680.198;  -11.431; 2372.046
892.275;  653.200;  -11.291; 2309.505
892.835;  622.565;  -11.471; 2382.543
893.396;  579.070;  -11.541; 2295.502
893.956;  530.042;  -11.181; 2162.420
894.517;  498.111;  -11.741; 2125.439
895.077;  495.604;  -11.671; 2086.978
895.638;  496.588;  -11.311; 2126.316
896.198;  470.196;   -9.831; 1838.275
896.758;  430.891;   -8.421; 1892.813
897.319;  404.337;  -12.351; 1792.232
897.879;  389.444;  -13.511; 1762.751
898.439;  364.195;  -12.001; 1661.149
898.999;  342.693;  -10.180; 1781.468
899.559;  334.844;  -12.030; 1703.347
900.119;  331.925;  -15.710; 1537.525
900.679;  326.717;   -8.900; 1638.384
901.239;  313.199;   -8.340; 1527.902
901.799;  303.836;  -13.910; 1456.441
902.359;  299.060;  -13.460; 1357.140
902.919;  292.172;  -11.490; 1331.118
903.479;  279.854;  -12.110; 1317.257
904.038;  260.830;  -11.720; 1262.595
904.598;  245.491;  -13.610; 1152.034
905.158;  241.082;  -11.040; 1240.893
905.717;  234.550;  -10.900; 1233.691
906.277;  225.144;  -15.080; 1217.330
906.836;  215.558;  -13.380; 1222.408
907.396;  206.828;  -10.780; 1193.047
907.955;  198.774;   -8.500; 1182.526
908.515;  192.537;  -12.760; 1099.364
909.074;  183.321;  -11.900; 1092.863
909.633;  176.269;   -8.950; 1069.121
910.192;  170.802;   -8.770; 1196.460
910.752;  168.186;  -12.390; 1029.960
911.311;  165.725;  -13.680; 1009.780
911.870;  162.829;  -12.370;  971.460
912.429;  164.107;  -10.900; 1094.080
912.988;  163.790;  -11.690; 1081.060
913.547;  159.729;  -13.240;  940.380
914.106;  155.857;  -11.990;  999.420
914.665;  153.067;   -9.990;  984.020
915.224;  152.477;  -12.880; 1035.760
915.782;  152.292;  -12.350;  922.560
916.341;  151.294;   -9.110; 1049.840
916.900;  146.983;   -9.270;  925.260
917.458;  146.232;  -13.240;  884.220
918.017;  145.296;  -13.550;  942.600
918.576;  144.381;  -12.320;  904.440
919.134;  142.964;  -11.490;  837.980
919.693;  141.736;  -13.670;  893.060
920.251;  139.118;  -15.470;  876.500
920.809;  137.985;  -11.290;  839.580
921.368;  137.439;  -10.210;  885.360
921.926;  137.251;  -12.140;  842.940
922.484;  136.551;  -13.080;  903.360
923.042;  135.323;  -11.720;  880.340
923.601;  138.536;   -7.480;  998.680
924.159;  137.141;  -11.570;  935.560
924.717;  134.545;  -13.840;  841.080
925.275;  133.415;  -10.640;  903.240
925.833;  132.712;  -11.540;  779.320
926.391;  134.576;  -12.960;  938.380
926.949;  133.269;  -14.130;  857.680
927.506;  132.154;  -11.750;  903.500
928.064;  133.871;  -10.250;  877.580
928.622;  132.301;  -13.030;  880.100
929.180;  133.218;  -13.400;  814.180
929.737;  133.292;  -10.700;  808.540
930.295;  137.222;  -10.070;  928.480
930.853;  138.666;  -11.960;  849.100
931.410;  138.924;  -13.120;  821.120
931.968;  137.664;  -10.770;  940.660
932.525;  137.487;  -10.680;  909.380
933.082;  139.103;  -13.130;  811.440
933.640;  139.569;  -13.210;  925.900
934.197;  136.793;  -11.060;  886.360
934.754;  138.396;   -9.580;  897.780
935.312;  142.290;  -14.000;  863.340
935.869;  145.841;  -10.710; 1012.980
936.426;  144.840;   -9.860;  872.800
936.983;  146.344;   -9.710;  889.020
937.540;  147.195;  -13.990;  838.280
938.097;  144.891;  -14.040;  940.120
938.654;  144.537;  -10.310;  898.860
939.211;  147.204;  -10.560;  952.480
939.768;  152.086;  -13.900;  915.420
940.324;  155.675;  -14.760;  904.200
940.881;  155.464;  -10.370;  878.500
941.438;  155.448;   -8.260; 1021.200
941.995;  153.255;  -12.540;  992.560
942.551;  149.947;  -14.670;  875.620
943.108;  150.248;  -10.450;  937.920
943.664;  152.514;  -10.750;  869.340
944.221;  157.078;  -11.550; 1088.140
944.777;  153.235;  -14.770;  869.680
945.334;  154.031;  -12.820;  884.840
945.890;  155.359;  -10.130;  946.480
946.446;  157.170;  -13.470;  947.020
947.003;  158.615;  -12.120;  964.940
947.559;  160.643;   -9.980; 1063.040
948.115;  158.852;   -9.080; 1026.540
948.671;  158.834;  -10.830;  967.300
949.227;  155.944;  -12.440;  859.560
949.783;  152.658;  -12.910;  858.900
950.339;  154.539;  -10.270;  991.000
950.895;  154.335;  -13.630; 1023.840
951.451;  154.345;  -15.100;  925.280
952.007;  153.871;  -11.330;  998.540
952.563;  153.438;  -10.580;  937.780
953.118;  154.184;  -13.440;  904.940
953.674;  153.234;  -12.710;  935.780
954.230;  152.376;  -10.350;  949.640
954.785;  150.539;   -9.190;  936.640
955.341;  148.532;  -11.200;  998.160
955.897;  145.531;  -16.560;  834.660
956.452;  147.083;  -12.570;  953.840
957.008;  146.245;   -7.970; 1083.640
957.563;  144.923;  -11.940; 1009.540
958.118;  138.965;  -13.450;  877.700
958.674;  139.657;  -12.030;  946.780
959.229;  140.476;   -9.410; 1013.980
959.784;  138.634;  -12.000;  832.400
960.339;  138.504;  -14.780; 1001.280
960.894;  134.531;   -9.860;  963.760
961.449;  130.695;   -9.970;  859.960
962.004;  131.284;  -10.900; 1212.840
962.559;  126.043;  -13.150;  860.140
963.114;  122.943;  -13.740;  742.480
963.669;  123.259;   -9.820;  915.500
964.224;  121.668;  -13.890;  874.340
964.779;  120.437;  -12.600;  828.420
965.334;  120.183;  -10.950; 1017.860
965.888;  119.353;  -11.170;  875.360
966.443;  123.876;  -12.540;  972.380
966.998;  122.645;  -15.780;  819.460
967.552;  120.726;   -9.760;  908.380
968.107;  117.107;   -9.060;  868.300
968.661;  118.246;  -11.950;  922.440
969.216;  119.721;  -12.800;  856.280
969.770;  118.732;  -11.210;  917.200
970.324;  118.086;  -11.610;  923.140
970.879;  115.328;  -11.370;  947.180
971.433;  112.675;  -12.540;  952.720
971.987;  106.871;  -11.320;  895.340
972.541;  103.945;  -10.720;  917.100
973.095;  103.825;   -9.680; 1009.460
973.649;  103.199;  -11.440;  809.480
974.203;  101.498;  -11.210;  829.040
974.757;  101.382;  -10.240;  855.220
975.311;  101.558;  -13.720;  872.600
975.865;  101.341;  -13.770;  881.820
976.419;   98.323;  -11.690;  857.400
976.973;   98.240;   -9.510;  849.620
977.526;  101.042;  -12.620;  949.920
978.080;  101.201;  -12.010;  796.780
978.634;  100.683;  -10.170;  921.320
979.187;   98.016;   -9.020;  905.400
979.741;   96.647;   -9.820; 1018.380
980.294;   91.427;  -14.870;  789.160
980.848;   88.677;  -12.380;  717.220
981.401;   91.225;  -10.350;  816.540
981.955;   94.397;  -13.720;  844.300
982.508;   92.946;  -11.490;  746.340
983.061;   92.225;  -10.000;  915.260
983.615;   88.855;  -11.480;  798.800
984.168;   85.647;  -13.220;  770.080
984.721;   85.471;  -13.960;  880.760
985.274;   83.936;  -10.870;  867.500
985.827;   82.558;   -9.790;  834.220
986.380;   80.523;  -13.120;  721.340
986.933;   80.199;  -12.450;  864.800
987.486;   77.589;  -10.210;  861.920
988.039;   76.411;   -8.430;  863.100
988.591;   75.307;  -10.520;  893.260
989.144;   73.018;  -14.860;  737.260
989.697;   72.133;  -13.080;  758.740
990.250;   72.094;  -10.150;  858.100
990.802;   71.785;  -13.430;  755.860
991.355;   73.002;  -12.750;  974.880
991.907;   70.425;  -12.040;  864.320
992.460;   67.848;  -11.330;  753.760
993.012;   68.259;  -13.610;  749.540
993.565;   66.498;  -13.460;  711.360
994.117;   67.468;   -9.360;  950.780
994.669;   63.413;  -11.300;  701.320
995.221;   61.910;  -13.540;  791.920
995.774;   61.346;  -13.430;  787.580
996.326;   58.547;  -12.520;  740.220
996.878;   58.368;  -10.950;  838.420
997.430;   56.475;  -14.300;  699.860
997.982;   56.285;  -13.760;  750.140
998.534;   54.656;  -11.530;  739.060
999.086;   53.233;  -10.310;  738.220
999.638;   53.497;  -12.530;  661.380
1000.190;   52.332;  -11.840;  699.320
1000.741;   51.378;  -10.260;  742.700
1001.293;   50.951;   -8.860;  686.020
1001.845;   50.566;  -13.700;  676.640
1002.396;   50.541;  -12.100;  743.400
1002.948;   49.585;  -12.760;  737.400
1003.500;   47.757;  -10.380;  723.780
1004.051;   49.238;  -11.900;  907.580
1004.603;   47.237;  -12.250;  791.820
1005.154;   43.285;  -13.210;  608.980
1005.705;   41.958;  -10.950;  723.960
1006.257;   42.614;  -13.880;  707.220
1006.808;   41.666;  -12.840;  685.460
1007.359;   40.240;  -10.570;  763.240
1007.910;   39.744;   -9.620;  646.640
1008.461;   40.398;  -13.630;  732.940
1009.013;   39.670;  -17.200;  588.340
1009.564;   39.631;  -10.200;  793.520
1010.115;   37.598;  -12.570;  597.040
1010.665;   37.728;  -15.150;  602.160
1011.216;   38.474;  -14.480;  667.920
1011.767;   36.908;  -11.340;  697.920
1012.318;   36.776;   -9.780;  736.980
1012.869;   36.145;  -12.380;  679.000
1013.419;   36.120;  -15.560;  603.120
1013.970;   35.534;  -11.010;  666.640
1014.521;   34.711;  -11.610;  620.620
1015.071;   35.418;  -13.450;  670.380
1015.622;   34.783;  -13.870;  635.460
1016.172;   34.015;  -11.610;  596.820
1016.723;   33.316;  -12.120;  614.380
1017.273;   33.702;  -13.620;  604.160
1017.823;   33.598;  -14.140;  650.340
1018.374;   32.663;  -12.800;  611.760
1018.924;   32.457;  -12.340;  716.880
1019.474;   33.226;  -11.410;  718.880
1020.024;   32.080;  -14.770;  657.580
1020.574;   32.210;   -9.780;  726.160
1021.124;   32.410;   -8.560;  673.580
1021.674;   31.721;  -15.190;  559.120
1022.224;   33.226;  -13.530;  708.940
1022.774;   31.374;  -13.280;  668.820
1023.324;   31.475;  -10.690;  753.520
1023.874;   33.436;  -10.240;  875.760
1024.423;   31.148;  -12.540;  613.700
1024.973;   30.409;  -10.010;  610.760
1025.523;   29.508;  -10.550;  620.960
1026.072;   30.020;  -13.560;  606.420
1026.622;   29.708;  -15.120;  675.740
1027.172;   30.696;  -11.260;  715.660
1027.721;   29.263;  -11.410;  601.220
1028.270;   29.722;  -13.530;  663.400
1028.820;   30.106;  -13.680;  638.080
1029.369;   29.379;  -13.520;  612.700
1029.918;   29.195;  -10.980;  649.840
1030.468;   28.603;  -13.530;  564.780
1031.017;   28.771;  -13.170;  634.800
1031.566;   28.144;  -12.200;  608.900
1032.115;   27.797;   -9.960;  694.500
1032.664;   26.941;  -13.210;  596.480
1033.213;   29.366;  -12.500;  735.420
1033.762;   26.975;  -11.910;  635.620
1034.311;   26.352;   -9.640;  677.220
1034.860;   27.716;  -13.310;  691.000
1035.408;   27.644;  -11.830;  722.720
1035.957;   27.570;  -12.000;  719.540
1036.506;   24.704;  -11.690;  530.800
1037.055;   28.004;  -10.990;  844.320
1037.603;   26.840;  -15.120;  664.000
1038.152;   24.606;  -12.450;  534.760
1038.700;   24.641;  -10.560;  585.740
1039.249;   26.002;  -11.080;  681.220
1039.797;   26.357;  -12.540;  633.360
1040.345;   25.600;  -11.920;  705.420
1040.894;   24.962;  -11.410;  625.300
1041.442;   24.906;  -14.320;  632.200
1041.990;   24.571;  -16.240;  559.160
1042.538;   23.533;  -11.680;  536.180
1043.087;   23.108;  -10.760;  570.860
1043.635;   25.899;  -11.850;  670.500
1044.183;   24.102;  -15.480;  586.400
1044.731;   22.922;  -11.770;  576.000
1045.279;   22.932;  -13.090;  674.920
1045.827;   25.412;  -12.440;  892.400
1046.374;   22.973;  -13.840;  515.420
1046.922;   21.708;  -13.220;  590.580
1047.470;   23.673;  -10.230;  691.300
1048.018;   23.210;  -14.590;  647.960
1048.565;   25.142;  -12.050;  708.600
1049.113;   21.550;  -11.650;  557.000
1049.660;   21.896;  -10.510;  629.660
1050.208;   22.456;  -13.310;  675.640
1050.755;   22.193;  -15.900;  606.580
1051.303;   22.082;  -11.430;  686.820
1051.850;   20.385;   -8.480;  635.120
1052.397;   20.659;  -15.010;  473.960
1052.945;   21.330;  -13.960;  617.760
1053.492;   21.901;  -13.150;  741.840
1054.039;   21.913;   -9.630;  720.180
1054.586;   20.739;  -13.680;  557.240
1055.133;   21.856;  -14.570;  693.140
1055.680;   21.172;  -13.820;  646.620
1056.227;   19.447;  -11.730;  542.780
1056.774;   21.614;  -12.480;  794.980
1057.321;   20.533;  -13.930;  523.260
1057.868;   20.098;  -11.690;  651.320
1058.415;   19.003;   -9.520;  651.980
1058.961;   20.450;  -13.160;  678.940
1059.508;   20.521;  -12.920;  643.820
1060.055;   19.393;  -11.920;  581.780
1060.601;   19.620;  -11.500;  624.300
1061.148;   18.901;  -14.330;  616.820
1061.694;   19.652;  -16.870;  592.580
1062.241;   19.006;  -10.330;  596.320
1062.787;   18.309;  -10.620;  663.140
1063.334;   20.806;  -10.110;  808.560
1063.880;   19.789;  -13.400;  668.360
1064.426;   18.756;  -10.680;  706.820
1064.972;   17.006;   -9.920;  601.340
1065.518;   17.298;  -10.980;  566.640
1066.065;   19.580;  -14.890;  624.460
1066.611;   17.525;  -12.870;  598.800
1067.157;   18.033;  -12.950;  641.860
1067.703;   18.743;  -13.540;  668.480
1068.249;   18.416;  -13.540;  605.220
1068.794;   17.772;  -12.600;  626.880
1069.340;   15.927;  -10.620;  578.960
1069.886;   17.905;  -12.830;  590.700
1070.432;   15.997;  -14.870;  541.720
1070.977;   16.153;  -11.980;  601.080
1071.523;   16.071;   -8.200;  573.060
1072.068;   16.968;  -12.330;  582.000
1072.614;   16.740;  -16.370;  527.760
1073.160;   16.910;  -11.100;  687.040
1073.705;   15.521;  -10.480;  572.520
1074.250;   16.370;  -14.520;  559.900
1074.796;   16.966;  -11.460;  655.160
1075.341;   16.422;  -11.950;  664.100
1075.886;   15.741;  -11.460;  594.240
1076.431;   15.529;  -13.770;  649.880
1076.976;   15.960;  -12.680;  639.220
1077.521;   15.029;  -13.170;  583.080
1078.067;   13.584;  -10.860;  579.400
1078.612;   15.409;  -13.920;  661.620
1079.156;   15.587;  -13.880;  601.540
1079.701;   15.067;  -13.120;  693.260
1080.246;   14.907;   -9.940;  696.300
1080.791;   14.813;  -14.740;  625.020
1081.336;   15.692;  -13.750;  659.320
1081.880;   13.909;  -13.400;  649.680
1082.425;   13.445;  -12.220;  573.480
1082.970;   14.852;  -11.610;  717.040
1083.514;   14.066;  -13.580;  597.000
1084.059;   12.821;  -12.810;  586.720
1084.603;   12.507;  -12.320;  565.840
1085.147;   14.015;  -13.190;  645.220
1085.692;   15.385;  -12.480;  716.800
1086.236;   12.248;  -13.020;  503.140
1086.780;   14.318;   -9.190;  751.440
1087.325;   13.777;  -12.480;  654.620
1087.869;   14.043;  -12.450;  610.700
1088.413;   14.057;  -12.240;  705.040
1088.957;   11.404;   -9.020;  543.400
1089.501;   13.630;  -10.320;  766.640
1090.045;   13.465;  -12.720;  726.480
1090.589;   11.013;  -13.690;  569.920
1091.133;   11.910;  -10.020;  673.340
1091.676;   12.069;  -12.330;  591.940
1092.220;   12.552;  -14.970;  600.920
1092.764;   12.366;  -12.430;  706.960
1093.307;   12.147;   -9.800;  673.780
1093.851;   10.988;  -14.970;  556.540
1094.395;   12.442;  -15.310;  683.140
1094.938;   11.156;  -10.370;  632.520
1095.482;   10.375;  -11.050;  559.800
1096.025;   12.060;  -11.840;  710.880
1096.568;   13.103;  -12.840;  779.280
1097.112;    9.375;  -14.700;  508.180
1097.655;   10.528;   -8.720;  603.000
1098.198;   10.729;  -13.610;  600.180
1098.741;   10.481;  -13.350;  612.860
1099.285;   11.246;  -11.230;  657.300
1099.828;    8.667;  -11.840;  439.400
1100.371;   10.117;  -10.840;  608.160
1100.914;   10.833;  -14.190;  682.660
1101.457;    9.807;  -11.240;  679.900
1101.999;    8.546;  -11.270;  584.680
1102.542;   10.121;  -11.480;  641.440
1103.085;   10.676;  -11.750;  658.500
1103.628;   10.534;  -11.400;  762.060
1104.170;    9.357;  -10.490;  588.280
1104.713;    9.462;  -10.600;  646.700
1105.256;    9.780;  -14.360;  557.440
1105.798;    8.332;  -13.210;  499.980
1106.341;    9.656;  -10.270;  728.900
1106.883;    9.165;  -12.200;  521.340
1107.425;    9.151;  -13.110;  668.180
1107.968;    8.488;  -12.840;  612.380
1108.510;    8.629;   -6.480;  684.960
1109.052;    7.848;  -13.940;  612.620
1109.594;    8.538;  -13.690;  554.440
1110.136;    8.560;  -11.880;  643.220
1110.679;    7.196;   -9.500;  633.080
1111.221;    8.744;  -14.160;  604.460
1111.763;    8.874;  -13.980;  559.220
1112.304;    7.782;  -13.880;  547.140
1112.846;    7.437;  -12.210;  666.240
1113.388;   11.638;  -11.390;  942.180
1113.930;    8.721;  -14.540;  694.200
1114.472;    6.586;  -12.640;  606.540
1115.013;    5.027;  -11.620;  551.280
1115.555;    7.028;  -13.640;  587.100
1116.097;    6.824;  -15.380;  579.480
1116.638;    7.190;  -12.640;  684.600
1117.180;    7.246;   -9.850;  667.740
1117.721;    7.697;  -13.690;  568.580
1118.262;    7.854;  -12.680;  677.960
1118.804;    6.595;  -12.530;  637.340
1119.345;    6.257;  -11.690;  578.400
1119.886;    7.346;  -13.380;  704.040
1120.427;    6.968;  -14.070;  589.020
1120.969;    5.257;  -13.500;  597.920
1121.510;    5.026;  -11.480;  563.060
1122.051;    6.837;  -12.830;  723.580
1122.592;    5.540;  -14.290;  655.420
1123.133;    4.998;  -12.400;  547.940
1123.673;    5.894;  -10.130;  706.480
1124.214;    6.348;  -12.930;  612.460
1124.755;    6.879;  -14.380;  639.460
1125.296;    5.358;  -14.000;  627.320
1125.836;    5.575;  -10.070;  691.500
1126.377;    5.255;  -12.640;  599.660
1126.918;    6.475;  -12.960;  614.980
1127.458;    4.803;  -13.350;  622.220
1127.999;    4.824;  -10.750;  656.980
1128.539;    5.649;  -12.350;  694.240
1129.079;    5.360;  -14.860;  632.720
1129.620;    4.397;  -13.840;  558.100
1130.160;    3.804;  -12.330;  539.480
1130.700;    4.743;  -14.530;  640.840
1131.240;    5.370;  -12.530;  643.700
1131.781;    5.214;  -14.450;  619.680
1132.321;    4.341;   -9.790;  599.120
1132.861;    4.216;  -14.860;  564.200
1133.401;    4.264;  -14.290;  593.940
1133.941;    4.039;  -11.750;  626.280
1134.481;    3.391;   -9.920;  597.580
1135.020;    3.096;  -12.290;  609.160
1135.560;    4.461;  -11.650;  674.940
1136.100;    3.518;  -16.270;  501.160
1136.640;    2.519;  -10.890;  510.480
1137.179;    4.042;  -14.180;  537.960
1137.719;    4.157;  -16.250;  605.400
1138.258;    3.384;  -14.230;  587.360
1138.798;    2.857;   -9.090;  663.780
1139.337;    2.722;  -15.130;  482.840
1139.877;    4.347;  -13.680;  642.360
1140.416;    5.182;  -11.320;  878.060
1140.955;    2.003;  -10.860;  535.380
1141.494;    3.317;  -12.920;  669.280
1142.034;    3.161;  -13.930;  583.520
1142.573;    3.835;  -11.440;  646.280
1143.112;    2.241;  -12.000;  553.480
1143.651;    2.490;  -13.670;  536.480
1144.190;    3.916;  -12.730;  691.640
1144.729;    2.188;  -14.560;  607.420
1145.267;    1.754;  -11.830;  584.900
1145.806;    3.246;  -12.230;  637.040
1146.345;    2.327;  -14.130;  635.020
1146.884;    2.436;  -11.590;  622.500
1147.422;    1.144;  -12.550;  533.060
1147.961;    3.339;  -11.180;  708.460
1148.500;    2.673;  -11.510;  669.720
1149.038;    2.921;  -11.640;  632.500
1149.577;    2.287;  -10.130;  698.640
1150.115;    0.357;  -13.970;  452.280
1150.653;    1.799;  -14.520;  607.340
1151.192;    0.889;  -12.810;  552.920
1151.730;    0.989;   -9.100;  652.560
1152.268;    1.033;  -12.220;  589.520
1152.806;    1.507;  -14.140;  571.180
1153.344;    0.164;  -12.350;  577.640
1153.882;    0.793;   -8.980;  600.060
1154.421;   -0.100;  -15.190;  470.620
1154.958;    1.292;  -15.210;  595.240
1155.496;    1.459;  -12.850;  645.280
1156.034;    0.511;   -9.940;  721.880
1156.572;    2.635;  -13.570;  667.060
1157.110;   -0.312;  -14.590;  473.940
1157.647;    1.636;  -13.030;  676.960
1158.185;   -0.373;  -12.140;  564.320
1158.723;   -0.390;  -14.390;  509.200
1159.260;    0.968;  -14.090;  701.700
1159.798;    0.652;  -11.920;  658.160
1160.335;    0.253;  -11.110;  631.820

