
Integration time [ms]:   3.882
Averaging Nr. [scans]: 1000
Smoothing Nr. [pixels]: 0
Data measured with spectrometer [name]: 7414430SP
Wave   ;Sample   ;Dark     ;Reference
[nm]   ;[counts] ;[counts] ;[counts] 

288.544;  124.689;   10.292;  793.890
289.143;  129.800;    4.564;  681.602
289.742;  131.355;    6.144;  828.814
290.341;  116.885;    4.396;  789.841
290.940;  108.077;    0.938;  730.702
291.538;  109.673;   -0.684;  881.108
292.137;  108.817;   -2.845;  792.581
292.736;  111.979;   -0.144;  975.101
293.335;  108.451;   -6.352;  735.086
293.934;  110.832;   -7.642;  781.677
294.532;  111.600;   -4.992; 1031.958
295.131;   96.385;   -5.478;  834.394
295.730;   95.067;   -6.549;  809.588
296.328;   95.045;   -9.558;  783.442
296.927;   95.339;   -8.118;  779.652
297.525;   95.823;   -6.908;  781.236
298.124;   85.604;   -9.195;  654.009
298.722;   91.335;   -8.198;  761.933
299.321;   89.052;   -8.817;  708.597
299.919;   86.251;   -7.716;  751.918
300.518;   82.937;  -10.745;  689.338
301.116;   85.221;   -9.647;  691.381
301.715;   85.673;  -10.828;  730.222
302.313;   83.436;   -6.087;  704.943
302.911;   78.906;   -6.824;  733.830
303.509;   85.817;   -8.807;  925.627
304.108;   82.007;   -8.198;  760.383
304.706;   81.254;   -6.218;  801.664
305.304;   76.192;   -7.185;  796.707
305.902;   82.273;   -8.568;  784.484
306.500;   78.758;   -7.737;  728.200
307.098;   76.762;   -6.026;  746.560
307.696;   73.720;   -7.176;  780.432
308.294;   76.236;   -8.656;  731.359
308.892;   78.713;   -6.838;  759.769
309.490;   72.706;   -2.596;  712.161
310.088;   69.904;   -4.485;  788.444
310.686;   76.949;   -3.907;  821.749
311.284;   73.402;   -2.806;  766.040
311.882;   69.731;   -2.845;  731.225
312.480;   66.133;   -3.274;  697.167
313.078;   69.923;   -3.645;  808.331
313.675;   71.227;   -4.997;  691.600
314.273;   64.421;   -0.894;  797.837
314.871;   62.426;   -2.854;  589.829
315.468;   62.945;   -3.644;  652.090
316.066;   66.436;   -3.947;  694.427
316.664;   57.961;   -1.824;  656.351
317.261;   62.813;    1.565;  910.128
317.859;   59.282;   -3.955;  768.735
318.456;   60.735;   -2.886;  830.096
319.054;   54.965;   -0.995;  787.828
319.651;   54.534;   -1.765;  759.928
320.249;   54.131;   -3.685;  810.188
320.846;   53.522;   -3.736;  714.286
321.443;   50.223;   -2.065;  832.135
322.041;   46.186;   -5.635;  812.315
322.638;   46.358;   -5.985;  701.456
323.235;   48.846;   -6.677;  665.683
323.833;   44.499;   -3.497;  740.354
324.430;   40.048;   -6.756;  615.900
325.027;   43.367;   -7.647;  876.855
325.624;   43.375;   -7.598;  644.532
326.221;   40.362;   -5.848;  689.717
326.818;   39.129;   -5.777;  818.332
327.415;   42.971;   -8.769;  748.828
328.012;   42.658;   -6.299;  690.585
328.609;   39.297;   -6.639;  731.389
329.206;   37.262;   -6.358;  778.621
329.803;   37.934;   -8.698;  737.841
330.400;   39.633;   -8.379;  704.260
330.997;   39.513;   -6.178;  817.147
331.594;   37.185;   -5.646;  788.185
332.191;   43.458;   -6.928;  728.722
332.787;   45.072;   -6.057;  844.463
333.384;   41.420;   -6.445;  763.093
333.981;   37.854;   -8.002;  815.687
334.578;   41.786;   -8.443;  708.378
335.174;   44.738;   -6.053;  731.469
335.771;   43.686;   -5.791;  836.456
336.367;   39.499;   -6.570;  710.631
336.964;   43.035;   -6.741;  793.266
337.561;   44.909;   -5.710;  731.112
338.157;   39.080;   -3.928;  911.916
338.754;   34.719;   -5.577;  796.589
339.350;   35.287;   -9.667;  722.493
339.946;   39.420;   -5.269;  773.135
340.543;   30.380;   -4.485;  846.136
341.139;   24.150;   -7.584;  720.836
341.735;   22.596;   -8.553;  772.593
342.332;   23.302;   -4.984;  691.472
342.928;   22.879;   -3.475;  795.394
343.524;   16.696;   -6.653;  761.684
344.120;   13.964;   -7.173;  738.562
344.716;   18.999;   -4.385;  723.717
345.313;   15.346;   -3.565;  795.342
345.909;    9.781;   -7.495;  627.336
346.505;   13.218;   -8.276;  740.247
347.101;   14.921;   -5.697;  827.864
347.697;   13.994;   -4.767;  785.398
348.293;    8.247;   -7.226;  627.244
348.889;   10.396;   -7.547;  745.914
349.485;   10.245;   -9.147;  688.205
350.081;    9.823;   -6.568;  772.592
350.676;    5.850;   -6.516;  691.606
351.272;   10.740;   -7.378;  809.530
351.868;   10.743;   -6.759;  780.497
352.464;    7.322;   -4.798;  723.932
353.059;    2.922;   -7.977;  646.017
353.655;    8.470;   -8.769;  777.063
354.251;    9.179;   -5.920;  759.845
354.846;    2.698;   -7.647;  740.646
355.442;   -0.019;   -6.956;  753.071
356.038;    3.413;   -9.928;  751.708
356.633;    3.956;   -7.698;  728.594
357.229;    0.355;   -6.307;  724.757
357.824;   -0.950;   -7.647;  703.600
358.420;   -1.289;  -10.047;  679.726
359.015;    0.092;   -7.458;  695.357
359.610;    0.260;   -5.748;  763.920
360.206;   -6.168;   -9.346;  603.240
360.801;   -1.946;  -11.268;  646.503
361.396;    0.533;   -8.789;  725.975
361.992;   -5.209;   -6.347;  668.220
362.587;   -8.072;   -6.476;  670.160
363.182;   -4.399;   -9.457;  689.631
363.777;   -3.516;   -7.147;  738.242
364.372;   -4.192;   -5.507;  737.314
364.967;   -8.952;   -6.386;  680.744
365.563;   -3.370;   -7.858;  815.567
366.158;   -4.908;   -8.517;  685.161
366.753;   -6.544;   -8.728;  649.263
367.348;   -7.961;   -7.677;  746.056
367.942;   -6.945;  -10.387;  697.298
368.537;   -7.432;   -7.187;  754.245
369.132;   -8.597;   -8.587;  703.428
369.727;  -12.848;   -8.606;  638.079
370.322;  -10.422;  -10.426;  580.186
370.917;   -9.781;   -5.776;  710.646
371.511;   -7.938;   -6.007;  861.834
372.106;  -11.550;   -6.686;  776.964
372.701;  -14.472;   -9.335;  585.988
373.296;   -7.132;   -6.777;  863.135
373.890;  -13.642;   -7.546;  647.840
374.485;  -15.767;   -8.755;  691.199
375.079;  -10.825;   -9.797;  738.685
375.674;   -9.140;   -6.327;  812.970
376.268;  -14.137;   -9.046;  691.759
376.863;  -20.912;   -7.993;  580.327
377.457;  -12.991;   -9.206;  662.490
378.052;  -14.894;   -5.345;  764.884
378.646;  -16.688;   -5.605;  741.167
379.240;  -17.317;   -6.825;  721.176
379.835;  -15.485;  -10.476;  636.978
380.429;  -16.979;   -8.676;  562.557
381.023;  -17.461;   -4.945;  779.205
381.617;  -19.861;   -8.094;  680.106
382.212;  -15.786;  -10.646;  685.303
382.806;  -14.737;   -8.136;  760.690
383.400;  -19.129;   -7.855;  672.281
383.994;  -20.884;   -8.125;  664.870
384.588;  -15.372;   -7.637;  697.701
385.182;  -14.185;   -7.458;  726.624
385.776;  -16.224;   -6.277;  706.875
386.370;  -20.289;   -7.485;  681.968
386.964;  -17.365;   -9.416;  684.155
387.558;  -15.934;   -8.518;  598.360
388.152;  -19.949;   -7.096;  681.959
388.745;  -18.141;   -7.656;  814.707
389.339;  -15.826;   -8.927;  747.642
389.933;  -14.626;   -9.538;  695.370
390.527;  -15.783;   -5.857;  859.029
391.120;  -23.275;   -9.455;  595.318
391.714;  -19.118;   -9.746;  711.633
392.308;  -15.365;   -7.857;  780.253
392.901;  -20.258;   -9.106;  642.460
393.495;  -22.816;  -10.365;  595.414
394.089;  -18.380;   -9.696;  760.452
394.682;  -19.276;   -7.016;  697.188
395.275;  -21.034;   -8.466;  719.927
395.869;  -22.019;   -8.985;  667.314
396.462;  -20.036;  -11.496;  616.609
397.056;  -14.918;   -7.838;  776.621
397.649;  -20.632;   -6.895;  731.575
398.242;  -18.613;   -5.017;  712.645
398.836;  -16.697;   -8.787;  766.408
399.429;  -17.822;   -8.967;  631.041
400.022;  -22.276;   -8.815;  665.902
400.615;  -19.374;   -6.276;  805.609
401.208;  -16.495;   -8.407;  691.451
401.802;  -18.928;   -7.296;  699.329
402.395;  -20.699;   -7.585;  683.502
402.988;  -22.252;   -8.015;  696.627
403.581;  -17.450;   -9.577;  646.878
404.174;  -14.905;   -7.588;  686.568
404.767;  -18.758;   -7.906;  638.583
405.360;  -21.570;   -7.875;  621.445
405.953;  -15.043;   -8.127;  759.034
406.545;  -14.284;   -7.198;  725.342
407.138;  -20.046;   -8.916;  618.350
407.731;  -18.001;   -9.767;  613.303
408.324;  -13.412;  -10.659;  660.554
408.917;  -13.992;   -8.068;  681.864
409.509;  -16.860;   -9.837;  740.396
410.102;  -18.714;   -8.146;  643.948
410.695;  -12.050;   -7.969;  665.758
411.287;  -11.397;   -8.579;  599.821
411.880;  -14.452;   -6.968;  585.421
412.472;  -17.658;   -9.487;  613.092
413.065;  -12.971;  -10.338;  629.408
413.657;  -11.718;   -9.169;  576.678
414.250;  -12.740;  -10.119;  646.681
414.842;  -14.522;   -9.938;  676.353
415.434;  -11.303;  -10.409;  570.463
416.027;   -6.696;   -9.591;  652.196
416.619;  -10.112;   -7.379;  713.400
417.211;  -10.457;   -9.159;  599.352
417.804;   -5.282;   -9.191;  628.499
418.396;   -9.824;   -8.159;  607.643
418.988;   -7.805;   -6.960;  659.238
419.580;  -12.334;  -11.389;  568.276
420.172;   -8.758;  -13.460;  536.196
420.764;   -3.880;  -10.701;  672.482
421.356;   -6.178;   -8.961;  636.898
421.948;   -6.522;   -9.770;  677.661
422.540;   -0.988;   -8.832;  680.027
423.132;   -1.483;   -8.153;  600.641
423.724;   -6.389;   -8.481;  561.267
424.316;   -4.203;   -9.261;  621.345
424.908;    0.114;   -9.643;  591.517
425.500;    2.216;   -8.663;  647.978
426.092;    1.142;   -8.503;  648.268
426.683;   -0.125;  -10.522;  684.836
427.275;    3.320;  -11.734;  641.471
427.867;    5.171;  -10.264;  668.948
428.458;    5.065;   -7.644;  732.344
429.050;    3.195;   -7.853;  680.749
429.642;    6.747;   -8.904;  743.124
430.233;    7.043;  -10.795;  569.356
430.825;    8.056;   -7.665;  724.809
431.416;    4.852;   -8.843;  698.241
432.008;    9.619;   -9.885;  651.723
432.599;   10.959;   -9.966;  656.073
433.190;    6.024;   -9.164;  637.670
433.782;    4.982;   -8.584;  590.395
434.373;   13.810;   -8.296;  884.765
434.964;   13.031;   -9.896;  602.920
435.556;    9.722;   -8.255;  634.537
436.147;   12.194;   -8.075;  758.490
436.738;   12.330;   -9.716;  701.099
437.329;   18.263;   -7.318;  721.723
437.920;   10.943;   -6.694;  666.688
438.511;    9.245;   -9.644;  564.526
439.103;   17.940;   -9.427;  623.998
439.694;   20.476;  -10.748;  681.583
440.285;   20.862;   -7.997;  764.432
440.876;   18.479;  -10.046;  845.738
441.466;   18.107;  -13.467;  575.162
442.057;   24.306;   -9.329;  665.814
442.648;   22.368;   -7.707;  746.255
443.239;   18.887;   -9.017;  620.477
443.830;   25.465;  -10.279;  704.958
444.421;   27.921;  -12.630;  655.474
445.011;   22.755;   -8.697;  693.619
445.602;   22.890;   -7.787;  743.126
446.193;   26.093;  -13.329;  488.117
446.783;   31.132;   -9.171;  640.397
447.374;   25.429;   -7.457;  692.759
447.964;   25.419;   -9.277;  713.770
448.555;   35.090;   -9.041;  822.742
449.145;   32.348;   -8.969;  662.853
449.736;   32.202;   -6.809;  803.179
450.326;   31.272;   -7.229;  713.626
450.917;   37.252;  -11.391;  675.324
451.507;   36.623;   -9.501;  600.661
452.097;   35.804;   -8.460;  746.267
452.688;   36.710;  -10.080;  742.160
453.278;   37.432;  -12.861;  566.840
453.868;   43.265;   -8.372;  793.550
454.458;   39.470;   -8.131;  651.141
455.048;   39.852;   -8.520;  711.783
455.639;   42.178;  -13.632;  567.096
456.229;   46.576;  -10.143;  710.694
456.819;   47.282;   -9.163;  751.158
457.409;   46.748;   -8.652;  773.993
457.999;   51.049;   -9.933;  737.505
458.589;   50.689;  -10.363;  686.606
459.179;   50.201;  -10.633;  717.658
459.769;   46.885;  -12.442;  627.099
460.358;   54.026;   -9.844;  797.262
460.948;   53.545;   -9.924;  689.503
461.538;   54.771;  -10.484;  660.677
462.128;   51.879;  -10.703;  664.934
462.717;   59.611;  -11.486;  710.326
463.307;   63.251;  -10.767;  705.846
463.897;   57.874;   -8.814;  656.942
464.486;   56.541;   -8.182;  837.128
465.076;   62.533;   -9.985;  733.776
465.666;   65.774;  -10.447;  652.900
466.255;   63.022;   -7.754;  785.651
466.845;   61.710;  -10.884;  666.749
467.434;   66.345;  -12.525;  725.873
468.023;   67.658;  -11.456;  658.357
468.613;   63.055;   -9.173;  713.946
469.202;   67.229;   -9.306;  646.507
469.791;   72.888;   -8.917;  737.811
470.381;   74.371;   -9.657;  742.813
470.970;   73.530;   -9.947;  711.099
471.559;   72.828;   -9.256;  733.291
472.148;   76.684;  -13.397;  675.737
472.738;   80.184;   -9.928;  765.466
473.327;   78.993;  -10.897;  637.529
473.916;   76.625;   -8.526;  737.446
474.505;   83.464;  -11.078;  751.703
475.094;   87.136;   -9.559;  806.570
475.683;   85.517;   -8.838;  797.699
476.272;   86.465;  -10.198;  730.632
476.861;   89.202;  -11.489;  706.754
477.449;   96.890;  -10.721;  728.487
478.038;   89.613;   -9.818;  692.513
478.627;   89.463;   -9.887;  714.852
479.216;   98.346;  -10.030;  769.441
479.805;  102.146;   -9.401;  783.375
480.393;  100.440;   -5.739; 1008.945
480.982;   99.041;   -7.838;  874.501
481.571;  106.513;   -9.111;  858.333
482.159;  107.579;  -10.601;  705.386
482.748;  106.598;   -8.500;  821.385
483.336;  109.604;   -9.241;  858.209
483.925;  111.320;  -10.440;  774.373
484.513;  118.132;  -11.063;  758.962
485.102;  114.433;   -9.540;  810.965
485.690;  124.075;   -6.742; 1011.050
486.278;  126.536;   -8.442;  979.329
486.867;  126.838;  -10.472;  809.662
487.455;  127.342;   -8.811;  898.229
488.043;  129.056;  -10.721;  748.361
488.631;  139.150;  -10.393; 1005.079
489.220;  142.251;  -10.843;  908.626
489.808;  141.033;  -10.572;  741.415
490.396;  149.239;  -10.482;  914.645
490.984;  156.844;  -11.542;  830.161
491.572;  166.998;   -8.463;  940.315
492.160;  170.882;   -8.491;  919.081
492.748;  179.560;   -9.681;  884.341
493.336;  199.187;  -10.493; 1019.693
493.924;  225.350;   -9.354;  958.077
494.512;  255.305;   -9.132; 1066.638
495.100;  292.037;   -9.001; 1103.280
495.687;  344.435;  -11.924; 1206.373
496.275;  411.279;  -11.193; 1150.796
496.863;  509.360;   -9.241; 1281.171
497.451;  624.496;  -11.341; 1386.805
498.038;  724.195;  -11.364; 1556.729
498.626;  835.322;   -8.104; 1741.407
499.214; 1019.044;   -8.842; 2016.609
499.801; 1216.821;  -10.112; 2220.633
500.389; 1420.744;  -11.953; 2312.494
500.976; 1673.600;  -10.023; 2744.849
501.564; 1976.356;   -8.662; 3148.565
502.151; 2346.803;  -10.531; 3515.999
502.738; 2722.132;  -13.853; 3971.274
503.326; 3273.615;  -10.794; 4403.796
503.913; 3857.275;   -8.663; 5161.749
504.500; 4226.598;  -10.172; 5986.420
505.088; 4566.642;  -13.472; 6381.201
505.675; 5291.887;  -10.924; 6925.547
506.262; 6089.268;   -8.551; 7619.060
506.849; 6902.644;  -10.523; 8733.969
507.436; 7591.742;  -10.834; 9790.121
508.023; 7812.112;   -9.093; 9985.472
508.610; 8237.764;  -10.073;10434.618
509.197; 8779.348;   -9.500;11198.435
509.784;10054.598;  -13.242;12391.194
510.371;10853.979;  -10.964;13603.713
510.958;10669.408;   -9.772;14426.586
511.545;11701.718;   -7.842;15243.775
512.132;12069.042;  -12.184;15945.876
512.719;12233.216;   -9.733;16340.369
513.305;14085.549;   -9.172;18011.766
513.892;15724.971;   -9.581;19754.971
514.479;17590.293;  -10.253;20967.805
515.066;19764.000;   -8.183;22299.793
515.652;21066.508;   -9.253;22908.660
516.239;22071.717;   -9.412;23798.875
516.825;24354.051;  -11.153;25567.275
517.412;24370.316;  -10.263;28154.959
517.998;24753.799;   -8.802;28344.111
518.585;24377.260;  -10.401;27134.219
519.171;24026.023;  -12.744;27268.576
519.758;25843.979;  -11.793;28964.129
520.344;28229.039;   -8.912;30664.494
520.930;27997.525;  -10.901;32550.605
521.516;28577.105;  -12.034;35422.895
522.103;29400.756;  -10.473;38280.004
522.689;30928.027;   -8.311;37835.117
523.275;34576.035;  -10.691;37288.613
523.861;35934.598;  -11.193;37281.395
524.447;36602.809;  -11.484;37846.949
525.033;36445.391;   -7.702;38321.949
525.619;36079.430;  -11.241;38579.285
526.205;37514.270;  -12.152;40622.875
526.791;37262.648;  -11.423;42258.836
527.377;34637.051;   -7.981;42966.902
527.963;35100.207;   -9.450;42018.949
528.549;38793.910;  -11.351;42476.828
529.135;40411.340;  -10.202;41854.852
529.721;39331.422;   -8.672;41237.711
530.306;37638.180;   -9.111;41259.445
530.892;38962.883;  -11.252;41506.047
531.478;41063.387;  -10.432;43559.613
532.063;43753.289;  -10.721;47695.563
532.649;45731.145;   -7.450;50808.324
533.235;46091.922;  -11.811;51787.500
533.820;46070.551;   -9.383;52145.035
534.406;45344.480;   -9.400;51133.488
534.991;44465.234;   -8.861;49996.805
535.576;42808.355;  -10.612;48882.852
536.162;41020.535;   -7.322;46942.285
536.747;42002.023;   -9.360;45711.746
537.333;44122.797;  -10.450;48510.180
537.918;45835.617;  -12.610;50439.891
538.503;47241.926;  -12.132;50863.711
539.088;44915.691;  -10.831;50906.922
539.673;42446.480;  -11.220;52621.965
540.259;43929.555;  -11.481;52368.094
540.844;46741.316;  -11.462;50879.109
541.429;48331.531;   -7.869;52077.777
542.014;49228.145;  -11.859;52716.695
542.599;48558.414;  -11.061;52363.281
543.184;48025.398;  -12.300;53187.137
543.769;47411.574;   -9.369;54697.605
544.354;47242.410;  -12.020;53913.914
544.938;44268.719;  -10.350;49680.164
545.523;41716.305;  -10.841;47386.277
546.108;43410.523;   -8.579;49151.949
546.693;45778.422;   -8.818;51384.637
547.278;46829.461;  -11.331;51853.254
547.862;43565.547;  -10.292;51173.750
548.447;39734.938;   -8.349;51691.395
549.031;40900.094;  -10.838;52456.703
549.616;46379.527;  -11.681;52714.516
550.201;49522.281;  -11.140;52414.598
550.785;47679.871;   -8.649;52355.059
551.370;47472.484;  -11.889;54589.453
551.954;47398.078;  -11.239;58267.348
552.538;47009.191;   -8.850;59062.176
553.123;48053.637;  -10.829;58115.285
553.707;48180.191;   -8.887;56556.285
554.291;47328.965;  -10.430;56201.668
554.876;45502.410;   -9.799;55335.762
555.460;46576.473;  -10.018;54155.703
556.044;47888.344;   -7.307;53721.484
556.628;44926.000;  -12.229;53731.016
557.212;41903.699;   -9.820;54312.531
557.796;41264.504;   -9.109;53797.773
558.380;43173.680;   -9.707;56145.984
558.964;42271.250;  -10.980;57277.930
559.548;42444.297;  -12.010;56459.641
560.132;45809.090;   -7.928;54434.543
560.716;47425.262;  -10.247;54800.617
561.300;47326.625;  -11.250;57606.945
561.884;49115.352;  -10.568;58972.445
562.467;47781.227;   -9.727;57327.570
563.051;46461.535;  -11.847;54962.434
563.635;45264.859;  -10.747;52594.473
564.219;42089.371;  -13.108;50610.410
564.802;39042.672;  -11.417;49551.180
565.386;40158.086;  -10.457;48370.953
565.969;41931.918;   -8.959;48178.871
566.553;41288.863;  -10.328;49957.305
567.136;39955.656;  -10.257;50369.594
567.720;39699.355;  -10.186;49492.004
568.303;39941.352;  -10.027;50616.352
568.887;40936.867;  -10.397;50727.148
569.470;39460.621;   -8.185;51698.379
570.053;38636.957;  -11.596;52122.078
570.637;38491.449;  -11.378;52536.438
571.220;38250.691;   -9.138;51186.098
571.803;37475.980;   -7.675;51032.762
572.386;36010.801;   -8.976;49609.887
572.969;33483.703;  -12.477;48285.926
573.552;34299.465;   -9.767;47624.285
574.135;34652.723;   -8.175;45498.641
574.718;31201.754;  -11.096;41970.434
575.301;28766.633;  -11.966;41447.137
575.884;26331.512;  -12.836;40923.836
576.467;29763.094;   -9.116;45267.723
577.050;31268.426;  -10.536;48175.543
577.633;33293.852;  -11.027;47729.328
578.216;35050.789;   -9.946;47579.793
578.799;35498.297;   -9.645;47820.996
579.381;36682.832;   -9.446;48115.551
579.964;38252.352;  -12.217;47333.766
580.547;39214.148;  -10.586;46668.969
581.129;39425.160;   -8.374;44466.141
581.712;37102.535;  -10.434;44164.922
582.294;34758.270;  -10.896;46477.855
582.877;34935.941;   -8.906;48244.254
583.459;35935.348;   -9.994;47437.895
584.042;36531.508;  -10.084;46943.219
584.624;36559.484;  -13.534;46792.227
585.206;34668.137;  -12.716;46557.250
585.789;35082.711;  -11.614;45793.773
586.371;33359.891;  -10.203;43836.391
586.953;30724.891;  -10.314;42972.492
587.536;31168.463;   -9.776;42487.211
588.118;32465.400;   -9.821;42086.414
588.700;33470.020;  -10.073;43389.930
589.282;31748.008;  -12.395;43646.039
589.864;30607.684;  -11.514;43438.109
590.446;29927.416;  -10.803;43151.926
591.028;27819.324;  -11.043;42781.867
591.610;26511.600;  -13.244;42839.098
592.192;26765.303;  -11.095;42820.402
592.774;27410.174;  -10.823;40724.277
593.356;28480.492;  -11.052;39874.789
593.937;30870.688;  -11.664;39980.648
594.519;34819.961;  -10.454;42069.633
595.101;37574.355;  -10.322;42976.031
595.683;36732.785;  -10.042;44084.441
596.264;33052.637;  -14.334;43478.797
596.846;34183.008;  -10.863;43803.672
597.427;33126.105;   -9.901;42986.934
598.009;31604.625;  -10.911;42832.219
598.591;32146.412;  -10.483;42580.086
599.172;33814.488;   -9.663;43061.805
599.753;34933.094;  -10.631;41691.469
600.335;35363.430;   -9.371;40692.520
600.916;33249.191;  -13.992;39982.422
601.498;32583.383;   -8.352;40318.617
602.079;33136.559;   -8.411;40670.609
602.660;32837.230;  -10.841;41450.898
603.241;32405.604;  -12.963;41137.738
603.823;32826.930;  -11.523;38868.797
604.404;32498.484;  -11.881;38182.785
604.985;33411.461;  -11.721;38078.047
605.566;33288.934;   -9.293;38056.633
606.147;31859.549;  -10.940;37020.418
606.728;33421.508;  -11.840;37883.359
607.309;34412.746;  -11.781;38748.273
607.890;34699.980;  -11.262;38850.230
608.471;33036.227;  -10.111;37457.918
609.051;32819.828;   -7.709;36066.457
609.632;30078.359;  -12.409;35991.074
610.213;30159.652;  -10.811;37402.641
610.794;31517.588;  -11.630;38383.363
611.374;35135.715;   -8.030;40562.387
611.955;35469.695;  -10.809;38533.727
612.536;34152.668;  -10.531;36951.789
613.116;33999.746;  -12.820;37197.891
613.697;35135.648;  -11.419;38411.125
614.277;36238.051;   -9.768;38673.938
614.858;33118.133;  -10.251;37075.863
615.438;29598.709;  -11.981;35092.906
616.019;27363.262;   -8.978;33666.301
616.599;29650.672;  -12.219;34189.023
617.179;31847.156;  -14.170;36952.047
617.760;32804.516;   -9.211;39582.574
618.340;32913.145;   -9.018;38943.977
618.920;33151.074;   -9.249;37594.156
619.500;33167.898;  -12.728;37866.938
620.080;33691.535;  -12.939;37869.043
620.660;34775.055;  -11.586;36868.617
621.241;34221.188;  -11.538;36352.309
621.821;32864.219;  -11.398;35459.520
622.401;31408.750;  -10.179;35207.414
622.980;31331.033;  -11.587;35980.422
623.560;32826.773;  -12.888;37351.328
624.140;31212.756;  -13.149;34388.582
624.720;27093.590;   -9.928;32368.764
625.300;26793.070;  -10.869;32638.629
625.880;29553.107;   -8.617;34599.035
626.459;30702.184;  -12.138;36831.738
627.039;33113.168;  -12.267;38299.098
627.619;36306.336;   -7.476;38289.574
628.198;37849.211;  -11.347;37220.695
628.778;35337.402;  -11.678;37632.563
629.357;32873.207;  -12.438;38003.012
629.937;32109.119;   -9.576;38402.039
630.516;31774.049;  -11.096;37868.801
631.096;32734.357;  -11.828;35760.410
631.675;34059.695;  -11.565;35225.219
632.254;34568.875;  -11.845;35130.289
632.834;36040.652;  -11.545;35794.570
633.413;35493.207;  -10.887;35788.922
633.992;35121.168;  -10.175;34532.863
634.571;35730.605;   -9.704;33590.113
635.151;34187.871;  -10.815;34943.863
635.730;32860.539;  -11.617;35352.523
636.309;32710.969;  -10.836;35366.605
636.888;33378.156;   -9.755;36165.637
637.467;33470.117;  -11.684;37515.902
638.046;33596.555;  -11.987;39288.695
638.625;33256.504;  -10.455;38279.699
639.204;33079.465;  -11.234;37741.598
639.782;33906.609;  -12.023;38364.551
640.361;32116.371;  -11.506;36740.621
640.940;28952.613;  -12.316;34950.082
641.519;26892.799;  -11.616;34137.398
642.097;29234.383;   -9.266;35654.258
642.676;33159.059;  -12.936;35637.957
643.255;33864.438;   -9.966;36567.074
643.833;34346.473;   -8.916;37809.434
644.412;32341.313;  -10.936;37337.293
644.990;31615.340;  -12.176;37018.531
645.569;32523.230;  -12.246;36518.469
646.147;35421.832;  -12.107;36186.430
646.726;38221.703;  -12.937;36267.688
647.304;35288.285;  -12.547;36647.625
647.882;34155.516;  -12.597;39286.742
648.461;33375.145;   -9.427;39157.703
649.039;33398.867;   -8.937;35412.883
649.617;34207.051;  -11.067;34744.918
650.195;32624.805;  -10.657;35403.098
650.773;29999.660;  -10.097;35053.797
651.352;29517.832;  -11.887;33756.816
651.930;28457.578;  -13.557;31868.773
652.508;28356.049;  -11.767;33121.551
653.086;31174.936;  -10.777;33564.793
653.663;33946.441;  -12.067;34054.668
654.241;36670.609;  -14.918;35693.309
654.819;36483.180;  -11.788;36422.906
655.397;34353.863;  -11.268;38213.484
655.975;32503.832;  -11.738;39507.625
656.553;30621.715;  -11.018;39498.223
657.130;29361.193;  -12.848;40395.480
657.708;28141.186;  -10.098;39242.020
658.286;29171.908;  -11.678;38920.020
658.863;31830.330;  -11.498;40202.898
659.441;34764.094;  -11.008;39677.938
660.018;36734.598;  -11.048;40413.355
660.596;37574.215;  -12.058;39931.414
661.173;37972.340;  -14.158;39604.531
661.750;37165.094;  -12.298;39700.070
662.328;36506.438;  -10.699;39292.809
662.905;35951.020;  -12.119;38235.648
663.482;32094.291;  -11.829;36212.305
664.060;28203.598;  -11.009;35944.945
664.637;31402.504;  -10.369;35170.785
665.214;34084.043;  -10.459;34197.523
665.791;33335.313;  -12.599;34549.520
666.368;30746.217;  -12.919;35118.578
666.945;28957.418;  -10.699;36019.418
667.522;30131.818;  -11.359;36048.438
668.099;30770.502;  -13.529;36243.914
668.676;29522.891;  -10.229;35958.875
669.253;29183.764;   -9.279;37384.730
669.830;28744.605;  -11.370;36779.629
670.407;28445.502;  -10.950;35231.289
670.984;29356.863;  -12.850;35544.270
671.560;28230.881;   -8.440;35466.867
672.137;29183.424;  -13.520;34280.863
672.714;30897.566;  -13.620;34632.863
673.290;31519.824;  -10.450;35135.422
673.867;30437.625;  -10.960;36114.480
674.443;31302.773;  -13.300;36152.859
675.020;29535.949;  -12.370;35327.238
675.596;28887.170;  -11.250;35795.176
676.173;29492.402;  -11.080;35430.355
676.749;29214.736;  -13.220;33549.516
677.326;30197.789;  -13.000;32210.012
677.902;30060.719;  -12.701;32068.871
678.478;28674.975;  -12.801;32583.891
679.054;29257.822;   -8.601;32088.928
679.631;30318.896;  -12.631;30978.848
680.207;31360.104;   -9.451;33160.887
680.783;30825.002;  -11.701;35570.363
681.359;31117.053;  -12.701;36125.184
681.935;32993.871;  -13.271;35240.922
682.511;35062.695;  -10.791;34429.961
683.087;33051.652;  -10.791;34463.680
683.663;29669.131;   -8.121;34648.898
684.239;27301.170;  -13.261;34546.457
684.815;27944.299;  -10.581;35586.375
685.390;29823.766;   -9.961;35821.895
685.966;29237.305;  -11.182;35085.871
686.542;28429.844;  -13.512;34198.230
687.118;26513.727;  -11.472;32847.707
687.693;25435.682;  -10.152;32794.027
688.269;25785.543;  -14.442;33072.367
688.844;24839.920;  -11.852;33141.664
689.420;23807.105;  -13.942;33965.742
689.995;25035.949;   -9.702;34655.523
690.571;26765.865;  -11.312;33576.742
691.146;26867.734;  -14.332;32657.219
691.722;26541.986;  -11.192;32526.979
692.297;27361.025;  -10.962;33014.617
692.872;28791.146;  -11.082;34012.254
693.448;29568.016;  -14.732;34237.434
694.023;28888.439;  -12.363;34142.672
694.598;27102.313;  -12.393;34132.031
695.173;27789.551;  -11.023;34205.250
695.748;29296.822;  -12.743;32882.488
696.323;28667.592;  -11.103;32864.906
696.898;28011.678;   -8.123;33170.004
697.473;27715.529;  -12.603;32432.984
698.048;27938.111;  -12.553;31649.303
698.623;29291.020;  -12.573;30778.141
699.198;29078.451;  -12.743;31140.119
699.773;28427.080;  -12.843;31764.299
700.348;28863.611;  -16.683;31780.816
700.922;29868.074;  -11.403;32046.375
701.497;31441.369;  -11.253;32603.574
702.072;30892.748;  -10.044;34799.871
702.646;30248.309;  -13.054;35793.172
703.221;30868.748;  -11.414;35201.590
703.795;30108.566;  -10.644;34764.527
704.370;28091.055;  -13.484;34307.367
704.944;27141.385;  -12.144;33509.887
705.519;26658.768;  -12.024;31388.584
706.093;28393.680;  -11.234;31340.104
706.668;29637.666;   -9.874;32630.281
707.242;28810.400;  -12.404;32728.779
707.816;27074.680;  -10.644;32947.238
708.390;26519.422;  -11.174;33277.855
708.965;26466.486;  -10.324;33834.336
709.539;27106.635;  -12.014;33709.273
710.113;27450.082;  -12.295;33044.313
710.687;29096.137;  -10.965;31953.992
711.261;31146.006;  -13.685;30505.949
711.835;29628.461;  -15.335;30262.369
712.409;28339.342;  -13.785;31254.447
712.983;28517.299;  -10.525;32754.986
713.557;26792.186;  -13.175;34018.824
714.131;26528.375;  -13.245;34579.625
714.704;29583.049;  -13.175;33890.262
715.278;31974.035;  -11.545;33531.102
715.852;30673.801;  -10.975;33601.660
716.425;29057.416;  -10.075;33515.117
716.999;29374.152;  -12.185;33185.555
717.573;31677.600;   -9.685;33905.996
718.146;32553.576;  -10.516;35199.293
718.720;31197.076;  -12.106;35060.551
719.293;29540.076;  -12.386;34973.230
719.867;29439.662;  -12.456;36394.449
720.440;29336.996;  -10.686;36663.008
721.013;29446.598;  -12.596;35102.426
721.587;30855.447;  -13.956;33985.266
722.160;32783.676;   -9.806;33524.965
722.733;33488.676;  -11.676;32987.043
723.306;33033.391;  -14.276;33066.301
723.880;30916.682;  -12.126;33399.500
724.453;28524.568;  -10.156;33468.297
725.026;28120.947;  -12.956;33816.637
725.599;28160.996;  -11.676;32797.996
726.172;28573.594;  -12.337;33187.434
726.745;28818.014;  -11.277;35136.613
727.318;28802.029;  -11.927;35751.730
727.891;28048.912;  -13.607;35890.430
728.463;25780.504;  -11.327;34822.090
729.036;25600.148;  -11.917;32895.086
729.609;27335.842;  -12.697;31823.225
730.182;28242.447;  -11.787;31445.283
730.754;27889.637;  -12.957;32373.223
731.327;27525.842;  -11.017;33676.820
731.900;27154.432;  -12.797;33417.000
732.472;26543.918;  -10.677;31978.498
733.045;26047.961;  -12.797;30368.777
733.617;26200.059;  -13.908;30574.215
734.190;25128.369;  -12.258;31280.975
734.762;25259.840;  -13.438;31674.412
735.334;26610.920;  -11.758;31247.291
735.907;29388.141;  -11.158;29876.211
736.479;32670.428;  -11.258;29808.488
737.051;33002.426;  -10.918;30233.547
737.623;31841.078;  -11.038;31469.086
738.195;33128.719;  -12.188;31784.225
738.768;30851.002;  -11.378;32120.523
739.340;25047.324;  -12.598;32094.342
739.912;23342.336;  -11.568;31312.680
740.484;25111.779;   -9.348;31946.238
741.056;27753.828;  -12.628;32984.059
741.628;29710.725;  -13.349;33897.715
742.199;28630.400;  -11.309;33213.016
742.771;28790.992;  -12.699;31369.113
743.343;29645.422;  -11.919;31865.473
743.915;29511.100;  -11.679;32388.631
744.487;28046.760;  -12.249;31079.568
745.058;25877.281;  -11.119;30570.107
745.630;24808.430;   -9.439;29970.127
746.201;24088.672;  -11.949;29186.766
746.773;24109.500;  -12.639;28805.723
747.344;25166.977;  -11.039;29591.223
747.916;27243.221;  -12.549;31412.201
748.487;26197.574;  -12.659;32194.898
749.059;24537.010;  -13.059;32533.719
749.630;23788.814;  -12.080;32158.518
750.201;22255.250;  -13.100;30855.395
750.773;21516.395;  -15.310;28622.555
751.344;21305.105;  -12.240;28405.732
751.915;21485.951;  -11.960;28461.551
752.486;20583.512;  -13.200;27842.850
753.057;19262.414;  -15.230;27845.008
753.628;20422.879;  -13.130;27728.107
754.199;22861.969;  -12.720;27381.086
754.770;22967.674;  -10.680;25882.203
755.341;21512.301;  -11.010;25886.184
755.912;20965.461;  -12.990;26050.861
756.483;20413.867;  -11.110;26798.779
757.054;20012.764;  -12.190;27048.238
757.625;19978.975;  -13.981;26294.838
758.195;20114.764;  -11.041;26142.076
758.766;21240.572;  -11.861;26392.234
759.337;21655.264;  -11.461;26334.594
759.907;20942.658;  -15.001;27579.652
760.478;19721.443;   -9.681;28352.770
761.048;18610.002;  -12.421;27325.088
761.619;19463.578;  -11.761;26460.428
762.189;20026.051;  -12.391;26029.826
762.760;19497.988;  -10.201;26430.145
763.330;20159.424;  -10.811;26670.902
763.900;20725.971;  -10.261;26603.021
764.471;19658.217;  -13.061;25542.740
765.041;18212.641;  -11.051;24358.459
765.611;18127.371;  -11.032;23991.297
766.181;18280.561;  -10.532;24470.236
766.751;18676.375;  -13.502;24845.975
767.321;19871.059;  -11.392;24533.633
767.891;21625.262;  -11.522;24916.492
768.461;22859.588;  -13.672;24776.771
769.031;20445.322;  -14.652;24757.988
769.601;17642.861;  -10.182;24181.088
770.171;16401.389;  -11.752;23670.387
770.741;15433.792;  -12.272;22960.045
771.311;15190.675;  -13.112;22917.523
771.880;16169.151;  -14.122;23562.941
772.450;16929.139;  -11.782;24216.500
773.020;17137.412;  -12.642;24140.398
773.589;16309.866;  -13.043;24414.857
774.159;15742.234;  -11.783;23858.717
774.729;16560.689;  -13.473;22942.135
775.298;17268.174;  -14.523;22324.033
775.867;16815.375;  -12.013;21140.313
776.437;16077.108;  -12.113;20838.092
777.006;15749.866;  -13.543;20599.510
777.576;16436.504;  -12.523;20508.809
778.145;16668.348;  -12.173;20732.947
778.714;15974.755;  -12.153;21062.465
779.283;15131.845;  -11.833;20949.664
779.853;15206.803;  -13.483;20508.623
780.422;15327.136;  -12.933;20649.082
780.991;14871.092;  -13.173;21527.520
781.560;14648.505;  -10.224;22632.658
782.129;15113.165;  -12.684;23048.277
782.698;15181.354;  -11.284;23438.555
783.267;15077.506;  -11.684;23267.734
783.836;14815.466;  -10.974;22415.133
784.404;14354.673;  -13.534;20443.152
784.973;13542.052;  -16.734;19699.150
785.542;12381.025;  -12.594;19763.828
786.111;11986.846;  -11.644;20341.408
786.679;13045.364;  -11.384;20207.967
787.248;13358.726;  -12.014;19516.465
787.817;12177.975;  -12.804;18900.363
788.385;10864.695;  -11.994;17879.121
788.954;11143.904;  -12.564;17658.301
789.522;12136.389;  -12.225;17788.879
790.090;12191.834;  -13.775;18118.277
790.659;12035.219;  -12.485;18338.736
791.227;12744.053;  -12.295;18508.615
791.795;13402.758;  -13.415;17898.254
792.364;13852.649;  -12.995;17295.133
792.932;13576.502;   -8.365;16822.051
793.500;12434.467;  -11.925;17040.148
794.068;12481.355;  -13.245;17179.787
794.636;13249.454;  -13.815;16664.246
795.204;13284.057;  -13.375;16524.545
795.772;13054.087;  -12.125;17274.564
796.340;12217.530;  -13.855;17891.002
796.908;10623.278;  -13.456;17648.561
797.476; 9761.826;  -13.116;17064.080
798.044; 9964.323;  -13.226;16672.777
798.612;10281.944;  -11.236;17023.996
799.180;10191.849;  -10.476;16561.615
799.747; 9804.733;  -11.746;15962.773
800.315; 9342.235;  -12.366;15296.992
800.883; 8705.803;  -14.616;14801.771
801.450; 8796.240;  -11.996;14534.430
802.018; 9636.913;  -11.206;14173.248
802.585;10071.960;  -12.466;14029.547
803.153; 9604.368;  -12.846;13836.846
803.720; 8996.892;  -12.136;13567.324
804.287; 9130.698;  -10.966;13360.622
804.855; 9261.296;   -9.797;13681.981
805.422; 8495.718;  -13.037;13536.560
805.989; 7803.651;  -12.697;13355.958
806.556; 7976.935;  -11.737;13747.896
807.124; 8684.764;  -11.997;13987.376
807.691; 8485.735;  -13.997;14038.674
808.258; 7878.353;  -10.927;14120.152
808.825; 8113.762;  -13.727;13860.111
809.392; 8168.412;  -11.847;13268.790
809.959; 8147.697;  -14.217;12680.389
810.526; 8114.406;   -8.277;12427.308
811.093; 8237.755;   -9.647;12030.105
811.659; 8259.995;  -10.987;11653.664
812.226; 7654.282;  -13.447;11637.183
812.793; 7198.869;  -14.418;11611.521
813.360; 7383.488;  -13.908;11885.181
813.926; 7883.044;  -12.918;12770.539
814.493; 8139.889;  -14.888;12677.638
815.060; 7761.656;  -12.758;11974.336
815.626; 7481.694;  -13.478;11594.715
816.193; 7462.203;  -13.898;11579.474
816.759; 7585.878;  -13.588;11666.972
817.325; 7573.907;  -12.018;11325.530
817.892; 7225.100;  -14.068;11105.369
818.458; 7279.826;  -13.458;10843.928
819.024; 7194.240;  -11.968;10714.406
819.591; 6977.154;  -11.028;10469.165
820.157; 7068.315;  -12.088;10235.523
820.723; 7204.713;  -12.599;10847.563
821.289; 6929.984;  -10.419;11040.980
821.855; 6746.814;  -10.939;10357.100
822.421; 6752.646;  -12.539; 9978.918
822.987; 6708.797;  -13.259; 9754.177
823.553; 6505.426;  -15.369;10065.755
824.119; 6371.326;  -10.779;10036.294
824.685; 6367.576;   -9.999;10029.192
825.251; 6200.907;  -11.819;10199.230
825.816; 6131.918;  -13.369; 9820.189
826.382; 6007.271;  -12.679; 9297.248
826.948; 5540.891;  -11.199; 9381.347
827.513; 5349.235;  -11.179; 9450.726
828.079; 5448.262;  -13.489; 9472.444
828.645; 5562.416;  -12.500; 9292.643
829.210; 5564.761;  -15.120; 9065.341
829.776; 5532.558;  -12.590; 9132.620
830.341; 5665.477;  -11.540; 9092.878
830.906; 6052.673;  -12.400; 9078.557
831.472; 6032.404;  -12.720; 8534.535
832.037; 5296.246;  -11.490; 8677.874
832.602; 4614.654;  -14.380; 8628.692
833.167; 4353.992;  -12.780; 8879.031
833.733; 4594.349;  -11.100; 9189.790
834.298; 4948.421;  -12.080; 9052.608
834.863; 4778.688;  -13.910; 8895.087
835.428; 4489.488;  -13.470; 8824.266
835.993; 4332.412;  -11.760; 8845.385
836.558; 4521.091;  -12.731; 8888.563
837.123; 4684.246;  -12.431; 8966.582
837.688; 4517.419;  -11.241; 8617.860
838.253; 4323.894;  -13.681; 8590.699
838.817; 4430.938;  -12.531; 8443.797
839.382; 4559.045;  -12.671; 8799.356
839.947; 4616.616;  -11.541; 8810.595
840.511; 4740.021;  -12.021; 8796.394
841.076; 4808.788;  -13.071; 8347.231
841.641; 5031.029;  -11.411; 8224.330
842.205; 5282.882;  -13.671; 8223.349
842.770; 5166.361;  -11.291; 8622.107
843.334; 4869.305;  -12.951; 8410.386
843.898; 4619.071;  -11.221; 8337.465
844.463; 4703.303;  -11.322; 8506.283
845.027; 4696.447;  -11.412; 8280.962
845.591; 4417.292;  -11.512; 8231.141
846.156; 4248.397;  -14.042; 7969.179
846.720; 4270.908;  -12.152; 7768.278
847.284; 4056.831;  -10.922; 7630.957
847.848; 3857.822;  -10.962; 7472.395
848.412; 3649.003;  -14.612; 7437.394
848.976; 3671.993;  -11.492; 7674.592
849.540; 3980.209;   -9.172; 7836.011
850.104; 4197.616;  -11.232; 7913.669
850.668; 4123.629;  -15.182; 7694.508
851.232; 3995.561;  -15.332; 7756.887
851.796; 3938.320;  -13.703; 7926.545
852.359; 3999.898;  -11.113; 7827.844
852.923; 4096.816;  -11.843; 7641.163
853.487; 4062.056;  -11.173; 7342.501
854.050; 3934.662;  -13.443; 7042.820
854.614; 3881.872;  -13.823; 7151.338
855.177; 3793.916;  -16.393; 7105.077
855.741; 3744.333;  -11.693; 6989.675
856.304; 3726.019;  -10.843; 6596.634
856.868; 3614.502;  -13.783; 6356.272
857.431; 3387.371;  -11.953; 6468.571
857.995; 3127.399;  -13.683; 6373.210
858.558; 3094.836;  -11.433; 6324.448
859.121; 3208.246;  -12.493; 6408.327
859.684; 3129.181;  -12.384; 6347.886
860.247; 2798.321;  -14.774; 6321.264
860.810; 2524.419;  -13.154; 6301.903
861.374; 2503.283;  -11.264; 6607.881
861.937; 2564.218;  -15.424; 6408.200
862.500; 2555.699;  -12.854; 6572.639
863.062; 2537.564;  -12.344; 6387.297
863.625; 2537.615;  -13.314; 6190.836
864.188; 2618.476;  -14.724; 5807.254
864.751; 2810.166;  -13.464; 5682.413
865.314; 3165.190;  -11.684; 5547.492
865.876; 3386.877;  -11.104; 5500.150
866.439; 3329.424;  -12.344; 5415.909
867.002; 3145.166;  -13.494; 5501.567
867.564; 2871.791;  -10.935; 5413.946
868.127; 2662.462;  -12.665; 5160.325
868.689; 2614.966;  -14.515; 5133.183
869.252; 2660.521;  -13.425; 5252.382
869.814; 2825.053;  -11.595; 5297.141
870.377; 2931.106;  -12.175; 5390.919
870.939; 2821.546;  -10.265; 5599.898
871.501; 2685.626;  -12.375; 5248.336
872.063; 2601.699;  -14.355; 4854.235
872.626; 2524.275;  -14.435; 4817.074
873.188; 2429.902;  -12.415; 4987.732
873.750; 2451.835;  -14.555; 4868.651
874.312; 2379.293;  -11.185; 4779.330
874.874; 2188.148;  -12.715; 4866.348
875.436; 2088.570;  -13.196; 4718.887
875.998; 2073.736;  -11.426; 4660.005
876.560; 1987.923;   -9.786; 4462.964
877.122; 1923.439;  -12.796; 4145.042
877.683; 1909.652;  -13.226; 4056.481
878.245; 1899.853;  -12.036; 3950.740
878.807; 1893.952;  -11.536; 4058.958
879.369; 1881.149;  -10.806; 3954.677
879.930; 1790.175;  -13.946; 3941.495
880.492; 1647.786;  -11.876; 4067.014
881.053; 1609.847;  -13.216; 3859.633
881.615; 1673.159;  -12.226; 3776.071
882.176; 1715.184;  -12.946; 3734.750
882.738; 1657.906;  -10.736; 3678.489
883.299; 1585.564;  -12.057; 3405.407
883.860; 1551.485;  -12.677; 3351.106
884.422; 1507.785;  -14.097; 3394.044
884.983; 1398.913;  -13.667; 3166.443
885.544; 1250.399;  -10.717; 3189.802
886.105; 1142.029;  -14.357; 3160.360
886.666; 1121.752;  -14.287; 3093.059
887.227; 1128.547;  -14.297; 2941.957
887.788; 1118.981;  -13.137; 2974.836
888.349; 1034.123;  -14.637; 2721.214
888.910;  953.841;  -12.247; 2696.493
889.471;  948.024;  -10.577; 2560.172
890.032;  942.791;  -12.937; 2558.190
890.593;  891.878;  -12.487; 2567.669
891.153;  820.136;  -11.898; 2460.307
891.714;  808.198;  -14.278; 2372.046
892.275;  813.254;  -13.308; 2309.505
892.835;  755.938;  -12.058; 2382.543
893.396;  677.635;  -15.268; 2295.502
893.956;  621.667;  -13.278; 2162.420
894.517;  586.044;  -11.968; 2125.439
895.077;  571.404;  -12.798; 2086.978
895.638;  551.620;  -11.908; 2126.316
896.198;  527.875;  -13.288; 1838.275
896.758;  504.351;  -12.198; 1892.813
897.319;  478.176;  -13.048; 1792.232
897.879;  438.453;  -13.718; 1762.751
898.439;  400.304;  -14.138; 1661.149
898.999;  387.037;  -13.659; 1781.468
899.559;  375.053;  -14.699; 1703.347
900.119;  351.804;  -14.339; 1537.525
900.679;  329.629;  -11.789; 1638.384
901.239;  305.163;  -13.629; 1527.902
901.799;  286.554;  -13.679; 1456.441
902.359;  273.690;  -13.679; 1357.140
902.919;  262.667;  -14.159; 1331.118
903.479;  253.801;  -13.419; 1317.257
904.038;  241.474;  -14.899; 1262.595
904.598;  228.500;  -14.339; 1152.034
905.158;  222.743;  -13.959; 1240.893
905.717;  220.005;  -12.749; 1233.691
906.277;  211.311;  -11.889; 1217.330
906.836;  204.170;  -12.870; 1222.408
907.396;  201.368;  -11.790; 1193.047
907.955;  199.350;  -13.750; 1182.526
908.515;  191.287;  -14.760; 1099.364
909.074;  184.610;  -12.540; 1092.863
909.633;  178.651;  -12.120; 1069.121
910.192;  176.902;  -12.550; 1196.460
910.752;  173.676;  -12.760; 1029.960
911.311;  171.089;  -14.750; 1009.780
911.870;  168.043;  -13.860;  971.460
912.429;  165.958;  -13.480; 1094.080
912.988;  160.759;  -12.370; 1081.060
913.547;  156.180;  -14.670;  940.380
914.106;  154.224;  -12.800;  999.420
914.665;  151.565;  -11.370;  984.020
915.224;  149.752;  -11.430; 1035.760
915.782;  149.154;  -12.260;  922.560
916.341;  151.190;  -12.540; 1049.840
916.900;  147.914;  -12.540;  925.260
917.458;  145.952;  -13.480;  884.220
918.017;  144.855;  -12.470;  942.600
918.576;  144.071;  -13.450;  904.440
919.134;  143.129;  -12.890;  837.980
919.693;  140.810;  -15.480;  893.060
920.251;  139.057;  -14.420;  876.500
920.809;  139.098;  -12.170;  839.580
921.368;  139.062;  -13.650;  885.360
921.926;  138.472;  -12.750;  842.940
922.484;  138.871;  -14.150;  903.360
923.042;  140.185;  -15.100;  880.340
923.601;  144.025;  -10.990;  998.680
924.159;  142.241;  -12.470;  935.560
924.717;  142.234;  -15.640;  841.080
925.275;  144.470;  -12.380;  903.240
925.833;  143.227;  -12.710;  779.320
926.391;  144.118;  -11.200;  938.380
926.949;  144.674;  -16.000;  857.680
927.506;  147.380;  -12.260;  903.500
928.064;  148.050;  -11.300;  877.580
928.622;  147.417;  -13.750;  880.100
929.180;  146.750;  -15.290;  814.180
929.737;  146.190;  -14.500;  808.540
930.295;  148.385;  -10.630;  928.480
930.853;  149.775;  -14.590;  849.100
931.410;  152.801;  -14.450;  821.120
931.968;  157.325;  -14.390;  940.660
932.525;  157.498;  -13.050;  909.380
933.082;  155.823;  -15.620;  811.440
933.640;  158.122;  -15.650;  925.900
934.197;  161.571;  -13.610;  886.360
934.754;  164.929;  -13.320;  897.780
935.312;  167.677;  -13.370;  863.340
935.869;  171.509;  -12.780; 1012.980
936.426;  170.696;  -14.480;  872.800
936.983;  172.793;  -13.180;  889.020
937.540;  172.215;  -15.710;  838.280
938.097;  174.130;  -14.980;  940.120
938.654;  176.904;  -13.060;  898.860
939.211;  178.258;  -12.760;  952.480
939.768;  177.193;  -16.230;  915.420
940.324;  178.184;  -10.940;  904.200
940.881;  177.737;  -12.570;  878.500
941.438;  176.740;  -13.650; 1021.200
941.995;  175.358;  -13.300;  992.560
942.551;  177.498;  -15.800;  875.620
943.108;  177.921;  -14.180;  937.920
943.664;  176.555;  -13.890;  869.340
944.221;  179.682;  -12.640; 1088.140
944.777;  176.357;  -14.700;  869.680
945.334;  175.328;  -13.010;  884.840
945.890;  178.625;  -13.480;  946.480
946.446;  177.073;  -14.920;  947.020
947.003;  175.272;  -13.860;  964.940
947.559;  177.287;  -12.000; 1063.040
948.115;  176.728;  -10.510; 1026.540
948.671;  175.029;  -12.760;  967.300
949.227;  171.432;  -15.390;  859.560
949.783;  168.854;  -15.570;  858.900
950.339;  168.374;  -12.800;  991.000
950.895;  165.411;  -13.780; 1023.840
951.451;  164.937;  -13.810;  925.280
952.007;  168.883;  -12.390;  998.540
952.563;  168.024;  -11.980;  937.780
953.118;  165.009;  -14.070;  904.940
953.674;  167.433;  -14.140;  935.780
954.230;  172.416;  -12.680;  949.640
954.785;  175.149;  -12.770;  936.640
955.341;  169.923;  -11.450;  998.160
955.897;  161.599;  -15.350;  834.660
956.452;  158.492;  -14.200;  953.840
957.008;  154.058;  -10.820; 1083.640
957.563;  150.631;  -13.200; 1009.540
958.118;  151.553;  -14.460;  877.700
958.674;  153.558;  -13.840;  946.780
959.229;  153.302;  -10.670; 1013.980
959.784;  152.384;  -17.040;  832.400
960.339;  155.899;  -12.970; 1001.280
960.894;  160.183;  -12.700;  963.760
961.449;  164.435;  -13.790;  859.960
962.004;  170.894;  -11.760; 1212.840
962.559;  168.601;  -14.840;  860.140
963.114;  165.209;  -14.530;  742.480
963.669;  162.801;  -12.780;  915.500
964.224;  157.255;  -14.330;  874.340
964.779;  151.233;  -14.380;  828.420
965.334;  147.474;  -12.460; 1017.860
965.888;  143.752;  -13.490;  875.360
966.443;  143.284;  -14.140;  972.380
966.998;  140.694;  -16.240;  819.460
967.552;  137.976;  -12.730;  908.380
968.107;  131.419;  -14.510;  868.300
968.661;  124.959;  -11.850;  922.440
969.216;  115.887;  -14.370;  856.280
969.770;  106.896;  -13.010;  917.200
970.324;  100.279;  -12.460;  923.140
970.879;   95.870;  -11.580;  947.180
971.433;   96.221;  -13.130;  952.720
971.987;  100.329;  -12.360;  895.340
972.541;  103.007;  -14.330;  917.100
973.095;  103.041;  -13.310; 1009.460
973.649;  101.877;  -15.830;  809.480
974.203;  102.773;  -15.830;  829.040
974.757;  106.134;  -13.480;  855.220
975.311;  107.268;  -13.720;  872.600
975.865;  109.851;  -15.780;  881.820
976.419;  110.326;  -14.290;  857.400
976.973;  108.426;  -13.210;  849.620
977.526;  106.239;  -12.300;  949.920
978.080;  102.047;  -14.840;  796.780
978.634;  102.411;  -13.100;  921.320
979.187;   98.668;  -12.300;  905.400
979.741;   98.388;  -12.020; 1018.380
980.294;   96.235;  -14.590;  789.160
980.848;   96.141;  -14.390;  717.220
981.401;   96.727;  -14.280;  816.540
981.955;   95.299;  -11.920;  844.300
982.508;   91.968;  -15.790;  746.340
983.061;   93.205;  -12.070;  915.260
983.615;   90.227;  -13.260;  798.800
984.168;   86.874;  -15.540;  770.080
984.721;   87.161;  -13.230;  880.760
985.274;   85.558;  -11.820;  867.500
985.827;   83.554;  -13.510;  834.220
986.380;   80.844;  -14.840;  721.340
986.933;   82.577;  -13.970;  864.800
987.486;   82.015;  -12.450;  861.920
988.039;   80.138;  -11.170;  863.100
988.591;   76.572;  -13.070;  893.260
989.144;   74.444;  -15.530;  737.260
989.697;   73.598;  -14.300;  758.740
990.250;   72.265;  -13.310;  858.100
990.802;   68.657;  -14.490;  755.860
991.355;   71.273;  -12.980;  974.880
991.907;   69.005;  -13.715;  864.320
992.460;   66.736;  -14.450;  753.760
993.012;   64.463;  -12.590;  749.540
993.565;   63.247;  -15.180;  711.360
994.117;   65.146;  -11.630;  950.780
994.669;   61.815;  -13.760;  701.320
995.221;   60.550;  -12.710;  791.920
995.774;   60.682;  -14.620;  787.580
996.326;   60.042;  -13.150;  740.220
996.878;   60.434;  -12.880;  838.420
997.430;   57.181;  -14.580;  699.860
997.982;   56.388;  -14.030;  750.140
998.534;   57.297;  -12.190;  739.060
999.086;   55.557;  -12.990;  738.220
999.638;   52.561;  -13.180;  661.380
1000.190;   52.936;  -14.970;  699.320
1000.741;   53.583;  -12.200;  742.700
1001.293;   54.283;  -13.400;  686.020
1001.845;   50.504;  -14.490;  676.640
1002.396;   50.863;  -15.280;  743.400
1002.948;   50.241;  -12.380;  737.400
1003.500;   48.307;  -13.260;  723.780
1004.051;   48.236;  -13.730;  907.580
1004.603;   47.533;  -12.300;  791.820
1005.154;   45.452;  -15.330;  608.980
1005.705;   44.938;  -12.800;  723.960
1006.257;   43.640;  -13.900;  707.220
1006.808;   42.682;  -14.430;  685.460
1007.359;   43.841;  -12.010;  763.240
1007.910;   42.022;  -12.690;  646.640
1008.461;   41.229;  -13.610;  732.940
1009.013;   39.248;  -14.990;  588.340
1009.564;   41.743;  -11.860;  793.520
1010.115;   39.070;  -12.640;  597.040
1010.665;   38.413;  -14.570;  602.160
1011.216;   39.028;  -15.190;  667.920
1011.767;   39.231;  -13.470;  697.920
1012.318;   40.201;  -13.760;  736.980
1012.869;   38.098;  -15.950;  679.000
1013.419;   36.980;  -15.880;  603.120
1013.970;   38.010;  -14.540;  666.640
1014.521;   37.212;  -13.220;  620.620
1015.071;   36.184;  -15.020;  670.380
1015.622;   35.641;  -17.510;  635.460
1016.172;   36.529;  -14.130;  596.820
1016.723;   36.180;  -14.220;  614.380
1017.273;   35.193;  -15.370;  604.160
1017.823;   34.454;  -15.290;  650.340
1018.374;   35.099;  -13.420;  611.760
1018.924;   35.440;  -11.740;  716.880
1019.474;   34.855;  -12.250;  718.880
1020.024;   34.570;  -15.850;  657.580
1020.574;   35.793;  -13.280;  726.160
1021.124;   35.719;  -13.560;  673.580
1021.674;   32.473;  -13.790;  559.120
1022.224;   33.881;  -14.610;  708.940
1022.774;   33.887;  -13.100;  668.820
1023.324;   34.673;  -11.470;  753.520
1023.874;   35.389;  -11.990;  875.760
1024.423;   32.520;  -14.550;  613.700
1024.973;   31.852;  -14.440;  610.760
1025.523;   32.207;  -13.250;  620.960
1026.072;   30.577;  -15.200;  606.420
1026.622;   30.774;  -14.590;  675.740
1027.172;   32.796;  -11.080;  715.660
1027.721;   31.219;  -14.010;  601.220
1028.270;   31.077;  -13.690;  663.400
1028.820;   31.042;  -15.380;  638.080
1029.369;   31.220;  -14.980;  612.700
1029.918;   31.127;  -13.100;  649.840
1030.468;   29.449;  -13.680;  564.780
1031.017;   30.097;  -13.770;  634.800
1031.566;   28.981;  -14.100;  608.900
1032.115;   30.541;  -11.770;  694.500
1032.664;   27.897;  -14.940;  596.480
1033.213;   29.458;  -13.370;  735.420
1033.762;   28.699;  -13.660;  635.620
1034.311;   29.116;  -13.650;  677.220
1034.860;   28.598;  -13.820;  691.000
1035.408;   28.800;  -12.860;  722.720
1035.957;   29.476;  -13.060;  719.540
1036.506;   26.925;  -14.510;  530.800
1037.055;   30.033;  -13.470;  844.320
1037.603;   26.972;  -14.800;  664.000
1038.152;   26.513;  -14.190;  534.760
1038.700;   27.744;  -11.810;  585.740
1039.249;   26.129;  -12.850;  681.220
1039.797;   26.830;  -14.610;  633.360
1040.345;   27.455;  -15.220;  705.420
1040.894;   27.184;  -13.480;  625.300
1041.442;   26.105;  -13.310;  632.200
1041.990;   24.818;  -14.510;  559.160
1042.538;   24.917;  -15.700;  536.180
1043.087;   25.227;  -13.910;  570.860
1043.635;   25.742;  -13.620;  670.500
1044.183;   24.934;  -14.230;  586.400
1044.731;   25.408;  -13.730;  576.000
1045.279;   24.925;  -13.970;  674.920
1045.827;   26.924;  -10.750;  892.400
1046.374;   22.975;  -15.230;  515.420
1046.922;   23.826;  -15.390;  590.580
1047.470;   25.449;  -12.320;  691.300
1048.018;   23.980;  -13.230;  647.960
1048.565;   24.559;  -13.390;  708.600
1049.113;   23.367;  -15.030;  557.000
1049.660;   24.534;  -12.540;  629.660
1050.208;   22.914;  -15.040;  675.640
1050.755;   22.735;  -14.680;  606.580
1051.303;   24.449;  -13.610;  686.820
1051.850;   23.057;  -14.340;  635.120
1052.397;   20.383;  -16.330;  473.960
1052.945;   21.103;  -15.710;  617.760
1053.492;   23.535;  -12.320;  741.840
1054.039;   23.693;  -13.730;  720.180
1054.586;   20.941;  -16.140;  557.240
1055.133;   21.704;  -14.020;  693.140
1055.680;   22.988;  -13.430;  646.620
1056.227;   20.997;  -14.570;  542.780
1056.774;   22.755;  -14.400;  794.980
1057.321;   20.585;  -14.230;  523.260
1057.868;   21.690;  -14.220;  651.320
1058.415;   21.485;  -14.060;  651.980
1058.961;   20.939;  -14.640;  678.940
1059.508;   20.241;  -13.970;  643.820
1060.055;   20.163;  -15.100;  581.780
1060.601;   21.651;  -12.180;  624.300
1061.148;   19.862;  -15.010;  616.820
1061.694;   19.020;  -14.750;  592.580
1062.241;   19.707;  -14.130;  596.320
1062.787;   21.198;  -14.770;  663.140
1063.334;   21.559;  -13.130;  808.560
1063.880;   19.199;  -14.420;  668.360
1064.426;   20.696;  -13.130;  706.820
1064.972;   19.438;  -13.960;  601.340
1065.518;   16.976;  -13.680;  566.640
1066.065;   18.498;  -15.720;  624.460
1066.611;   18.278;  -13.970;  598.800
1067.157;   19.757;  -13.920;  641.860
1067.703;   18.543;  -14.760;  668.480
1068.249;   17.916;  -14.490;  605.220
1068.794;   19.087;  -14.740;  626.880
1069.340;   17.775;  -13.220;  578.960
1069.886;   18.275;  -14.930;  590.700
1070.432;   16.458;  -14.700;  541.720
1070.977;   17.094;  -14.470;  601.080
1071.523;   17.769;  -14.330;  573.060
1072.068;   16.780;  -14.960;  582.000
1072.614;   16.078;  -16.220;  527.760
1073.160;   18.265;  -11.280;  687.040
1073.705;   16.393;  -15.990;  572.520
1074.250;   15.944;  -16.550;  559.900
1074.796;   17.184;  -14.600;  655.160
1075.341;   18.457;  -13.440;  664.100
1075.886;   17.884;  -14.450;  594.240
1076.431;   16.100;  -13.160;  649.880
1076.976;   15.403;  -14.710;  639.220
1077.521;   16.177;  -14.000;  583.080
1078.067;   16.100;  -14.470;  579.400
1078.612;   15.708;  -14.530;  661.620
1079.156;   14.251;  -15.660;  601.540
1079.701;   15.755;  -16.120;  693.260
1080.246;   17.434;  -12.960;  696.300
1080.791;   15.018;  -13.700;  625.020
1081.336;   15.042;  -15.540;  659.320
1081.880;   16.219;  -14.640;  649.680
1082.425;   14.951;  -14.220;  573.480
1082.970;   16.045;  -11.890;  717.040
1083.514;   14.598;  -13.820;  597.000
1084.059;   14.468;  -14.280;  586.720
1084.603;   14.398;  -12.890;  565.840
1085.147;   13.910;  -13.590;  645.220
1085.692;   15.085;  -14.050;  716.800
1086.236;   12.974;  -14.990;  503.140
1086.780;   15.749;  -12.640;  751.440
1087.325;   14.250;  -15.550;  654.620
1087.869;   13.942;  -14.980;  610.700
1088.413;   14.978;  -13.440;  705.040
1088.957;   12.892;  -12.170;  543.400
1089.501;   14.275;  -12.730;  766.640
1090.045;   13.846;  -14.650;  726.480
1090.589;   12.465;  -14.500;  569.920
1091.133;   14.036;  -12.320;  673.340
1091.676;   12.697;  -16.130;  591.940
1092.220;   11.962;  -13.930;  600.920
1092.764;   13.819;  -12.820;  706.960
1093.307;   13.481;  -11.700;  673.780
1093.851;   11.489;  -15.600;  556.540
1094.395;   12.155;  -13.920;  683.140
1094.938;   12.073;  -16.090;  632.520
1095.482;   12.513;  -13.820;  559.800
1096.025;   12.797;  -12.720;  710.880
1096.568;   13.313;  -12.100;  779.280
1097.112;   10.404;  -15.450;  508.180
1097.655;   12.613;  -14.310;  603.000
1098.198;   10.348;  -14.740;  600.180
1098.741;    9.965;  -15.550;  612.860
1099.285;   12.065;  -12.600;  657.300
1099.828;   10.106;  -15.050;  439.400
1100.371;   10.559;  -14.800;  608.160
1100.914;   10.326;  -16.480;  682.660
1101.457;   11.717;  -12.990;  679.900
1101.999;   10.446;  -14.110;  584.680
1102.542;   10.589;  -11.450;  641.440
1103.085;    9.833;  -13.350;  658.500
1103.628;   11.605;  -13.200;  762.060
1104.170;   10.771;  -12.310;  588.280
1104.713;   10.111;  -14.320;  646.700
1105.256;    8.640;  -16.110;  557.440
1105.798;    8.299;  -15.910;  499.980
1106.341;   11.810;  -12.200;  728.900
1106.883;    8.464;  -14.910;  521.340
1107.425;    9.714;  -14.960;  668.180
1107.968;    9.846;  -13.440;  612.380
1108.510;   10.800;  -14.010;  684.960
1109.052;    8.231;  -15.430;  612.620
1109.594;    7.974;  -15.290;  554.440
1110.136;    9.443;  -13.360;  643.220
1110.679;    8.687;  -13.820;  633.080
1111.221;    8.634;  -13.690;  604.460
1111.763;    7.814;  -14.890;  559.220
1112.304;    8.216;  -14.550;  547.140
1112.846;    9.107;  -12.760;  666.240
1113.388;   11.499;  -10.780;  942.180
1113.930;    8.171;  -12.690;  694.200
1114.472;    8.105;  -15.730;  606.540
1115.013;    7.208;  -14.620;  551.280
1115.555;    6.183;  -14.950;  587.100
1116.097;    6.904;  -16.460;  579.480
1116.638;    8.402;  -13.730;  684.600
1117.180;    9.295;  -13.810;  667.740
1117.721;    6.736;  -13.280;  568.580
1118.262;    7.057;  -15.080;  677.960
1118.804;    8.436;  -14.040;  637.340
1119.345;    7.355;  -15.430;  578.400
1119.886;    7.794;  -15.240;  704.040
1120.427;    5.894;  -15.820;  589.020
1120.969;    6.437;  -14.550;  597.920
1121.510;    6.256;  -14.030;  563.060
1122.051;    7.063;  -11.990;  723.580
1122.592;    6.332;  -16.490;  655.420
1123.133;    5.586;  -15.580;  547.940
1123.673;    7.917;  -12.850;  706.480
1124.214;    5.663;  -13.630;  612.460
1124.755;    5.909;  -14.830;  639.460
1125.296;    6.497;  -13.110;  627.320
1125.836;    8.117;  -11.320;  691.500
1126.377;    5.134;  -14.330;  599.660
1126.918;    6.497;  -12.800;  614.980
1127.458;    5.540;  -13.580;  622.220
1127.999;    7.371;  -10.330;  656.980
1128.539;    5.952;  -13.390;  694.240
1129.079;    5.130;  -16.420;  632.720
1129.620;    4.686;  -15.700;  558.100
1130.160;    5.461;  -14.790;  539.480
1130.700;    4.627;  -12.910;  640.840
1131.240;    5.363;  -15.610;  643.700
1131.781;    4.829;  -12.920;  619.680
1132.321;    5.306;  -15.300;  599.120
1132.861;    3.716;  -14.760;  564.200
1133.401;    3.614;  -15.470;  593.940
1133.941;    5.611;  -13.710;  626.280
1134.481;    4.871;  -11.820;  597.580
1135.020;    3.826;  -14.810;  609.160
1135.560;    3.860;  -13.660;  674.940
1136.100;    2.681;  -13.940;  501.160
1136.640;    3.289;  -15.410;  510.480
1137.179;    2.578;  -16.920;  537.960
1137.719;    3.298;  -16.430;  605.400
1138.258;    4.513;  -16.300;  587.360
1138.798;    5.062;  -13.710;  663.780
1139.337;    2.475;  -13.840;  482.840
1139.877;    3.875;  -16.140;  642.360
1140.416;    6.783;  -11.410;  878.060
1140.955;    3.066;  -12.820;  535.380
1141.494;    2.923;  -12.310;  669.280
1142.034;    2.349;  -16.280;  583.520
1142.573;    4.083;  -13.090;  646.280
1143.112;    2.941;  -13.770;  553.480
1143.651;    2.714;  -15.830;  536.480
1144.190;    2.865;  -15.010;  691.640
1144.729;    2.873;  -13.650;  607.420
1145.267;    2.977;  -13.670;  584.900
1145.806;    3.015;  -13.630;  637.040
1146.345;    2.213;  -14.160;  635.020
1146.884;    2.024;  -11.180;  622.500
1147.422;    3.233;  -15.890;  533.060
1147.961;    3.086;  -12.760;  708.460
1148.500;    1.881;  -15.220;  669.720
1149.038;    2.542;  -13.720;  632.500
1149.577;    3.419;  -13.250;  698.640
1150.115;    0.422;  -16.790;  452.280
1150.653;    1.970;  -15.810;  607.340
1151.192;    2.131;  -14.730;  552.920
1151.730;    2.882;  -13.660;  652.560
1152.268;    1.107;  -15.120;  589.520
1152.806;    1.315;  -15.580;  571.180
1153.344;    1.102;  -16.210;  577.640
1153.882;    2.704;  -12.810;  600.060
1154.421;    0.139;  -14.150;  470.620
1154.958;    0.278;  -15.360;  595.240
1155.496;    1.953;  -14.710;  645.280
1156.034;    2.296;  -13.640;  721.880
1156.572;    2.168;  -13.740;  667.060
1157.110;   -0.719;  -16.960;  473.940
1157.647;    1.974;  -11.940;  676.960
1158.185;    0.856;  -14.090;  564.320
1158.723;   -0.681;  -13.610;  509.200
1159.260;    0.844;  -14.760;  701.700
1159.798;    1.565;  -13.700;  658.160
1160.335;    1.397;  -13.820;  631.820

