
Integration time [ms]:   3.276
Averaging Nr. [scans]: 1000
Smoothing Nr. [pixels]: 0
Data measured with spectrometer [name]: 7414430SP
Wave   ;Sample   ;Dark     ;Reference
[nm]   ;[counts] ;[counts] ;[counts] 

288.544;  150.978;    7.793;  793.890
289.143;  155.282;    7.462;  681.602
289.742;  155.001;    8.602;  828.814
290.341;  140.067;    1.321;  789.841
290.940;  129.996;   -0.709;  730.702
291.538;  130.979;    0.881;  881.108
292.137;  131.367;    0.122;  792.581
292.736;  135.251;   -1.929;  975.101
293.335;  132.137;   -8.229;  735.086
293.934;  132.141;   -5.279;  781.677
294.532;  130.586;   -1.369; 1031.958
295.131;  116.150;   -7.641;  834.394
295.730;  117.299;   -8.420;  809.588
296.328;  115.585;   -5.611;  783.442
296.927;  116.589;   -5.781;  779.652
297.525;  117.450;   -6.361;  781.236
298.124;  107.839;  -11.382;  654.009
298.722;  111.705;   -7.641;  761.933
299.321;  109.142;   -6.811;  708.597
299.919;  106.622;   -6.991;  751.918
300.518;  103.482;  -10.362;  689.338
301.116;  106.174;   -9.581;  691.381
301.715;  105.503;   -4.891;  730.222
302.313;  104.674;   -8.801;  704.943
302.911;  100.104;   -8.522;  733.830
303.509;  105.839;   -6.171;  925.627
304.108;  102.787;   -7.311;  760.383
304.706;  102.777;   -8.321;  801.664
305.304;   96.907;  -10.222;  796.707
305.902;  102.186;   -6.021;  784.484
306.500;   97.681;   -4.971;  728.200
307.098;   96.026;   -7.061;  746.560
307.696;   94.356;   -8.801;  780.432
308.294;   95.231;   -6.411;  731.359
308.892;   96.674;   -2.901;  759.769
309.490;   93.198;   -5.041;  712.161
310.088;   91.521;   -5.002;  788.444
310.686;   95.765;   -2.041;  821.749
311.284;   91.154;   -2.351;  766.040
311.882;   88.970;   -4.422;  731.225
312.480;   86.186;   -4.192;  697.167
313.078;   86.466;   -1.172;  808.331
313.675;   88.424;   -2.601;  691.600
314.273;   83.146;   -1.312;  797.837
314.871;   82.521;   -3.942;  589.829
315.468;   80.813;   -2.802;  652.090
316.066;   83.075;   -0.701;  694.427
316.664;   76.560;   -4.362;  656.351
317.261;   80.408;   -2.872;  910.128
317.859;   75.444;   -2.022;  768.735
318.456;   76.061;   -0.531;  830.096
319.054;   72.728;   -3.912;  787.828
319.651;   71.250;   -4.752;  759.928
320.249;   70.101;   -2.602;  810.188
320.846;   67.917;   -0.821;  714.286
321.443;   65.594;   -4.642;  832.135
322.041;   62.138;   -5.002;  812.315
322.638;   59.915;   -3.982;  701.456
323.235;   61.328;   -3.411;  665.683
323.833;   58.150;   -7.361;  740.354
324.430;   53.476;   -8.611;  615.900
325.027;   54.921;   -4.061;  876.855
325.624;   54.278;   -4.031;  644.532
326.221;   51.479;   -7.481;  689.717
326.818;   51.249;   -5.281;  818.332
327.415;   54.800;   -7.460;  748.828
328.012;   53.115;   -5.510;  690.585
328.609;   52.232;   -7.880;  731.389
329.206;   50.752;   -8.331;  778.621
329.803;   49.981;   -5.121;  737.841
330.400;   52.952;   -4.510;  704.260
330.997;   54.978;   -6.441;  817.147
331.594;   53.056;   -8.831;  788.185
332.191;   58.409;   -7.621;  728.722
332.787;   60.902;   -4.591;  844.463
333.384;   59.304;   -7.412;  763.093
333.981;   58.851;   -8.293;  815.687
334.578;   60.993;   -7.052;  708.378
335.174;   64.187;   -3.102;  731.469
335.771;   63.426;   -5.943;  836.456
336.367;   60.786;   -7.393;  710.631
336.964;   64.766;   -4.063;  793.266
337.561;   62.711;   -3.813;  731.112
338.157;   57.784;   -4.654;  911.916
338.754;   56.399;   -7.934;  796.589
339.350;   53.632;   -4.414;  722.493
339.946;   56.096;   -4.664;  773.135
340.543;   47.506;   -6.375;  846.136
341.139;   42.455;   -9.815;  720.836
341.735;   40.029;   -4.526;  772.593
342.332;   39.210;   -4.895;  691.472
342.928;   39.450;   -4.295;  795.394
343.524;   33.441;   -5.476;  761.684
344.120;   29.700;   -5.856;  738.562
344.716;   32.930;   -2.155;  723.717
345.313;   30.081;   -6.275;  795.342
345.909;   25.872;   -8.815;  627.336
346.505;   27.427;   -5.305;  740.247
347.101;   27.522;   -2.674;  827.864
347.697;   27.786;   -4.344;  785.398
348.293;   22.146;   -9.975;  627.244
348.889;   23.380;   -5.774;  745.914
349.485;   22.247;   -5.004;  688.205
350.081;   23.179;   -4.704;  772.592
350.676;   17.750;   -6.635;  691.606
351.272;   22.562;   -4.504;  809.530
351.868;   22.504;   -3.914;  780.497
352.464;   18.972;   -9.044;  723.932
353.059;   15.330;   -8.314;  646.017
353.655;   18.937;   -7.024;  777.063
354.251;   20.285;   -5.343;  759.845
354.846;   14.415;   -8.604;  740.646
355.442;   12.000;   -6.945;  753.071
356.038;   14.122;   -7.564;  751.708
356.633;   14.327;   -5.814;  728.594
357.229;   12.160;   -7.364;  724.757
357.824;   11.369;   -8.024;  703.600
358.420;   10.300;   -9.384;  679.726
359.015;   10.539;   -5.104;  695.357
359.610;   11.419;   -6.854;  763.920
360.206;    5.946;  -10.185;  603.240
360.801;    8.284;   -7.054;  646.503
361.396;   10.778;   -5.034;  725.975
361.992;    5.886;   -8.284;  668.220
362.587;    3.343;   -8.625;  670.160
363.182;    5.315;   -7.674;  689.631
363.777;    6.227;   -5.164;  738.242
364.372;    5.768;   -8.604;  737.314
364.967;    2.065;   -9.055;  680.744
365.563;    6.182;   -6.114;  815.567
366.158;    3.240;   -5.814;  685.161
366.753;    3.351;   -7.854;  649.263
367.348;    1.638;   -7.804;  746.056
367.942;    2.262;   -7.954;  697.298
368.537;    0.748;   -4.984;  754.245
369.132;    1.330;   -8.564;  703.428
369.727;   -1.905;   -8.855;  638.079
370.322;   -1.434;   -6.245;  580.186
370.917;   -1.669;   -6.425;  710.646
371.511;    1.095;   -6.294;  861.834
372.106;   -2.278;   -7.685;  776.964
372.701;   -5.646;   -7.335;  585.988
373.296;   -0.361;   -4.564;  863.135
373.890;   -5.315;  -10.235;  647.840
374.485;   -7.120;   -7.885;  691.199
375.079;   -2.754;   -7.324;  738.685
375.674;   -1.497;   -3.494;  812.970
376.268;   -6.457;   -8.525;  691.759
376.863;  -12.008;  -10.086;  580.327
377.457;   -5.737;   -7.025;  662.490
378.052;   -8.543;   -3.585;  764.884
378.646;   -8.683;   -7.595;  741.167
379.240;   -9.185;   -8.335;  721.176
379.835;   -8.072;   -5.785;  636.978
380.429;   -9.453;   -4.335;  562.557
381.023;   -9.721;   -6.805;  779.205
381.617;  -12.283;   -9.195;  680.106
382.212;   -8.617;   -6.905;  685.303
382.806;   -8.439;   -3.745;  760.690
383.400;  -12.715;   -7.745;  672.281
383.994;  -12.829;   -9.765;  664.870
384.588;   -9.100;   -6.564;  697.701
385.182;   -7.846;   -5.344;  726.624
385.776;   -9.795;   -8.514;  706.875
386.370;  -13.506;   -9.555;  681.968
386.964;  -11.822;   -8.715;  684.155
387.558;   -9.613;   -6.174;  598.360
388.152;  -13.562;   -8.725;  681.959
388.745;  -11.975;   -7.965;  814.707
389.339;   -9.202;   -5.924;  747.642
389.933;   -8.917;   -5.524;  695.370
390.527;   -9.684;   -7.114;  859.029
391.120;  -16.113;  -10.725;  595.318
391.714;  -12.861;   -8.035;  711.633
392.308;  -10.293;   -3.574;  780.253
392.901;  -14.189;   -7.245;  642.460
393.495;  -15.804;   -9.285;  595.414
394.089;  -13.860;   -5.895;  760.452
394.682;  -14.515;   -4.295;  697.188
395.275;  -15.021;   -9.875;  719.927
395.869;  -16.107;   -8.485;  667.314
396.462;  -14.549;   -7.455;  616.609
397.056;  -10.316;   -5.424;  776.621
397.649;  -14.918;   -6.605;  731.575
398.242;  -12.112;   -8.224;  712.645
398.836;  -11.837;   -7.474;  766.408
399.429;  -13.243;   -7.094;  631.041
400.022;  -16.183;   -9.475;  665.902
400.615;  -13.621;   -7.145;  805.609
401.208;  -12.008;   -7.174;  691.451
401.802;  -14.704;   -5.515;  699.329
402.395;  -15.801;   -9.875;  683.502
402.988;  -16.883;   -8.845;  696.627
403.581;  -12.993;   -8.874;  646.878
404.174;  -10.726;   -5.324;  686.568
404.767;  -14.289;   -9.575;  638.583
405.360;  -15.749;  -10.965;  621.445
405.953;  -10.997;   -8.764;  759.034
406.545;  -11.391;   -7.514;  725.342
407.138;  -14.643;  -10.025;  618.350
407.731;  -14.475;  -10.034;  613.303
408.324;   -9.881;   -9.374;  660.554
408.917;  -10.649;   -6.534;  681.864
409.509;  -11.957;   -8.004;  740.396
410.102;  -14.119;   -9.875;  643.948
410.695;   -9.148;   -8.604;  665.758
411.287;   -9.193;   -6.794;  599.821
411.880;  -11.060;   -9.334;  585.421
412.472;  -13.717;  -10.254;  613.092
413.065;  -10.845;   -6.714;  629.408
413.657;   -8.463;   -7.234;  576.678
414.250;   -8.810;  -10.544;  646.681
414.842;  -10.558;   -9.744;  676.353
415.434;   -8.326;   -6.994;  570.463
416.027;   -4.854;   -5.893;  652.196
416.619;   -5.657;   -7.264;  713.400
417.211;   -6.764;  -10.374;  599.352
417.804;   -3.244;   -7.993;  628.499
418.396;   -6.747;   -7.234;  607.643
418.988;   -4.822;   -9.443;  659.238
419.580;   -8.321;  -10.724;  568.276
420.172;   -6.643;  -10.323;  536.196
420.764;   -1.465;   -8.793;  672.482
421.356;   -3.155;  -11.143;  636.898
421.948;   -3.478;   -8.293;  677.661
422.540;    0.676;   -7.893;  680.027
423.132;    0.040;   -7.082;  600.641
423.724;   -2.857;   -8.653;  561.267
424.316;   -0.729;  -10.213;  621.345
424.908;    2.620;   -9.762;  591.517
425.500;    3.069;   -5.572;  647.978
426.092;    3.951;   -8.422;  648.268
426.683;    2.847;   -9.283;  684.836
427.275;    4.994;   -7.852;  641.471
427.867;    7.400;   -5.272;  668.948
428.458;    7.285;   -7.682;  732.344
429.050;    6.137;  -10.612;  680.749
429.642;    8.710;   -9.882;  743.124
430.233;    8.987;   -6.962;  569.356
430.825;    9.995;   -6.842;  724.809
431.416;    7.307;   -9.672;  698.241
432.008;   10.856;   -6.552;  651.723
432.599;   11.364;   -6.891;  656.073
433.190;    7.952;  -10.912;  637.670
433.782;    7.396;  -11.172;  590.395
434.373;   14.873;   -6.061;  884.765
434.964;   14.205;   -8.251;  602.920
435.556;   11.314;   -9.722;  634.537
436.147;   14.306;   -9.082;  758.490
436.738;   14.232;   -8.041;  701.099
437.329;   20.258;   -7.341;  721.723
437.920;   12.664;   -8.162;  666.688
438.511;   12.424;  -11.802;  564.526
439.103;   19.706;  -10.191;  623.998
439.694;   20.614;   -7.601;  681.583
440.285;   21.322;   -8.541;  764.432
440.876;   20.030;   -9.751;  845.738
441.466;   19.066;   -9.401;  575.162
442.057;   24.629;   -7.760;  665.814
442.648;   22.658;   -9.971;  746.255
443.239;   21.782;  -11.001;  620.477
443.830;   27.313;   -7.990;  704.958
444.421;   27.643;   -7.910;  655.474
445.011;   24.667;   -8.131;  693.619
445.602;   24.603;   -7.111;  743.126
446.193;   26.111;  -10.920;  488.117
446.783;   31.226;   -6.500;  640.397
447.374;   26.026;   -8.671;  692.759
447.964;   26.707;  -10.781;  713.770
448.555;   34.935;   -9.650;  822.742
449.145;   31.788;   -8.660;  662.853
449.736;   32.323;   -8.990;  803.179
450.326;   32.755;   -9.500;  713.626
450.917;   37.188;   -8.680;  675.324
451.507;   36.685;   -7.520;  600.661
452.097;   37.676;   -8.590;  746.267
452.688;   38.063;  -11.340;  742.160
453.278;   38.538;  -10.100;  566.840
453.868;   41.805;   -6.019;  793.550
454.458;   40.296;   -9.440;  651.141
455.048;   40.317;  -10.560;  711.783
455.639;   42.612;  -11.799;  567.096
456.229;   45.905;   -6.899;  710.694
456.819;   47.993;   -7.389;  751.158
457.409;   48.031;  -11.119;  773.993
457.999;   50.196;   -9.289;  737.505
458.589;   51.269;   -6.139;  686.606
459.179;   49.721;   -8.729;  717.658
459.769;   48.847;   -9.789;  627.099
460.358;   53.002;  -10.259;  797.262
460.948;   53.268;   -7.299;  689.503
461.538;   54.413;  -10.289;  660.677
462.128;   52.652;  -11.269;  664.934
462.717;   58.770;   -9.368;  710.326
463.307;   62.631;   -7.908;  705.846
463.897;   58.193;   -9.599;  656.942
464.486;   57.368;   -9.769;  837.128
465.076;   62.085;   -8.048;  733.776
465.666;   65.996;   -9.358;  652.900
466.255;   63.525;   -7.919;  785.651
466.845;   62.099;  -11.689;  666.749
467.434;   65.217;   -7.818;  725.873
468.023;   66.208;   -7.678;  658.357
468.613;   65.054;  -10.939;  713.946
469.202;   68.733;  -10.118;  646.507
469.791;   72.198;   -9.108;  737.811
470.381;   74.412;   -6.058;  742.813
470.970;   73.650;  -10.428;  711.099
471.559;   74.297;  -10.268;  733.291
472.148;   77.094;   -8.448;  675.737
472.738;   78.874;   -6.917;  765.466
473.327;   78.363;  -11.978;  637.529
473.916;   77.784;  -11.888;  737.446
474.505;   82.640;   -9.437;  751.703
475.094;   85.532;   -6.747;  806.570
475.683;   84.790;   -9.367;  797.699
476.272;   86.022;  -12.637;  730.632
476.861;   88.716;  -10.027;  706.754
477.449;   95.491;   -8.716;  728.487
478.038;   89.291;   -9.577;  692.513
478.627;   90.959;   -9.718;  714.852
479.216;   97.152;   -8.947;  769.441
479.805;   99.934;   -6.256;  783.375
480.393;   99.231;   -7.937; 1008.945
480.982;   98.751;   -7.717;  874.501
481.571;  105.476;   -9.266;  858.333
482.159;  105.603;   -7.636;  705.386
482.748;  105.052;   -9.667;  821.385
483.336;  109.736;  -10.376;  858.209
483.925;  110.479;   -7.147;  774.373
484.513;  117.168;   -7.996;  758.962
485.102;  113.905;  -10.027;  810.965
485.690;  122.299;  -10.446; 1011.050
486.278;  125.139;   -8.446;  979.329
486.867;  124.881;   -6.356;  809.662
487.455;  126.513;   -9.136;  898.229
488.043;  127.121;  -10.646;  748.361
488.631;  136.401;   -7.456; 1005.079
489.220;  140.425;   -6.636;  908.626
489.808;  139.698;  -11.036;  741.415
490.396;  148.103;  -10.246;  914.645
490.984;  154.541;   -8.556;  830.161
491.572;  163.207;   -5.886;  940.315
492.160;  168.392;   -9.486;  919.081
492.748;  179.520;  -10.976;  884.341
493.336;  201.132;   -8.776; 1019.693
493.924;  226.821;   -5.465;  958.077
494.512;  251.367;   -9.986; 1066.638
495.100;  288.041;  -10.636; 1103.280
495.687;  339.878;  -10.885; 1206.373
496.275;  397.439;   -8.126; 1150.796
496.863;  460.826;  -10.586; 1281.171
497.451;  557.133;  -11.926; 1386.805
498.038;  689.236;  -10.885; 1556.729
498.626;  793.342;   -6.315; 1741.407
499.214;  923.076;   -7.326; 2016.609
499.801; 1112.019;  -11.906; 2220.633
500.389; 1351.586;  -10.466; 2312.494
500.976; 1661.114;   -5.236; 2744.849
501.564; 2059.051;   -8.936; 3148.565
502.151; 2417.834;  -13.176; 3515.999
502.738; 2863.672;  -10.646; 3971.274
503.326; 3246.360;   -9.525; 4403.796
503.913; 3615.143;  -10.856; 5161.749
504.500; 3925.308;  -11.586; 5986.420
505.088; 4360.222;  -10.336; 6381.201
505.675; 4870.833;   -6.355; 6925.547
506.262; 5488.821;   -9.046; 7619.060
506.849; 6211.030;  -10.416; 8733.969
507.436; 6647.414;  -10.305; 9790.121
508.023; 7140.993;   -5.496; 9985.472
508.610; 7431.381;   -7.856;10434.618
509.197; 8079.081;  -10.097;11198.435
509.784; 9425.054;  -10.886;12391.194
510.371;10396.141;   -9.315;13603.713
510.958;11083.304;   -9.936;14426.586
511.545;11827.966;   -9.326;15243.775
512.132;12710.613;  -10.075;15945.876
512.719;13288.970;   -7.796;16340.369
513.305;14173.225;  -10.606;18011.766
513.892;14892.134;  -11.486;19754.971
514.479;16341.776;   -9.126;20967.805
515.066;17832.535;   -6.026;22299.793
515.652;18863.613;   -8.466;22908.660
516.239;19964.227;  -10.886;23798.875
516.825;21012.949;  -11.496;25567.275
517.412;22099.500;   -5.796;28154.959
517.998;22942.168;  -10.506;28344.111
518.585;22969.082;  -10.076;27134.219
519.171;23149.371;   -8.315;27268.576
519.758;24138.506;   -8.596;28964.129
520.344;25948.186;   -8.466;30664.494
520.930;26522.859;  -11.006;32550.605
521.516;28339.541;  -10.495;35422.895
522.103;30835.375;   -5.526;38280.004
522.689;31715.941;   -8.746;37835.117
523.275;31364.682;  -11.376;37288.613
523.861;31898.057;  -11.156;37281.395
524.447;32753.824;   -8.135;37846.949
525.033;32145.684;   -7.896;38321.949
525.619;32565.389;  -12.476;38579.285
526.205;34433.895;   -9.516;40622.875
526.791;37055.234;   -6.926;42258.836
527.377;36982.555;   -8.346;42966.902
527.963;38962.992;   -8.717;42018.949
528.549;37624.348;  -11.016;42476.828
529.135;36166.051;   -8.536;41854.852
529.721;35777.129;   -9.666;41237.711
530.306;35183.227;  -10.066;41259.445
530.892;35206.309;  -11.356;41506.047
531.478;36500.770;   -6.596;43559.613
532.063;38620.195;   -8.836;47695.563
532.649;38685.262;  -10.047;50808.324
533.235;40235.102;   -9.746;51787.500
533.820;41810.750;   -6.566;52145.035
534.406;42563.023;  -10.817;51133.488
534.991;42070.660;   -9.416;49996.805
535.576;41032.656;   -9.036;48882.852
536.162;41362.172;   -6.156;46942.285
536.747;42451.371;  -11.607;45711.746
537.333;46082.988;  -11.787;48510.180
537.918;48944.707;  -12.437;50439.891
538.503;47635.098;   -7.196;50863.711
539.088;44811.777;  -10.556;50906.922
539.673;44595.309;   -8.767;52621.965
540.259;43893.805;  -10.026;52368.094
540.844;41299.973;   -7.416;50879.109
541.429;41954.699;   -9.467;52077.777
542.014;45540.613;   -9.527;52716.695
542.599;45711.656;   -9.946;52363.281
543.184;43092.953;   -7.927;53187.137
543.769;44005.926;   -9.297;54697.605
544.354;43411.215;  -10.127;53913.914
544.938;42611.445;   -9.267;49680.164
545.523;44681.102;   -6.506;47386.277
546.108;46769.098;   -9.787;49151.949
546.693;49227.422;  -11.587;51384.637
547.278;49023.949;  -10.986;51853.254
547.862;45763.949;   -8.206;51173.750
548.447;41375.039;  -10.067;51691.395
549.031;40797.133;   -9.637;52456.703
549.616;45374.480;   -9.926;52714.516
550.201;44525.273;   -6.347;52414.598
550.785;45177.742;   -7.917;52355.059
551.370;44829.941;  -10.867;54589.453
551.954;45140.969;   -9.047;58267.348
552.538;46604.531;   -7.827;59062.176
553.123;45038.328;  -10.287;58115.285
553.707;42701.906;  -12.178;56556.285
554.291;43037.559;   -8.717;56201.668
554.876;44304.090;   -7.457;55335.762
555.460;45162.094;  -10.387;54155.703
556.044;47379.320;   -9.618;53721.484
556.628;45743.816;  -11.567;53731.016
557.212;44356.762;   -8.097;54312.531
557.796;42571.129;  -11.077;53797.773
558.380;42611.293;  -11.108;56145.984
558.964;43591.797;   -9.057;57277.930
559.548;44616.980;   -6.977;56459.641
560.132;42792.715;  -11.457;54434.543
560.716;41739.711;  -11.378;54800.617
561.300;42410.852;   -9.577;57606.945
561.884;43432.559;   -7.127;58972.445
562.467;42802.781;   -7.118;57327.570
563.051;42354.926;  -13.358;54962.434
563.635;42550.863;  -10.178;52594.473
564.219;42767.648;   -7.837;50610.410
564.802;43504.086;  -11.398;49551.180
565.386;43913.750;  -12.788;48370.953
565.969;43764.684;   -9.077;48178.871
566.553;43101.109;   -6.207;49957.305
567.136;42993.566;   -8.568;50369.594
567.720;39123.879;  -11.868;49492.004
568.303;37346.023;   -8.268;50616.352
568.887;37312.672;   -8.698;50727.148
569.470;37472.789;   -6.808;51698.379
570.053;36506.594;  -13.188;52122.078
570.637;35279.441;  -12.037;52536.438
571.220;34704.109;   -8.577;51186.098
571.803;34639.418;   -8.498;51032.762
572.386;36756.332;  -10.498;49609.887
572.969;39376.238;   -9.388;48285.926
573.552;37692.859;   -8.338;47624.285
574.135;36396.703;   -8.518;45498.641
574.718;33444.777;  -13.628;41970.434
575.301;31610.611;  -10.893;41447.137
575.884;29776.447;   -8.158;40923.836
576.467;30672.576;  -10.328;45267.723
577.050;33677.012;  -13.058;48175.543
577.633;36523.012;   -9.458;47729.328
578.216;36017.438;   -8.928;47579.793
578.799;35144.551;   -9.358;47820.996
579.381;33734.230;  -11.388;48115.551
579.964;32164.857;  -11.718;47333.766
580.547;33442.887;   -8.588;46668.969
581.129;34266.293;   -8.859;44466.141
581.712;34616.859;  -10.729;44164.922
582.294;35531.410;  -11.118;46477.855
582.877;35853.563;   -5.218;48244.254
583.459;33713.352;   -8.679;47437.895
584.042;32217.008;  -10.709;46943.219
584.624;32756.529;  -11.669;46792.227
585.206;31986.002;   -8.218;46557.250
585.789;32118.264;  -10.569;45793.773
586.371;34944.320;  -11.859;43836.391
586.953;35620.844;  -10.719;42972.492
587.536;36316.668;   -7.198;42487.211
588.118;35947.598;   -8.720;42086.414
588.700;32581.875;  -10.439;43389.930
589.282;31456.893;   -9.198;43646.039
589.864;31603.586;   -9.199;43438.109
590.446;31718.059;  -11.319;43151.926
591.028;30003.508;  -11.159;42781.867
591.610;27794.414;  -11.779;42839.098
592.192;25962.625;   -7.668;42820.402
592.774;26641.898;  -11.949;40724.277
593.356;27208.166;  -12.129;39874.789
593.937;27545.656;  -10.669;39980.648
594.519;29770.830;   -6.509;42069.633
595.101;32128.883;  -10.849;42976.031
595.683;32393.082;  -11.679;44084.441
596.264;33565.969;   -9.049;43478.797
596.846;32290.822;   -8.849;43803.672
597.427;31469.406;   -9.570;42986.934
598.009;33073.797;  -12.620;42832.219
598.591;33468.824;  -10.039;42580.086
599.172;32705.672;  -10.369;43061.805
599.753;32752.484;   -9.140;41691.469
600.335;34418.129;  -11.430;40692.520
600.916;33127.359;   -9.939;39982.422
601.498;30593.527;   -8.479;40318.617
602.079;29226.703;  -10.920;40670.609
602.660;29232.959;  -11.480;41450.898
603.241;30357.707;  -11.699;41137.738
603.823;29320.836;   -9.579;38868.797
604.404;29291.613;  -10.620;38182.785
604.985;30515.572;  -10.450;38078.047
605.566;29633.613;   -9.129;38056.633
606.147;29470.404;   -7.510;37020.418
606.728;31801.498;  -10.660;37883.359
607.309;31056.764;  -11.740;38748.273
607.890;30160.064;   -9.759;38850.230
608.471;29834.029;   -8.250;37457.918
609.051;29112.186;   -9.240;36066.457
609.632;28223.801;  -12.120;35991.074
610.213;29159.279;   -9.110;37402.641
610.794;29613.777;   -8.030;38383.363
611.374;28760.508;   -8.110;40562.387
611.955;28965.582;  -13.560;38533.727
612.536;30532.238;  -11.400;36951.789
613.116;30411.732;   -8.070;37197.891
613.697;30749.697;  -10.830;38411.125
614.277;29411.123;  -11.641;38673.938
614.858;30170.988;  -13.310;37075.863
615.438;29357.631;   -7.460;35092.906
616.019;26518.633;   -7.601;33666.301
616.599;27278.564;  -12.020;34189.023
617.179;29163.193;  -11.780;36952.047
617.760;29762.258;   -8.570;39582.574
618.340;31087.295;  -11.471;38943.977
618.920;32775.031;  -11.170;37594.156
619.500;32321.760;  -11.071;37866.938
620.080;31604.531;   -7.750;37869.043
620.660;32556.521;  -12.711;36868.617
621.241;33410.039;  -10.211;36352.309
621.821;33428.789;  -10.961;35459.520
622.401;32991.141;   -7.720;35207.414
622.980;32064.607;   -8.981;35980.422
623.560;30509.059;   -9.331;37351.328
624.140;29853.139;   -9.850;34388.582
624.720;25038.176;   -7.451;32368.764
625.300;21271.117;   -9.070;32638.629
625.880;24482.799;  -12.601;34599.035
626.459;28285.701;  -11.751;36831.738
627.039;31422.729;   -9.281;38299.098
627.619;31512.424;   -8.801;38289.574
628.198;29662.906;  -12.071;37220.695
628.778;28906.178;   -9.461;37632.563
629.357;29839.166;   -8.491;38003.012
629.937;29813.760;   -9.721;38402.039
630.516;28897.295;   -9.951;37868.801
631.096;28605.805;  -11.731;35760.410
631.675;31787.068;   -8.572;35225.219
632.254;37039.094;  -11.282;35130.289
632.834;36549.902;  -13.322;35794.570
633.413;34624.535;  -10.301;35788.922
633.992;31478.326;   -8.582;34532.863
634.571;32548.752;   -8.352;33590.113
635.151;35342.551;  -11.912;34943.863
635.730;33710.938;  -10.511;35352.523
636.309;30496.418;   -7.731;35366.605
636.888;28038.463;   -9.952;36165.637
637.467;28754.008;  -11.672;37515.902
638.046;30790.891;   -8.901;39288.695
638.625;33892.410;   -7.912;38279.699
639.204;33587.848;  -10.022;37741.598
639.782;31666.803;  -12.252;38364.551
640.361;27912.334;  -10.041;36740.621
640.940;25005.816;  -11.161;34950.082
641.519;25313.047;   -9.701;34137.398
642.097;28001.818;  -11.271;35654.258
642.676;31181.625;   -8.651;35637.957
643.255;32168.473;   -8.711;36567.074
643.833;31150.234;   -9.581;37809.434
644.412;31554.734;  -13.711;37337.293
644.990;30997.270;  -11.811;37018.531
645.569;30832.416;   -9.411;36518.469
646.147;29515.174;  -10.291;36186.430
646.726;28530.000;  -12.401;36267.688
647.304;29719.896;  -10.411;36647.625
647.882;31794.809;   -9.651;39286.742
648.461;33477.336;   -9.631;39157.703
649.039;31986.434;  -11.881;35412.883
649.617;31639.002;   -9.661;34744.918
650.195;31605.301;   -9.301;35403.098
650.773;30538.162;  -10.511;35053.797
651.352;27904.125;  -11.521;33756.816
651.930;25413.764;  -12.211;31868.773
652.508;23645.730;   -9.171;33121.551
653.086;27291.057;   -9.371;33564.793
653.663;30255.498;  -13.161;34054.668
654.241;29189.611;  -13.031;35693.309
654.819;30999.266;   -9.371;36422.906
655.397;31026.602;  -10.511;38213.484
655.975;30961.625;  -10.371;39507.625
656.553;31033.770;  -10.051;39498.223
657.130;29306.598;  -10.061;40395.480
657.708;28712.277;   -9.561;39242.020
658.286;28609.666;  -11.511;38920.020
658.863;29556.941;  -10.261;40202.898
659.441;32085.471;   -7.531;39677.938
660.018;31248.986;   -9.501;40413.355
660.596;30415.852;  -13.301;39931.414
661.173;32749.850;  -11.211;39604.531
661.750;32933.203;   -9.951;39700.070
662.328;31846.723;   -9.390;39292.809
662.905;30987.666;  -11.330;38235.648
663.482;26582.162;   -9.050;36212.305
664.060;24500.998;   -8.240;35944.945
664.637;27188.797;  -10.050;35170.785
665.214;29056.502;  -11.760;34197.523
665.791;30677.906;  -10.530;34549.520
666.368;29440.936;   -9.690;35118.578
666.945;30157.967;   -9.320;36019.418
667.522;31685.313;  -11.860;36048.438
668.099;32112.324;  -10.770;36243.914
668.676;31654.883;   -6.260;35958.875
669.253;29859.967;   -7.000;37384.730
669.830;30176.598;  -10.190;36779.629
670.407;29861.691;   -9.550;35231.289
670.984;30246.699;   -9.260;35544.270
671.560;30372.869;   -9.280;35466.867
672.137;28794.510;  -11.810;34280.863
672.714;29539.775;  -11.490;34632.863
673.290;29887.715;   -7.740;35135.422
673.867;30157.053;  -10.660;36114.480
674.443;30476.424;  -12.230;36152.859
675.020;28967.049;  -10.450;35327.238
675.596;29964.393;   -9.260;35795.176
676.173;30329.934;  -10.780;35430.355
676.749;30027.916;  -13.690;33549.516
677.326;30375.043;  -11.980;32210.012
677.902;30579.273;   -8.630;32068.871
678.478;29675.699;  -10.730;32583.891
679.054;29444.711;  -10.520;32088.928
679.631;30166.297;  -11.920;30978.848
680.207;31065.400;   -7.490;33160.887
680.783;32477.396;   -9.860;35570.363
681.359;31754.973;  -13.380;36125.184
681.935;30621.570;  -12.480;35240.922
682.511;29107.449;   -7.900;34429.961
683.087;28995.545;   -7.710;34463.680
683.663;29178.840;  -11.480;34648.898
684.239;28505.965;  -14.090;34546.457
684.815;28077.889;   -7.560;35586.375
685.390;28415.516;   -9.910;35821.895
685.966;29038.604;  -11.159;35085.871
686.542;31863.320;  -11.169;34198.230
687.118;33674.527;   -5.959;32847.707
687.693;33566.520;  -10.329;32794.027
688.269;32912.012;  -12.059;33072.367
688.844;30825.627;  -10.909;33141.664
689.420;28801.385;   -8.019;33965.742
689.995;26473.852;   -8.399;34655.523
690.571;25282.678;  -10.949;33576.742
691.146;25969.660;   -9.619;32657.219
691.722;25231.736;   -8.999;32526.979
692.297;25234.463;  -11.589;33014.617
692.872;27424.119;  -11.739;34012.254
693.448;26776.795;  -11.059;34237.434
694.023;25868.967;  -10.139;34142.672
694.598;28064.742;   -9.029;34132.031
695.173;28362.664;  -13.319;34205.250
695.748;27887.072;  -10.169;32882.488
696.323;27681.150;   -8.339;32864.906
696.898;27681.908;   -8.169;33170.004
697.473;27282.008;  -12.309;32432.984
698.048;26954.482;  -10.989;31649.303
698.623;27559.098;   -9.329;30778.141
699.198;29693.207;   -9.849;31140.119
699.773;30403.967;  -12.329;31764.299
700.348;28747.043;  -10.389;31780.816
700.922;28781.098;   -9.269;32046.375
701.497;29082.213;   -9.329;32603.574
702.072;29171.893;  -10.789;34799.871
702.646;28428.367;  -10.839;35793.172
703.221;26551.746;   -9.099;35201.590
703.795;28621.756;  -10.939;34764.527
704.370;29056.873;  -12.859;34307.367
704.944;29329.203;  -11.559;33509.887
705.519;30460.254;   -7.939;31388.584
706.093;31709.646;  -10.499;31340.104
706.668;31757.902;  -11.289;32630.281
707.242;30252.078;  -11.509;32728.779
707.816;28635.301;   -9.639;32947.238
708.390;27318.520;  -11.429;33277.855
708.965;28449.270;  -11.869;33834.336
709.539;29203.424;  -11.689;33709.273
710.113;29738.023;  -10.478;33044.313
710.687;28906.658;  -10.228;31953.992
711.261;26680.283;  -13.698;30505.949
711.835;26515.734;  -13.378;30262.369
712.409;27653.801;   -9.698;31254.447
712.983;29001.822;  -11.898;32754.986
713.557;29727.355;  -15.138;34018.824
714.131;29535.141;  -14.098;34579.625
714.704;28631.463;   -9.958;33890.262
715.278;26234.180;  -10.028;33531.102
715.852;25682.957;  -11.148;33601.660
716.425;26592.176;   -9.068;33515.117
716.999;26985.008;  -10.038;33185.555
717.573;28002.295;   -9.798;33905.996
718.146;29334.166;  -12.378;35199.293
718.720;28850.277;  -11.918;35060.551
719.293;28135.236;   -8.088;34973.230
719.867;30961.924;  -10.888;36394.449
720.440;30952.766;  -11.938;36663.008
721.013;29446.766;  -12.818;35102.426
721.587;28062.480;  -10.298;33985.266
722.160;26502.479;  -10.048;33524.965
722.733;25701.090;  -12.108;32987.043
723.306;26600.086;  -10.818;33066.301
723.880;28666.350;   -8.908;33399.500
724.453;30073.199;   -9.878;33468.297
725.026;28788.043;  -11.188;33816.637
725.599;26302.543;  -11.678;32797.996
726.172;27022.479;   -9.618;33187.434
726.745;28488.215;   -8.258;35136.613
727.318;30277.049;  -12.978;35751.730
727.891;30851.195;  -12.148;35890.430
728.463;30622.693;   -8.968;34822.090
729.036;29470.748;  -10.188;32895.086
729.609;29624.967;  -11.788;31823.225
730.182;26221.361;  -11.788;31445.283
730.754;23598.902;  -10.268;32373.223
731.327;23611.715;   -9.998;33676.820
731.900;23834.869;  -12.228;33417.000
732.472;25461.271;  -13.848;31978.498
733.045;27665.420;   -8.698;30368.777
733.617;27640.016;  -10.607;30574.215
734.190;26958.592;  -11.507;31280.975
734.762;23932.971;  -13.647;31674.412
735.334;22384.039;   -9.767;31247.291
735.907;22845.307;   -9.897;29876.211
736.479;22494.990;  -11.637;29808.488
737.051;22172.295;   -9.567;30233.547
737.623;23724.580;   -8.187;31469.086
738.195;25047.627;  -11.187;31784.225
738.768;26865.801;  -12.337;32120.523
739.340;26438.041;  -12.227;32094.342
739.912;24945.520;  -11.057;31312.680
740.484;23897.896;  -10.207;31946.238
741.056;23104.828;  -10.047;32984.059
741.628;24983.406;  -13.627;33897.715
742.199;27395.771;   -7.177;33213.016
742.771;25638.518;  -10.797;31369.113
743.343;23093.998;  -11.997;31865.473
743.915;21918.482;  -12.867;32388.631
744.487;22215.242;   -7.617;31079.568
745.058;22428.107;   -9.557;30570.107
745.630;23188.484;   -9.877;29970.127
746.201;23969.285;  -14.177;29186.766
746.773;24054.660;   -9.237;28805.723
747.344;23842.357;   -9.847;29591.223
747.916;22443.080;  -11.657;31412.201
748.487;22410.545;  -10.587;32194.898
749.059;23828.502;   -8.707;32533.719
749.630;25162.439;  -10.537;32158.518
750.201;24388.854;  -11.687;30855.395
750.773;22570.742;  -11.647;28622.555
751.344;22651.680;   -7.147;28405.732
751.915;23680.262;   -9.757;28461.551
752.486;22692.049;  -12.427;27842.850
753.057;20311.689;  -12.227;27845.008
753.628;19265.506;  -10.417;27728.107
754.199;20574.102;  -11.767;27381.086
754.770;21754.385;  -11.187;25882.203
755.341;21707.555;  -10.507;25886.184
755.912;21804.334;   -9.387;26050.861
756.483;21019.313;  -10.647;26798.779
757.054;19101.617;  -11.837;27048.238
757.625;17863.961;  -12.716;26294.838
758.195;17691.018;   -9.666;26142.076
758.766;17366.500;   -8.656;26392.234
759.337;18315.936;  -12.856;26334.594
759.907;20427.342;  -13.366;27579.652
760.478;21320.326;   -8.576;28352.770
761.048;20698.984;  -10.526;27325.088
761.619;19915.045;  -11.116;26460.428
762.189;19831.561;  -12.136;26029.826
762.760;20834.375;   -9.456;26430.145
763.330;21934.459;   -7.136;26670.902
763.900;21150.477;  -11.786;26603.021
764.471;18206.484;  -11.546;25542.740
765.041;16947.377;   -8.096;24358.459
765.611;17347.465;   -8.876;23991.297
766.181;17952.158;  -12.196;24470.236
766.751;18661.502;  -11.636;24845.975
767.321;18424.914;  -10.156;24533.633
767.891;16465.467;  -11.766;24916.492
768.461;15946.694;  -14.936;24776.771
769.031;16457.809;  -12.356;24757.988
769.601;18185.025;   -7.526;24181.088
770.171;18136.693;  -10.766;23670.387
770.741;17240.953;  -13.176;22960.045
771.311;17425.793;  -10.616;22917.523
771.880;17618.596;   -9.576;23562.941
772.450;17001.707;  -10.336;24216.500
773.020;17091.027;  -13.516;24140.398
773.589;16961.754;  -13.466;24414.857
774.159;16606.898;   -8.686;23858.717
774.729;16130.017;   -9.476;22942.135
775.298;15447.606;  -13.666;22324.033
775.867;14980.840;  -11.716;21140.313
776.437;14977.484;   -9.906;20838.092
777.006;14632.597;  -12.166;20599.510
777.576;14662.705;  -12.356;20508.809
778.145;14945.487;  -11.646;20732.947
778.714;14782.532;   -8.226;21062.465
779.283;13879.014;   -9.556;20949.664
779.853;13503.918;  -14.116;20508.623
780.422;13931.975;  -11.506;20649.082
780.991;13520.956;   -9.556;21527.520
781.560;12547.176;   -9.095;22632.658
782.129;12415.602;  -12.135;23048.277
782.698;12385.871;  -10.865;23438.555
783.267;11981.049;   -9.335;23267.734
783.836;11969.681;  -11.045;22415.133
784.404;12978.138;  -13.865;20443.152
784.973;13327.783;  -13.095;19699.150
785.542;13109.501;  -11.575;19763.828
786.111;12987.705;   -9.705;20341.408
786.679;12637.135;  -12.105;20207.967
787.248;12471.956;  -12.455;19516.465
787.817;12277.583;  -11.535;18900.363
788.385;11792.313;   -9.765;17879.121
788.954;11123.717;  -14.005;17658.301
789.522;10674.675;  -11.955;17788.879
790.090;11268.906;  -10.135;18118.277
790.659;11607.281;  -10.975;18338.736
791.227;10967.402;  -13.375;18508.615
791.795;11422.779;  -12.375;17898.254
792.364;11818.091;  -10.725;17295.133
792.932;12080.440;   -9.715;16822.051
793.500;12289.102;  -12.675;17040.148
794.068;12561.107;  -13.495;17179.787
794.636;12703.246;  -10.885;16664.246
795.204;12257.529;  -11.045;16524.545
795.772;12303.374;  -13.175;17274.564
796.340;11809.584;  -12.445;17891.002
796.908;11647.467;   -9.735;17648.561
797.476;11610.256;   -9.815;17064.080
798.044;11155.544;  -13.985;16672.777
798.612;10270.487;  -13.115;17023.996
799.180; 9860.915;  -10.185;16561.615
799.747; 9724.903;   -9.055;15962.773
800.315; 9415.547;  -12.385;15296.992
800.883; 9069.260;  -15.035;14801.771
801.450; 8998.997;  -10.365;14534.430
802.018; 9019.446;   -9.855;14173.248
802.585; 9088.661;  -11.905;14029.547
803.153; 9199.133;  -11.585;13836.846
803.720; 9184.890;   -9.095;13567.324
804.287; 8883.449;   -9.135;13360.622
804.855; 8451.042;  -11.604;13681.981
805.422; 8251.911;  -11.794;13536.560
805.989; 8166.993;  -10.734;13355.958
806.556; 8335.950;  -10.444;13747.896
807.124; 8664.995;  -12.764;13987.376
807.691; 8629.054;  -12.964;14038.674
808.258; 8410.933;  -11.134;14120.152
808.825; 8048.499;   -9.854;13860.111
809.392; 8089.983;  -10.504;13268.790
809.959; 7607.847;  -13.054;12680.389
810.526; 7199.607;   -8.294;12427.308
811.093; 7225.797;   -8.394;12030.105
811.659; 7734.234;  -12.304;11653.664
812.226; 8136.257;  -13.944;11637.183
812.793; 7847.497;  -10.484;11611.521
813.360; 7268.675;  -10.144;11885.181
813.926; 6907.662;  -11.684;12770.539
814.493; 6630.778;  -13.644;12677.638
815.060; 6286.408;   -9.724;11974.336
815.626; 6379.562;   -9.854;11594.715
816.193; 6847.228;  -13.254;11579.474
816.759; 6905.546;  -13.204;11666.972
817.325; 7031.315;   -9.434;11325.530
817.892; 7386.049;  -10.134;11105.369
818.458; 7776.218;  -13.474;10843.928
819.024; 7406.586;  -11.854;10714.406
819.591; 7017.908;  -10.244;10469.165
820.157; 6755.262;  -10.704;10235.523
820.723; 6277.291;  -12.324;10847.563
821.289; 6025.611;   -9.444;11040.980
821.855; 5964.177;   -8.374;10357.100
822.421; 5960.034;  -10.234; 9978.918
822.987; 5913.755;  -13.294; 9754.177
823.553; 5613.208;  -10.884;10065.755
824.119; 5458.731;   -8.884;10036.294
824.685; 5529.988;   -6.784;10029.192
825.251; 5596.249;  -12.004;10199.230
825.816; 5544.125;  -11.474; 9820.189
826.382; 5344.714;   -9.174; 9297.248
826.948; 5576.528;   -9.214; 9381.347
827.513; 5989.059;  -10.774; 9450.726
828.079; 5802.236;  -11.924; 9472.444
828.645; 5252.312;  -10.543; 9292.643
829.210; 5189.920;  -10.533; 9065.341
829.776; 5171.415;  -10.753; 9132.620
830.341; 5030.774;  -10.173; 9092.878
830.906; 5213.303;  -10.743; 9078.557
831.472; 5576.757;  -11.113; 8534.535
832.037; 5314.757;  -10.603; 8677.874
832.602; 4731.792;  -13.323; 8628.692
833.167; 4391.596;  -10.823; 8879.031
833.733; 4306.056;  -10.113; 9189.790
834.298; 4394.364;  -13.583; 9052.608
834.863; 4395.398;  -12.703; 8895.087
835.428; 4360.937;  -10.523; 8824.266
835.993; 4310.971;   -6.963; 8845.385
836.558; 4229.201;  -10.763; 8888.563
837.123; 4364.557;   -9.903; 8966.582
837.688; 4547.402;   -9.913; 8617.860
838.253; 4717.009;  -10.283; 8590.699
838.817; 4909.140;  -12.963; 8443.797
839.382; 4845.262;  -14.243; 8799.356
839.947; 4533.721;  -10.733; 8810.595
840.511; 4213.802;   -9.383; 8796.394
841.076; 3851.886;  -12.563; 8347.231
841.641; 3902.929;  -12.953; 8224.330
842.205; 3981.633;   -7.043; 8223.349
842.770; 4129.619;   -8.163; 8622.107
843.334; 4402.226;  -12.503; 8410.386
843.898; 4418.504;  -11.693; 8337.465
844.463; 4448.758;  -10.203; 8506.283
845.027; 4186.032;   -9.533; 8280.962
845.591; 3975.234;  -13.443; 8231.141
846.156; 3959.630;  -13.143; 7969.179
846.720; 3808.117;   -9.433; 7768.278
847.284; 3659.265;  -11.033; 7630.957
847.848; 3478.979;  -10.403; 7472.395
848.412; 3380.379;  -11.553; 7437.394
848.976; 3442.789;   -8.393; 7674.592
849.540; 3416.678;   -8.713; 7836.011
850.104; 3532.048;  -12.463; 7913.669
850.668; 3875.493;  -12.973; 7694.508
851.232; 3986.560;  -10.793; 7756.887
851.796; 3811.322;  -10.662; 7926.545
852.359; 3507.482;  -13.082; 7827.844
852.923; 3346.268;  -12.192; 7641.163
853.487; 3164.192;  -11.912; 7342.501
854.050; 3080.510;  -10.892; 7042.820
854.614; 3216.076;  -13.992; 7151.338
855.177; 3340.462;  -11.732; 7105.077
855.741; 3406.298;   -8.962; 6989.675
856.304; 3306.595;   -9.442; 6596.634
856.868; 3227.223;  -14.192; 6356.272
857.431; 3337.440;  -12.702; 6468.571
857.995; 3463.741;   -9.942; 6373.210
858.558; 3480.093;   -9.112; 6324.448
859.121; 3218.268;  -12.932; 6408.327
859.684; 3096.924;  -13.442; 6347.886
860.247; 3217.673;  -10.632; 6321.264
860.810; 3183.007;  -11.272; 6301.903
861.374; 2929.503;   -9.832; 6607.881
861.937; 2676.427;  -11.762; 6408.200
862.500; 2644.981;   -9.722; 6572.639
863.062; 2798.486;  -10.512; 6387.297
863.625; 2974.618;  -11.232; 6190.836
864.188; 3131.974;  -14.112; 5807.254
864.751; 3180.933;  -11.302; 5682.413
865.314; 3064.804;  -10.112; 5547.492
865.876; 2894.434;  -12.182; 5500.150
866.439; 2917.698;  -10.722; 5415.909
867.002; 2870.520;   -9.252; 5501.567
867.564; 2634.908;   -9.572; 5413.946
868.127; 2406.104;  -13.142; 5160.325
868.689; 2320.898;  -12.902; 5133.183
869.252; 2259.286;   -9.732; 5252.382
869.814; 2180.785;   -9.432; 5297.141
870.377; 2203.013;  -11.552; 5390.919
870.939; 2276.993;   -9.052; 5599.898
871.501; 2319.009;  -10.982; 5248.336
872.063; 2315.087;  -12.292; 4854.235
872.626; 2277.902;  -14.912; 4817.074
873.188; 2295.860;  -13.112; 4987.732
873.750; 2250.268;  -13.442; 4868.651
874.312; 2146.629;   -9.402; 4779.330
874.874; 2052.102;  -11.062; 4866.348
875.436; 1973.845;  -13.931; 4718.887
875.998; 1965.687;   -9.561; 4660.005
876.560; 1975.851;  -11.321; 4462.964
877.122; 1915.247;  -12.221; 4145.042
877.683; 1824.771;  -12.191; 4056.481
878.245; 1753.529;  -12.101; 3950.740
878.807; 1781.668;   -8.971; 4058.958
879.369; 1789.976;  -12.071; 3954.677
879.930; 1693.178;  -14.621; 3941.495
880.492; 1641.058;  -10.311; 4067.014
881.053; 1610.949;  -10.901; 3859.633
881.615; 1495.153;  -14.411; 3776.071
882.176; 1411.120;  -13.761; 3734.750
882.738; 1388.858;   -9.181; 3678.489
883.299; 1365.514;  -11.791; 3405.407
883.860; 1366.808;  -13.121; 3351.106
884.422; 1374.697;  -11.211; 3394.044
884.983; 1323.904;  -10.091; 3166.443
885.544; 1220.154;   -8.461; 3189.802
886.105; 1137.053;  -12.361; 3160.360
886.666; 1077.679;  -14.141; 3093.059
887.227; 1023.582;  -11.361; 2941.957
887.788;  954.587;  -11.401; 2974.836
888.349;  892.490;  -13.791; 2721.214
888.910;  895.449;  -13.191; 2696.493
889.471;  908.196;   -9.881; 2560.172
890.032;  890.534;   -9.881; 2558.190
890.593;  863.250;  -10.371; 2567.669
891.153;  833.493;  -13.301; 2460.307
891.714;  782.900;  -11.431; 2372.046
892.275;  741.498;  -11.291; 2309.505
892.835;  699.965;  -11.471; 2382.543
893.396;  639.076;  -11.541; 2295.502
893.956;  582.774;  -11.181; 2162.420
894.517;  548.353;  -11.741; 2125.439
895.077;  542.742;  -11.671; 2086.978
895.638;  541.859;  -11.311; 2126.316
896.198;  511.107;   -9.831; 1838.275
896.758;  468.060;   -8.421; 1892.813
897.319;  433.947;  -12.351; 1792.232
897.879;  416.484;  -13.511; 1762.751
898.439;  387.330;  -12.001; 1661.149
898.999;  361.477;  -10.180; 1781.468
899.559;  351.734;  -12.030; 1703.347
900.119;  347.784;  -15.710; 1537.525
900.679;  345.245;   -8.900; 1638.384
901.239;  331.453;   -8.340; 1527.902
901.799;  320.358;  -13.910; 1456.441
902.359;  312.918;  -13.460; 1357.140
902.919;  305.573;  -11.490; 1331.118
903.479;  290.329;  -12.110; 1317.257
904.038;  267.865;  -11.720; 1262.595
904.598;  251.679;  -13.610; 1152.034
905.158;  246.685;  -11.040; 1240.893
905.717;  240.587;  -10.900; 1233.691
906.277;  229.015;  -15.080; 1217.330
906.836;  219.539;  -13.380; 1222.408
907.396;  211.620;  -10.780; 1193.047
907.955;  204.430;   -8.500; 1182.526
908.515;  198.427;  -12.760; 1099.364
909.074;  191.001;  -11.900; 1092.863
909.633;  185.158;   -8.950; 1069.121
910.192;  180.435;   -8.770; 1196.460
910.752;  175.794;  -12.390; 1029.960
911.311;  171.416;  -13.680; 1009.780
911.870;  169.326;  -12.370;  971.460
912.429;  169.324;  -10.900; 1094.080
912.988;  168.328;  -11.690; 1081.060
913.547;  162.701;  -13.240;  940.380
914.106;  157.107;  -11.990;  999.420
914.665;  155.100;   -9.990;  984.020
915.224;  153.559;  -12.880; 1035.760
915.782;  153.603;  -12.350;  922.560
916.341;  153.441;   -9.110; 1049.840
916.900;  149.642;   -9.270;  925.260
917.458;  147.906;  -13.240;  884.220
918.017;  146.740;  -13.550;  942.600
918.576;  147.068;  -12.320;  904.440
919.134;  145.274;  -11.490;  837.980
919.693;  142.390;  -13.670;  893.060
920.251;  140.952;  -15.470;  876.500
920.809;  139.103;  -11.290;  839.580
921.368;  138.297;  -10.210;  885.360
921.926;  138.558;  -12.140;  842.940
922.484;  136.640;  -13.080;  903.360
923.042;  136.357;  -11.720;  880.340
923.601;  138.994;   -7.480;  998.680
924.159;  137.145;  -11.570;  935.560
924.717;  133.896;  -13.840;  841.080
925.275;  133.358;  -10.640;  903.240
925.833;  133.885;  -11.540;  779.320
926.391;  135.587;  -12.960;  938.380
926.949;  132.690;  -14.130;  857.680
927.506;  133.692;  -11.750;  903.500
928.064;  133.576;  -10.250;  877.580
928.622;  132.511;  -13.030;  880.100
929.180;  131.595;  -13.400;  814.180
929.737;  133.229;  -10.700;  808.540
930.295;  137.761;  -10.070;  928.480
930.853;  138.804;  -11.960;  849.100
931.410;  140.164;  -13.120;  821.120
931.968;  139.270;  -10.770;  940.660
932.525;  138.800;  -10.680;  909.380
933.082;  138.993;  -13.130;  811.440
933.640;  139.573;  -13.210;  925.900
934.197;  138.276;  -11.060;  886.360
934.754;  139.415;   -9.580;  897.780
935.312;  142.868;  -14.000;  863.340
935.869;  146.328;  -10.710; 1012.980
936.426;  146.847;   -9.860;  872.800
936.983;  148.199;   -9.710;  889.020
937.540;  147.128;  -13.990;  838.280
938.097;  145.474;  -14.040;  940.120
938.654;  146.327;  -10.310;  898.860
939.211;  148.878;  -10.560;  952.480
939.768;  153.119;  -13.900;  915.420
940.324;  156.217;  -14.760;  904.200
940.881;  157.351;  -10.370;  878.500
941.438;  158.631;   -8.260; 1021.200
941.995;  153.623;  -12.540;  992.560
942.551;  151.178;  -14.670;  875.620
943.108;  151.577;  -10.450;  937.920
943.664;  153.683;  -10.750;  869.340
944.221;  157.307;  -11.550; 1088.140
944.777;  155.210;  -14.770;  869.680
945.334;  156.531;  -12.820;  884.840
945.890;  159.897;  -10.130;  946.480
946.446;  159.078;  -13.470;  947.020
947.003;  161.144;  -12.120;  964.940
947.559;  164.097;   -9.980; 1063.040
948.115;  162.998;   -9.080; 1026.540
948.671;  161.216;  -10.830;  967.300
949.227;  157.131;  -12.440;  859.560
949.783;  155.182;  -12.910;  858.900
950.339;  156.683;  -10.270;  991.000
950.895;  157.638;  -13.630; 1023.840
951.451;  156.930;  -15.100;  925.280
952.007;  158.925;  -11.330;  998.540
952.563;  160.712;  -10.580;  937.780
953.118;  159.517;  -13.440;  904.940
953.674;  158.988;  -12.710;  935.780
954.230;  158.876;  -10.350;  949.640
954.785;  156.211;   -9.190;  936.640
955.341;  153.912;  -11.200;  998.160
955.897;  152.144;  -16.560;  834.660
956.452;  152.793;  -12.570;  953.840
957.008;  152.285;   -7.970; 1083.640
957.563;  148.852;  -11.940; 1009.540
958.118;  144.890;  -13.450;  877.700
958.674;  146.316;  -12.030;  946.780
959.229;  147.541;   -9.410; 1013.980
959.784;  145.148;  -12.000;  832.400
960.339;  144.190;  -14.780; 1001.280
960.894;  140.416;   -9.860;  963.760
961.449;  136.992;   -9.970;  859.960
962.004;  138.040;  -10.900; 1212.840
962.559;  132.249;  -13.150;  860.140
963.114;  130.551;  -13.740;  742.480
963.669;  130.668;   -9.820;  915.500
964.224;  126.814;  -13.890;  874.340
964.779;  126.868;  -12.600;  828.420
965.334;  127.799;  -10.950; 1017.860
965.888;  127.261;  -11.170;  875.360
966.443;  130.992;  -12.540;  972.380
966.998;  132.008;  -15.780;  819.460
967.552;  131.748;   -9.760;  908.380
968.107;  125.754;   -9.060;  868.300
968.661;  119.700;  -11.950;  922.440
969.216;  110.597;  -12.800;  856.280
969.770;  101.480;  -11.210;  917.200
970.324;   93.493;  -11.610;  923.140
970.879;   89.945;  -11.370;  947.180
971.433;   91.221;  -12.540;  952.720
971.987;   90.764;  -11.320;  895.340
972.541;   91.944;  -10.720;  917.100
973.095;   93.351;   -9.680; 1009.460
973.649;   93.772;  -11.440;  809.480
974.203;   93.432;  -11.210;  829.040
974.757;   94.387;  -10.240;  855.220
975.311;   95.793;  -13.720;  872.600
975.865;   95.466;  -13.770;  881.820
976.419;   93.921;  -11.690;  857.400
976.973;   94.661;   -9.510;  849.620
977.526;   97.401;  -12.620;  949.920
978.080;   96.703;  -12.010;  796.780
978.634;   98.276;  -10.170;  921.320
979.187;   96.057;   -9.020;  905.400
979.741;   94.273;   -9.820; 1018.380
980.294;   89.070;  -14.870;  789.160
980.848;   87.354;  -12.380;  717.220
981.401;   89.445;  -10.350;  816.540
981.955;   92.072;  -13.720;  844.300
982.508;   90.757;  -11.490;  746.340
983.061;   91.592;  -10.000;  915.260
983.615;   87.767;  -11.480;  798.800
984.168;   85.159;  -13.220;  770.080
984.721;   84.597;  -13.960;  880.760
985.274;   84.118;  -10.870;  867.500
985.827;   83.076;   -9.790;  834.220
986.380;   80.806;  -13.120;  721.340
986.933;   80.348;  -12.450;  864.800
987.486;   78.657;  -10.210;  861.920
988.039;   77.202;   -8.430;  863.100
988.591;   75.068;  -10.520;  893.260
989.144;   72.882;  -14.860;  737.260
989.697;   72.557;  -13.080;  758.740
990.250;   73.358;  -10.150;  858.100
990.802;   72.569;  -13.430;  755.860
991.355;   73.726;  -12.750;  974.880
991.907;   71.344;  -12.040;  864.320
992.460;   68.962;  -11.330;  753.760
993.012;   68.133;  -13.610;  749.540
993.565;   67.698;  -13.460;  711.360
994.117;   67.838;   -9.360;  950.780
994.669;   64.943;  -11.300;  701.320
995.221;   64.105;  -13.540;  791.920
995.774;   61.185;  -13.430;  787.580
996.326;   60.266;  -12.520;  740.220
996.878;   60.021;  -10.950;  838.420
997.430;   57.727;  -14.300;  699.860
997.982;   57.049;  -13.760;  750.140
998.534;   56.345;  -11.530;  739.060
999.086;   55.516;  -10.310;  738.220
999.638;   53.761;  -12.530;  661.380
1000.190;   53.798;  -11.840;  699.320
1000.741;   53.594;  -10.260;  742.700
1001.293;   52.089;   -8.860;  686.020
1001.845;   50.543;  -13.700;  676.640
1002.396;   49.688;  -12.100;  743.400
1002.948;   49.201;  -12.760;  737.400
1003.500;   46.775;  -10.380;  723.780
1004.051;   46.954;  -11.900;  907.580
1004.603;   45.199;  -12.250;  791.820
1005.154;   42.811;  -13.210;  608.980
1005.705;   42.442;  -10.950;  723.960
1006.257;   42.510;  -13.880;  707.220
1006.808;   41.472;  -12.840;  685.460
1007.359;   40.687;  -10.570;  763.240
1007.910;   39.539;   -9.620;  646.640
1008.461;   40.405;  -13.630;  732.940
1009.013;   39.072;  -17.200;  588.340
1009.564;   39.854;  -10.200;  793.520
1010.115;   38.279;  -12.570;  597.040
1010.665;   37.890;  -15.150;  602.160
1011.216;   38.143;  -14.480;  667.920
1011.767;   37.170;  -11.340;  697.920
1012.318;   37.801;   -9.780;  736.980
1012.869;   36.186;  -12.380;  679.000
1013.419;   35.672;  -15.560;  603.120
1013.970;   36.157;  -11.010;  666.640
1014.521;   35.618;  -11.610;  620.620
1015.071;   35.378;  -13.450;  670.380
1015.622;   34.962;  -13.870;  635.460
1016.172;   34.530;  -11.610;  596.820
1016.723;   33.976;  -12.120;  614.380
1017.273;   33.844;  -13.620;  604.160
1017.823;   34.070;  -14.140;  650.340
1018.374;   32.829;  -12.800;  611.760
1018.924;   33.847;  -12.340;  716.880
1019.474;   33.751;  -11.410;  718.880
1020.024;   31.967;  -14.770;  657.580
1020.574;   32.445;   -9.780;  726.160
1021.124;   33.121;   -8.560;  673.580
1021.674;   31.927;  -15.190;  559.120
1022.224;   33.470;  -13.530;  708.940
1022.774;   31.962;  -13.280;  668.820
1023.324;   33.319;  -10.690;  753.520
1023.874;   33.823;  -10.240;  875.760
1024.423;   31.373;  -12.540;  613.700
1024.973;   30.763;  -10.010;  610.760
1025.523;   30.666;  -10.550;  620.960
1026.072;   29.852;  -13.560;  606.420
1026.622;   29.838;  -15.120;  675.740
1027.172;   31.108;  -11.260;  715.660
1027.721;   29.177;  -11.410;  601.220
1028.270;   30.214;  -13.530;  663.400
1028.820;   30.032;  -13.680;  638.080
1029.369;   29.202;  -13.520;  612.700
1029.918;   29.402;  -10.980;  649.840
1030.468;   29.313;  -13.530;  564.780
1031.017;   29.581;  -13.170;  634.800
1031.566;   27.981;  -12.200;  608.900
1032.115;   28.422;   -9.960;  694.500
1032.664;   27.682;  -13.210;  596.480
1033.213;   27.976;  -12.500;  735.420
1033.762;   27.936;  -11.910;  635.620
1034.311;   27.567;   -9.640;  677.220
1034.860;   27.639;  -13.310;  691.000
1035.408;   28.194;  -11.830;  722.720
1035.957;   28.345;  -12.000;  719.540
1036.506;   26.231;  -11.690;  530.800
1037.055;   27.854;  -10.990;  844.320
1037.603;   26.741;  -15.120;  664.000
1038.152;   24.943;  -12.450;  534.760
1038.700;   25.823;  -10.560;  585.740
1039.249;   25.396;  -11.080;  681.220
1039.797;   26.025;  -12.540;  633.360
1040.345;   25.752;  -11.920;  705.420
1040.894;   25.800;  -11.410;  625.300
1041.442;   25.461;  -14.320;  632.200
1041.990;   24.222;  -16.240;  559.160
1042.538;   24.059;  -11.680;  536.180
1043.087;   24.277;  -10.760;  570.860
1043.635;   24.969;  -11.850;  670.500
1044.183;   23.611;  -15.480;  586.400
1044.731;   23.535;  -11.770;  576.000
1045.279;   23.651;  -13.090;  674.920
1045.827;   25.600;  -12.440;  892.400
1046.374;   22.855;  -13.840;  515.420
1046.922;   22.369;  -13.220;  590.580
1047.470;   24.046;  -10.230;  691.300
1048.018;   22.780;  -14.590;  647.960
1048.565;   24.254;  -12.050;  708.600
1049.113;   21.992;  -11.650;  557.000
1049.660;   22.822;  -10.510;  629.660
1050.208;   23.626;  -13.310;  675.640
1050.755;   21.873;  -15.900;  606.580
1051.303;   22.695;  -11.430;  686.820
1051.850;   21.974;   -8.480;  635.120
1052.397;   20.191;  -15.010;  473.960
1052.945;   21.710;  -13.960;  617.760
1053.492;   22.506;  -13.150;  741.840
1054.039;   22.720;   -9.630;  720.180
1054.586;   21.713;  -13.680;  557.240
1055.133;   21.774;  -14.570;  693.140
1055.680;   22.127;  -13.820;  646.620
1056.227;   20.818;  -11.730;  542.780
1056.774;   22.020;  -12.480;  794.980
1057.321;   19.560;  -13.930;  523.260
1057.868;   20.159;  -11.690;  651.320
1058.415;   20.358;   -9.520;  651.980
1058.961;   20.996;  -13.160;  678.940
1059.508;   20.276;  -12.920;  643.820
1060.055;   20.123;  -11.920;  581.780
1060.601;   20.765;  -11.500;  624.300
1061.148;   20.650;  -14.330;  616.820
1061.694;   19.106;  -16.870;  592.580
1062.241;   19.890;  -10.330;  596.320
1062.787;   19.259;  -10.620;  663.140
1063.334;   20.643;  -10.110;  808.560
1063.880;   19.544;  -13.400;  668.360
1064.426;   19.428;  -10.680;  706.820
1064.972;   18.653;   -9.920;  601.340
1065.518;   18.056;  -10.980;  566.640
1066.065;   18.361;  -14.890;  624.460
1066.611;   17.691;  -12.870;  598.800
1067.157;   18.774;  -12.950;  641.860
1067.703;   18.607;  -13.540;  668.480
1068.249;   17.649;  -13.540;  605.220
1068.794;   18.336;  -12.600;  626.880
1069.340;   16.925;  -10.620;  578.960
1069.886;   18.047;  -12.830;  590.700
1070.432;   16.842;  -14.870;  541.720
1070.977;   16.806;  -11.980;  601.080
1071.523;   16.583;   -8.200;  573.060
1072.068;   17.219;  -12.330;  582.000
1072.614;   16.817;  -16.370;  527.760
1073.160;   17.474;  -11.100;  687.040
1073.705;   16.031;  -10.480;  572.520
1074.250;   16.465;  -14.520;  559.900
1074.796;   16.855;  -11.460;  655.160
1075.341;   16.523;  -11.950;  664.100
1075.886;   16.090;  -11.460;  594.240
1076.431;   15.937;  -13.770;  649.880
1076.976;   15.340;  -12.680;  639.220
1077.521;   15.376;  -13.170;  583.080
1078.067;   15.075;  -10.860;  579.400
1078.612;   16.026;  -13.920;  661.620
1079.156;   15.650;  -13.880;  601.540
1079.701;   16.650;  -13.120;  693.260
1080.246;   15.660;   -9.940;  696.300
1080.791;   15.572;  -14.740;  625.020
1081.336;   15.110;  -13.750;  659.320
1081.880;   14.888;  -13.400;  649.680
1082.425;   14.014;  -12.220;  573.480
1082.970;   16.135;  -11.610;  717.040
1083.514;   14.604;  -13.580;  597.000
1084.059;   13.213;  -12.810;  586.720
1084.603;   13.855;  -12.320;  565.840
1085.147;   14.095;  -13.190;  645.220
1085.692;   14.352;  -12.480;  716.800
1086.236;   13.606;  -13.020;  503.140
1086.780;   15.723;   -9.190;  751.440
1087.325;   13.886;  -12.480;  654.620
1087.869;   14.405;  -12.450;  610.700
1088.413;   14.088;  -12.240;  705.040
1088.957;   12.923;   -9.020;  543.400
1089.501;   14.078;  -10.320;  766.640
1090.045;   13.396;  -12.720;  726.480
1090.589;   11.212;  -13.690;  569.920
1091.133;   12.532;  -10.020;  673.340
1091.676;   12.955;  -12.330;  591.940
1092.220;   11.808;  -14.970;  600.920
1092.764;   13.334;  -12.430;  706.960
1093.307;   12.556;   -9.800;  673.780
1093.851;   11.346;  -14.970;  556.540
1094.395;   12.896;  -15.310;  683.140
1094.938;   11.979;  -10.370;  632.520
1095.482;   12.920;  -11.050;  559.800
1096.025;   12.635;  -11.840;  710.880
1096.568;   13.218;  -12.840;  779.280
1097.112;   10.279;  -14.700;  508.180
1097.655;   11.117;   -8.720;  603.000
1098.198;    9.889;  -13.610;  600.180
1098.741;   10.924;  -13.350;  612.860
1099.285;   11.848;  -11.230;  657.300
1099.828;    9.699;  -11.840;  439.400
1100.371;   10.989;  -10.840;  608.160
1100.914;   10.623;  -14.190;  682.660
1101.457;   10.693;  -11.240;  679.900
1101.999;    9.992;  -11.270;  584.680
1102.542;   10.869;  -11.480;  641.440
1103.085;   10.192;  -11.750;  658.500
1103.628;   10.901;  -11.400;  762.060
1104.170;    9.954;  -10.490;  588.280
1104.713;   10.364;  -10.600;  646.700
1105.256;    9.333;  -14.360;  557.440
1105.798;    8.072;  -13.210;  499.980
1106.341;   10.706;  -10.270;  728.900
1106.883;    9.069;  -12.200;  521.340
1107.425;    9.724;  -13.110;  668.180
1107.968;    9.557;  -12.840;  612.380
1108.510;   10.005;   -6.480;  684.960
1109.052;    8.075;  -13.940;  612.620
1109.594;    8.400;  -13.690;  554.440
1110.136;    9.193;  -11.880;  643.220
1110.679;    8.253;   -9.500;  633.080
1111.221;    8.873;  -14.160;  604.460
1111.763;    8.418;  -13.980;  559.220
1112.304;    8.271;  -13.880;  547.140
1112.846;    8.565;  -12.210;  666.240
1113.388;   11.382;  -11.390;  942.180
1113.930;    8.851;  -14.540;  694.200
1114.472;    7.562;  -12.640;  606.540
1115.013;    7.307;  -11.620;  551.280
1115.555;    7.203;  -13.640;  587.100
1116.097;    7.097;  -15.380;  579.480
1116.638;    7.374;  -12.640;  684.600
1117.180;    7.700;   -9.850;  667.740
1117.721;    7.038;  -13.690;  568.580
1118.262;    8.544;  -12.680;  677.960
1118.804;    8.014;  -12.530;  637.340
1119.345;    7.034;  -11.690;  578.400
1119.886;    8.131;  -13.380;  704.040
1120.427;    6.164;  -14.070;  589.020
1120.969;    6.211;  -13.500;  597.920
1121.510;    6.013;  -11.480;  563.060
1122.051;    7.012;  -12.830;  723.580
1122.592;    5.826;  -14.290;  655.420
1123.133;    5.533;  -12.400;  547.940
1123.673;    7.603;  -10.130;  706.480
1124.214;    6.782;  -12.930;  612.460
1124.755;    6.222;  -14.380;  639.460
1125.296;    6.366;  -14.000;  627.320
1125.836;    6.182;  -10.070;  691.500
1126.377;    5.623;  -12.640;  599.660
1126.918;    6.097;  -12.960;  614.980
1127.458;    6.086;  -13.350;  622.220
1127.999;    5.953;  -10.750;  656.980
1128.539;    5.869;  -12.350;  694.240
1129.079;    5.215;  -14.860;  632.720
1129.620;    4.865;  -13.840;  558.100
1130.160;    4.402;  -12.330;  539.480
1130.700;    6.120;  -14.530;  640.840
1131.240;    6.090;  -12.530;  643.700
1131.781;    4.959;  -14.450;  619.680
1132.321;    5.516;   -9.790;  599.120
1132.861;    4.101;  -14.860;  564.200
1133.401;    3.394;  -14.290;  593.940
1133.941;    4.900;  -11.750;  626.280
1134.481;    4.611;   -9.920;  597.580
1135.020;    3.626;  -12.290;  609.160
1135.560;    4.379;  -11.650;  674.940
1136.100;    3.546;  -16.270;  501.160
1136.640;    3.779;  -10.890;  510.480
1137.179;    3.877;  -14.180;  537.960
1137.719;    4.380;  -16.250;  605.400
1138.258;    4.431;  -14.230;  587.360
1138.798;    4.305;   -9.090;  663.780
1139.337;    3.394;  -15.130;  482.840
1139.877;    3.764;  -13.680;  642.360
1140.416;    5.808;  -11.320;  878.060
1140.955;    2.317;  -10.860;  535.380
1141.494;    3.790;  -12.920;  669.280
1142.034;    2.657;  -13.930;  583.520
1142.573;    4.147;  -11.440;  646.280
1143.112;    3.585;  -12.000;  553.480
1143.651;    3.081;  -13.670;  536.480
1144.190;    4.896;  -12.730;  691.640
1144.729;    3.069;  -14.560;  607.420
1145.267;    3.227;  -11.830;  584.900
1145.806;    3.722;  -12.230;  637.040
1146.345;    1.520;  -14.130;  635.020
1146.884;    2.762;  -11.590;  622.500
1147.422;    1.515;  -12.550;  533.060
1147.961;    3.429;  -11.180;  708.460
1148.500;    2.949;  -11.510;  669.720
1149.038;    3.670;  -11.640;  632.500
1149.577;    3.372;  -10.130;  698.640
1150.115;    0.554;  -13.970;  452.280
1150.653;    2.390;  -14.520;  607.340
1151.192;    2.164;  -12.810;  552.920
1151.730;    2.479;   -9.100;  652.560
1152.268;    0.607;  -12.220;  589.520
1152.806;    1.447;  -14.140;  571.180
1153.344;   -0.038;  -12.350;  577.640
1153.882;    1.911;   -8.980;  600.060
1154.421;    0.084;  -15.190;  470.620
1154.958;    1.393;  -15.210;  595.240
1155.496;    2.346;  -12.850;  645.280
1156.034;    1.735;   -9.940;  721.880
1156.572;    2.414;  -13.570;  667.060
1157.110;    0.164;  -14.590;  473.940
1157.647;    1.556;  -13.030;  676.960
1158.185;    0.439;  -12.140;  564.320
1158.723;   -0.249;  -14.390;  509.200
1159.260;    1.087;  -14.090;  701.700
1159.798;    1.737;  -11.920;  658.160
1160.335;    0.135;  -11.110;  631.820

