
Integration time [ms]:   3.276
Averaging Nr. [scans]: 1000
Smoothing Nr. [pixels]: 0
Data measured with spectrometer [name]: 7414430SP
Wave   ;Sample   ;Dark     ;Reference
[nm]   ;[counts] ;[counts] ;[counts] 

288.544;  150.945;    7.793;  793.890
289.143;  155.470;    7.462;  681.602
289.742;  153.937;    8.602;  828.814
290.341;  140.318;    1.321;  789.841
290.940;  130.061;   -0.709;  730.702
291.538;  131.200;    0.881;  881.108
292.137;  131.101;    0.122;  792.581
292.736;  136.100;   -1.929;  975.101
293.335;  132.876;   -8.229;  735.086
293.934;  132.178;   -5.279;  781.677
294.532;  130.709;   -1.369; 1031.958
295.131;  116.285;   -7.641;  834.394
295.730;  116.777;   -8.420;  809.588
296.328;  116.540;   -5.611;  783.442
296.927;  116.698;   -5.781;  779.652
297.525;  117.074;   -6.361;  781.236
298.124;  108.835;  -11.382;  654.009
298.722;  111.272;   -7.641;  761.933
299.321;  109.956;   -6.811;  708.597
299.919;  107.794;   -6.991;  751.918
300.518;  105.124;  -10.362;  689.338
301.116;  106.321;   -9.581;  691.381
301.715;  106.353;   -4.891;  730.222
302.313;  105.065;   -8.801;  704.943
302.911;  100.815;   -8.522;  733.830
303.509;  105.700;   -6.171;  925.627
304.108;  103.709;   -7.311;  760.383
304.706;  102.809;   -8.321;  801.664
305.304;   97.375;  -10.222;  796.707
305.902;  102.607;   -6.021;  784.484
306.500;   98.071;   -4.971;  728.200
307.098;   97.070;   -7.061;  746.560
307.696;   95.426;   -8.801;  780.432
308.294;   95.945;   -6.411;  731.359
308.892;   97.576;   -2.901;  759.769
309.490;   94.132;   -5.041;  712.161
310.088;   92.670;   -5.002;  788.444
310.686;   96.669;   -2.041;  821.749
311.284;   91.656;   -2.351;  766.040
311.882;   88.769;   -4.422;  731.225
312.480;   86.325;   -4.192;  697.167
313.078;   88.188;   -1.172;  808.331
313.675;   88.556;   -2.601;  691.600
314.273;   83.547;   -1.312;  797.837
314.871;   82.791;   -3.942;  589.829
315.468;   81.370;   -2.802;  652.090
316.066;   84.319;   -0.701;  694.427
316.664;   77.445;   -4.362;  656.351
317.261;   81.181;   -2.872;  910.128
317.859;   76.002;   -2.022;  768.735
318.456;   76.938;   -0.531;  830.096
319.054;   72.939;   -3.912;  787.828
319.651;   72.448;   -4.752;  759.928
320.249;   70.683;   -2.602;  810.188
320.846;   68.588;   -0.821;  714.286
321.443;   66.181;   -4.642;  832.135
322.041;   63.362;   -5.002;  812.315
322.638;   60.302;   -3.982;  701.456
323.235;   62.673;   -3.411;  665.683
323.833;   59.836;   -7.361;  740.354
324.430;   54.721;   -8.611;  615.900
325.027;   55.376;   -4.061;  876.855
325.624;   55.011;   -4.031;  644.532
326.221;   52.205;   -7.481;  689.717
326.818;   52.192;   -5.281;  818.332
327.415;   54.998;   -7.460;  748.828
328.012;   54.259;   -5.510;  690.585
328.609;   53.425;   -7.880;  731.389
329.206;   51.897;   -8.331;  778.621
329.803;   52.618;   -5.121;  737.841
330.400;   54.585;   -4.510;  704.260
330.997;   55.371;   -6.441;  817.147
331.594;   55.440;   -8.831;  788.185
332.191;   59.709;   -7.621;  728.722
332.787;   62.038;   -4.591;  844.463
333.384;   60.756;   -7.412;  763.093
333.981;   59.989;   -8.293;  815.687
334.578;   62.745;   -7.052;  708.378
335.174;   65.385;   -3.102;  731.469
335.771;   65.702;   -5.943;  836.456
336.367;   61.883;   -7.393;  710.631
336.964;   66.206;   -4.063;  793.266
337.561;   63.626;   -3.813;  731.112
338.157;   59.366;   -4.654;  911.916
338.754;   56.599;   -7.934;  796.589
339.350;   54.997;   -4.414;  722.493
339.946;   56.977;   -4.664;  773.135
340.543;   49.250;   -6.375;  846.136
341.139;   43.804;   -9.815;  720.836
341.735;   41.968;   -4.526;  772.593
342.332;   39.058;   -4.895;  691.472
342.928;   40.445;   -4.295;  795.394
343.524;   34.602;   -5.476;  761.684
344.120;   31.414;   -5.856;  738.562
344.716;   34.072;   -2.155;  723.717
345.313;   31.926;   -6.275;  795.342
345.909;   26.766;   -8.815;  627.336
346.505;   28.222;   -5.305;  740.247
347.101;   28.218;   -2.674;  827.864
347.697;   28.700;   -4.344;  785.398
348.293;   24.819;   -9.975;  627.244
348.889;   24.599;   -5.774;  745.914
349.485;   24.049;   -5.004;  688.205
350.081;   24.209;   -4.704;  772.592
350.676;   19.858;   -6.635;  691.606
351.272;   24.836;   -4.504;  809.530
351.868;   23.968;   -3.914;  780.497
352.464;   21.800;   -9.044;  723.932
353.059;   17.756;   -8.314;  646.017
353.655;   20.411;   -7.024;  777.063
354.251;   22.050;   -5.343;  759.845
354.846;   16.286;   -8.604;  740.646
355.442;   15.075;   -6.945;  753.071
356.038;   16.099;   -7.564;  751.708
356.633;   16.761;   -5.814;  728.594
357.229;   15.165;   -7.364;  724.757
357.824;   13.097;   -8.024;  703.600
358.420;   11.788;   -9.384;  679.726
359.015;   12.609;   -5.104;  695.357
359.610;   13.530;   -6.854;  763.920
360.206;    7.216;  -10.185;  603.240
360.801;    9.756;   -7.054;  646.503
361.396;   12.054;   -5.034;  725.975
361.992;    7.266;   -8.284;  668.220
362.587;    5.235;   -8.625;  670.160
363.182;    7.194;   -7.674;  689.631
363.777;    8.072;   -5.164;  738.242
364.372;    6.862;   -8.604;  737.314
364.967;    3.933;   -9.055;  680.744
365.563;    7.273;   -6.114;  815.567
366.158;    5.582;   -5.814;  685.161
366.753;    6.015;   -7.854;  649.263
367.348;    4.031;   -7.804;  746.056
367.942;    3.122;   -7.954;  697.298
368.537;    2.764;   -4.984;  754.245
369.132;    2.544;   -8.564;  703.428
369.727;   -0.708;   -8.855;  638.079
370.322;    0.631;   -6.245;  580.186
370.917;    0.752;   -6.425;  710.646
371.511;    3.527;   -6.294;  861.834
372.106;    0.539;   -7.685;  776.964
372.701;   -2.917;   -7.335;  585.988
373.296;    1.923;   -4.564;  863.135
373.890;   -2.332;  -10.235;  647.840
374.485;   -4.663;   -7.885;  691.199
375.079;   -1.458;   -7.324;  738.685
375.674;    0.547;   -3.494;  812.970
376.268;   -3.582;   -8.525;  691.759
376.863;   -9.191;  -10.086;  580.327
377.457;   -3.266;   -7.025;  662.490
378.052;   -5.774;   -3.585;  764.884
378.646;   -5.537;   -7.595;  741.167
379.240;   -5.925;   -8.335;  721.176
379.835;   -5.978;   -5.785;  636.978
380.429;   -6.968;   -4.335;  562.557
381.023;   -6.792;   -6.805;  779.205
381.617;   -9.832;   -9.195;  680.106
382.212;   -5.983;   -6.905;  685.303
382.806;   -4.983;   -3.745;  760.690
383.400;   -8.822;   -7.745;  672.281
383.994;  -10.570;   -9.765;  664.870
384.588;   -5.817;   -6.564;  697.701
385.182;   -5.635;   -5.344;  726.624
385.776;   -7.232;   -8.514;  706.875
386.370;  -10.522;   -9.555;  681.968
386.964;   -8.627;   -8.715;  684.155
387.558;   -7.287;   -6.174;  598.360
388.152;  -10.615;   -8.725;  681.959
388.745;   -8.728;   -7.965;  814.707
389.339;   -7.436;   -5.924;  747.642
389.933;   -6.271;   -5.524;  695.370
390.527;   -7.800;   -7.114;  859.029
391.120;  -13.476;  -10.725;  595.318
391.714;  -10.895;   -8.035;  711.633
392.308;   -7.659;   -3.574;  780.253
392.901;  -10.999;   -7.245;  642.460
393.495;  -12.758;   -9.285;  595.414
394.089;  -10.907;   -5.895;  760.452
394.682;  -11.318;   -4.295;  697.188
395.275;  -11.841;   -9.875;  719.927
395.869;  -13.294;   -8.485;  667.314
396.462;  -11.614;   -7.455;  616.609
397.056;   -7.527;   -5.424;  776.621
397.649;  -12.306;   -6.605;  731.575
398.242;   -9.956;   -8.224;  712.645
398.836;   -8.944;   -7.474;  766.408
399.429;  -10.105;   -7.094;  631.041
400.022;  -13.688;   -9.475;  665.902
400.615;  -11.147;   -7.145;  805.609
401.208;   -9.193;   -7.174;  691.451
401.802;  -11.487;   -5.515;  699.329
402.395;  -11.779;   -9.875;  683.502
402.988;  -13.501;   -8.845;  696.627
403.581;  -10.508;   -8.874;  646.878
404.174;   -7.533;   -5.324;  686.568
404.767;  -10.825;   -9.575;  638.583
405.360;  -13.545;  -10.965;  621.445
405.953;   -7.801;   -8.764;  759.034
406.545;   -7.002;   -7.514;  725.342
407.138;  -12.117;  -10.025;  618.350
407.731;  -10.339;  -10.034;  613.303
408.324;   -6.327;   -9.374;  660.554
408.917;   -7.140;   -6.534;  681.864
409.509;   -8.827;   -8.004;  740.396
410.102;  -11.073;   -9.875;  643.948
410.695;   -5.656;   -8.604;  665.758
411.287;   -6.535;   -6.794;  599.821
411.880;   -6.783;   -9.334;  585.421
412.472;   -9.756;  -10.254;  613.092
413.065;   -7.671;   -6.714;  629.408
413.657;   -5.294;   -7.234;  576.678
414.250;   -4.281;  -10.544;  646.681
414.842;   -6.641;   -9.744;  676.353
415.434;   -4.808;   -6.994;  570.463
416.027;   -0.177;   -5.893;  652.196
416.619;   -2.463;   -7.264;  713.400
417.211;   -2.991;  -10.374;  599.352
417.804;    0.749;   -7.993;  628.499
418.396;   -3.344;   -7.234;  607.643
418.988;   -1.206;   -9.443;  659.238
419.580;   -4.149;  -10.724;  568.276
420.172;   -2.100;  -10.323;  536.196
420.764;    1.408;   -8.793;  672.482
421.356;   -0.061;  -11.143;  636.898
421.948;    0.706;   -8.293;  677.661
422.540;    5.300;   -7.893;  680.027
423.132;    4.697;   -7.082;  600.641
423.724;    2.138;   -8.653;  561.267
424.316;    2.334;  -10.213;  621.345
424.908;    5.832;   -9.762;  591.517
425.500;    7.423;   -5.572;  647.978
426.092;    7.968;   -8.422;  648.268
426.683;    7.012;   -9.283;  684.836
427.275;    9.350;   -7.852;  641.471
427.867;   11.154;   -5.272;  668.948
428.458;   11.792;   -7.682;  732.344
429.050;   10.395;  -10.612;  680.749
429.642;   12.245;   -9.882;  743.124
430.233;   12.611;   -6.962;  569.356
430.825;   14.385;   -6.842;  724.809
431.416;   11.634;   -9.672;  698.241
432.008;   15.450;   -6.552;  651.723
432.599;   16.280;   -6.891;  656.073
433.190;   13.057;  -10.912;  637.670
433.782;   12.528;  -11.172;  590.395
434.373;   19.953;   -6.061;  884.765
434.964;   18.552;   -8.251;  602.920
435.556;   15.596;   -9.722;  634.537
436.147;   18.763;   -9.082;  758.490
436.738;   19.676;   -8.041;  701.099
437.329;   24.302;   -7.341;  721.723
437.920;   17.471;   -8.162;  666.688
438.511;   16.916;  -11.802;  564.526
439.103;   23.943;  -10.191;  623.998
439.694;   26.106;   -7.601;  681.583
440.285;   26.953;   -8.541;  764.432
440.876;   24.869;   -9.751;  845.738
441.466;   23.930;   -9.401;  575.162
442.057;   30.119;   -7.760;  665.814
442.648;   28.396;   -9.971;  746.255
443.239;   26.888;  -11.001;  620.477
443.830;   32.135;   -7.990;  704.958
444.421;   33.501;   -7.910;  655.474
445.011;   29.952;   -8.131;  693.619
445.602;   29.411;   -7.111;  743.126
446.193;   31.025;  -10.920;  488.117
446.783;   36.087;   -6.500;  640.397
447.374;   31.396;   -8.671;  692.759
447.964;   32.199;  -10.781;  713.770
448.555;   40.460;   -9.650;  822.742
449.145;   37.244;   -8.660;  662.853
449.736;   37.467;   -8.990;  803.179
450.326;   37.631;   -9.500;  713.626
450.917;   43.006;   -8.680;  675.324
451.507;   41.943;   -7.520;  600.661
452.097;   42.238;   -8.590;  746.267
452.688;   43.847;  -11.340;  742.160
453.278;   43.511;  -10.100;  566.840
453.868;   48.536;   -6.019;  793.550
454.458;   46.457;   -9.440;  651.141
455.048;   46.326;  -10.560;  711.783
455.639;   47.753;  -11.799;  567.096
456.229;   51.380;   -6.899;  710.694
456.819;   53.782;   -7.389;  751.158
457.409;   54.067;  -11.119;  773.993
457.999;   56.361;   -9.289;  737.505
458.589;   56.143;   -6.139;  686.606
459.179;   56.196;   -8.729;  717.658
459.769;   54.269;   -9.789;  627.099
460.358;   58.926;  -10.259;  797.262
460.948;   59.118;   -7.299;  689.503
461.538;   61.113;  -10.289;  660.677
462.128;   58.917;  -11.269;  664.934
462.717;   65.432;   -9.368;  710.326
463.307;   69.837;   -7.908;  705.846
463.897;   65.225;   -9.599;  656.942
464.486;   64.161;   -9.769;  837.128
465.076;   68.932;   -8.048;  733.776
465.666;   71.821;   -9.358;  652.900
466.255;   69.709;   -7.919;  785.651
466.845;   68.804;  -11.689;  666.749
467.434;   72.203;   -7.818;  725.873
468.023;   73.210;   -7.678;  658.357
468.613;   70.691;  -10.939;  713.946
469.202;   75.228;  -10.118;  646.507
469.791;   78.968;   -9.108;  737.811
470.381;   81.044;   -6.058;  742.813
470.970;   81.280;  -10.428;  711.099
471.559;   80.164;  -10.268;  733.291
472.148;   83.880;   -8.448;  675.737
472.738;   86.810;   -6.917;  765.466
473.327;   86.492;  -11.978;  637.529
473.916;   86.318;  -11.888;  737.446
474.505;   90.201;   -9.437;  751.703
475.094;   93.147;   -6.747;  806.570
475.683;   93.167;   -9.367;  797.699
476.272;   94.196;  -12.637;  730.632
476.861;   97.352;  -10.027;  706.754
477.449;  103.620;   -8.716;  728.487
478.038;   97.980;   -9.577;  692.513
478.627;   99.691;   -9.718;  714.852
479.216;  105.006;   -8.947;  769.441
479.805;  108.894;   -6.256;  783.375
480.393;  108.447;   -7.937; 1008.945
480.982;  108.479;   -7.717;  874.501
481.571;  114.192;   -9.266;  858.333
482.159;  114.465;   -7.636;  705.386
482.748;  114.399;   -9.667;  821.385
483.336;  119.628;  -10.376;  858.209
483.925;  119.426;   -7.147;  774.373
484.513;  126.911;   -7.996;  758.962
485.102;  123.831;  -10.027;  810.965
485.690;  132.385;  -10.446; 1011.050
486.278;  134.909;   -8.446;  979.329
486.867;  135.682;   -6.356;  809.662
487.455;  137.193;   -9.136;  898.229
488.043;  138.694;  -10.646;  748.361
488.631;  147.027;   -7.456; 1005.079
489.220;  151.630;   -6.636;  908.626
489.808;  151.669;  -11.036;  741.415
490.396;  160.254;  -10.246;  914.645
490.984;  166.314;   -8.556;  830.161
491.572;  177.775;   -5.886;  940.315
492.160;  182.503;   -9.486;  919.081
492.748;  195.969;  -10.976;  884.341
493.336;  219.372;   -8.776; 1019.693
493.924;  246.484;   -5.465;  958.077
494.512;  276.974;   -9.986; 1066.638
495.100;  318.022;  -10.636; 1103.280
495.687;  373.130;  -10.885; 1206.373
496.275;  437.645;   -8.126; 1150.796
496.863;  508.433;  -10.586; 1281.171
497.451;  613.606;  -11.926; 1386.805
498.038;  759.782;  -10.885; 1556.729
498.626;  877.894;   -6.315; 1741.407
499.214; 1025.990;   -7.326; 2016.609
499.801; 1230.850;  -11.906; 2220.633
500.389; 1506.227;  -10.466; 2312.494
500.976; 1845.139;   -5.236; 2744.849
501.564; 2286.310;   -8.936; 3148.565
502.151; 2671.622;  -13.176; 3515.999
502.738; 3165.454;  -10.646; 3971.274
503.326; 3603.246;   -9.525; 4403.796
503.913; 4022.203;  -10.856; 5161.749
504.500; 4373.530;  -11.586; 5986.420
505.088; 4858.155;  -10.336; 6381.201
505.675; 5412.233;   -6.355; 6925.547
506.262; 6097.498;   -9.046; 7619.060
506.849; 6902.770;  -10.416; 8733.969
507.436; 7395.833;  -10.305; 9790.121
508.023; 7950.826;   -5.496; 9985.472
508.610; 8261.439;   -7.856;10434.618
509.197; 8968.229;  -10.097;11198.435
509.784;10445.491;  -10.886;12391.194
510.371;11496.133;   -9.315;13603.713
510.958;12271.410;   -9.936;14426.586
511.545;13143.960;   -9.326;15243.775
512.132;14044.609;  -10.075;15945.876
512.719;14596.683;   -7.796;16340.369
513.305;15522.061;  -10.606;18011.766
513.892;16302.955;  -11.486;19754.971
514.479;17964.920;   -9.126;20967.805
515.066;19720.615;   -6.026;22299.793
515.652;20940.186;   -8.466;22908.660
516.239;22061.934;  -10.886;23798.875
516.825;23182.336;  -11.496;25567.275
517.412;24262.908;   -5.796;28154.959
517.998;25171.152;  -10.506;28344.111
518.585;25284.756;  -10.076;27134.219
519.171;25419.893;   -8.315;27268.576
519.758;26443.588;   -8.596;28964.129
520.344;28499.373;   -8.466;30664.494
520.930;29114.078;  -11.006;32550.605
521.516;31000.590;  -10.495;35422.895
522.103;33634.895;   -5.526;38280.004
522.689;34465.602;   -8.746;37835.117
523.275;34200.918;  -11.376;37288.613
523.861;34949.832;  -11.156;37281.395
524.447;35805.293;   -8.135;37846.949
525.033;35290.570;   -7.896;38321.949
525.619;35723.645;  -12.476;38579.285
526.205;37625.199;   -9.516;40622.875
526.791;40393.867;   -6.926;42258.836
527.377;40446.887;   -8.346;42966.902
527.963;42608.738;   -8.717;42018.949
528.549;41148.141;  -11.016;42476.828
529.135;39404.195;   -8.536;41854.852
529.721;38868.301;   -9.666;41237.711
530.306;38152.512;  -10.066;41259.445
530.892;38227.715;  -11.356;41506.047
531.478;39641.141;   -6.596;43559.613
532.063;41989.457;   -8.836;47695.563
532.649;42091.875;  -10.047;50808.324
533.235;43536.527;   -9.746;51787.500
533.820;45009.496;   -6.566;52145.035
534.406;45853.125;  -10.817;51133.488
534.991;45233.910;   -9.416;49996.805
535.576;44207.379;   -9.036;48882.852
536.162;44666.664;   -6.156;46942.285
536.747;45815.949;  -11.607;45711.746
537.333;49561.309;  -11.787;48510.180
537.918;52977.281;  -12.437;50439.891
538.503;51689.621;   -7.196;50863.711
539.088;48334.934;  -10.556;50906.922
539.673;47942.754;   -8.767;52621.965
540.259;47443.641;  -10.026;52368.094
540.844;44763.500;   -7.416;50879.109
541.429;45532.055;   -9.467;52077.777
542.014;49234.527;   -9.527;52716.695
542.599;49373.164;   -9.946;52363.281
543.184;46386.137;   -7.927;53187.137
543.769;47075.176;   -9.297;54697.605
544.354;46471.574;  -10.127;53913.914
544.938;45583.883;   -9.267;49680.164
545.523;47926.563;   -6.506;47386.277
546.108;50517.867;   -9.787;49151.949
546.693;52937.805;  -11.587;51384.637
547.278;52450.379;  -10.986;51853.254
547.862;48996.496;   -8.206;51173.750
548.447;44367.523;  -10.067;51691.395
549.031;43829.293;   -9.637;52456.703
549.616;48661.254;   -9.926;52714.516
550.201;47941.852;   -6.347;52414.598
550.785;48684.641;   -7.917;52355.059
551.370;48186.008;  -10.867;54589.453
551.954;48118.605;   -9.047;58267.348
552.538;49727.035;   -7.827;59062.176
553.123;48098.965;  -10.287;58115.285
553.707;45491.742;  -12.178;56556.285
554.291;45929.824;   -8.717;56201.668
554.876;47522.797;   -7.457;55335.762
555.460;48302.105;  -10.387;54155.703
556.044;50435.625;   -9.618;53721.484
556.628;48834.398;  -11.567;53731.016
557.212;47395.895;   -8.097;54312.531
557.796;45432.684;  -11.077;53797.773
558.380;45547.688;  -11.108;56145.984
558.964;46674.738;   -9.057;57277.930
559.548;47904.250;   -6.977;56459.641
560.132;45905.074;  -11.457;54434.543
560.716;44492.871;  -11.378;54800.617
561.300;45107.645;   -9.577;57606.945
561.884;46255.352;   -7.127;58972.445
562.467;45372.727;   -7.118;57327.570
563.051;44998.422;  -13.358;54962.434
563.635;45119.148;  -10.178;52594.473
564.219;45189.227;   -7.837;50610.410
564.802;45990.727;  -11.398;49551.180
565.386;46447.785;  -12.788;48370.953
565.969;46173.168;   -9.077;48178.871
566.553;45233.652;   -6.207;49957.305
567.136;45440.473;   -8.568;50369.594
567.720;41594.570;  -11.868;49492.004
568.303;39703.133;   -8.268;50616.352
568.887;39631.480;   -8.698;50727.148
569.470;39844.953;   -6.808;51698.379
570.053;38780.516;  -13.188;52122.078
570.637;37510.406;  -12.037;52536.438
571.220;36966.676;   -8.577;51186.098
571.803;37018.285;   -8.498;51032.762
572.386;39057.801;  -10.498;49609.887
572.969;41865.461;   -9.388;48285.926
573.552;40495.359;   -8.338;47624.285
574.135;39431.301;   -8.518;45498.641
574.718;36655.531;  -13.628;41970.434
575.301;35536.625;  -10.893;41447.137
575.884;34417.723;   -8.158;40923.836
576.467;35519.871;  -10.328;45267.723
577.050;37680.043;  -13.058;48175.543
577.633;39428.082;   -9.458;47729.328
578.216;38283.379;   -8.928;47579.793
578.799;37120.035;   -9.358;47820.996
579.381;35616.516;  -11.388;48115.551
579.964;33806.648;  -11.718;47333.766
580.547;35296.531;   -8.588;46668.969
581.129;36250.145;   -8.859;44466.141
581.712;36749.074;  -10.729;44164.922
582.294;37670.488;  -11.118;46477.855
582.877;37931.496;   -5.218;48244.254
583.459;35750.164;   -8.679;47437.895
584.042;34075.227;  -10.709;46943.219
584.624;34567.887;  -11.669;46792.227
585.206;33871.348;   -8.218;46557.250
585.789;33912.008;  -10.569;45793.773
586.371;36865.805;  -11.859;43836.391
586.953;37809.105;  -10.719;42972.492
587.536;38669.609;   -7.198;42487.211
588.118;38697.988;   -8.720;42086.414
588.700;35010.879;  -10.439;43389.930
589.282;33986.668;   -9.198;43646.039
589.864;34803.102;   -9.199;43438.109
590.446;36141.035;  -11.319;43151.926
591.028;36062.566;  -11.159;42781.867
591.610;34973.301;  -11.779;42839.098
592.192;32048.316;   -7.668;42820.402
592.774;30344.102;  -11.949;40724.277
593.356;29104.650;  -12.129;39874.789
593.937;28620.475;  -10.669;39980.648
594.519;30564.902;   -6.509;42069.633
595.101;32886.230;  -10.849;42976.031
595.683;33232.590;  -11.679;44084.441
596.264;34447.789;   -9.049;43478.797
596.846;33219.191;   -8.849;43803.672
597.427;32466.445;   -9.570;42986.934
598.009;34125.547;  -12.620;42832.219
598.591;34568.723;  -10.039;42580.086
599.172;33915.504;  -10.369;43061.805
599.753;34026.965;   -9.140;41691.469
600.335;35843.336;  -11.430;40692.520
600.916;34402.758;   -9.939;39982.422
601.498;31546.459;   -8.479;40318.617
602.079;30076.576;  -10.920;40670.609
602.660;30039.195;  -11.480;41450.898
603.241;31247.371;  -11.699;41137.738
603.823;30231.268;   -9.579;38868.797
604.404;29924.621;  -10.620;38182.785
604.985;31272.297;  -10.450;38078.047
605.566;30486.877;   -9.129;38056.633
606.147;30371.963;   -7.510;37020.418
606.728;32626.855;  -10.660;37883.359
607.309;31777.529;  -11.740;38748.273
607.890;30937.014;   -9.759;38850.230
608.471;30706.426;   -8.250;37457.918
609.051;30083.254;   -9.240;36066.457
609.632;29021.240;  -12.120;35991.074
610.213;29832.625;   -9.110;37402.641
610.794;30348.457;   -8.030;38383.363
611.374;29539.920;   -8.110;40562.387
611.955;29898.932;  -13.560;38533.727
612.536;31553.842;  -11.400;36951.789
613.116;31215.402;   -8.070;37197.891
613.697;31576.811;  -10.830;38411.125
614.277;30037.395;  -11.641;38673.938
614.858;30799.785;  -13.310;37075.863
615.438;30054.961;   -7.460;35092.906
616.019;27300.547;   -7.601;33666.301
616.599;28011.066;  -12.020;34189.023
617.179;29981.488;  -11.780;36952.047
617.760;30742.568;   -8.570;39582.574
618.340;32081.719;  -11.471;38943.977
618.920;33736.012;  -11.170;37594.156
619.500;33170.605;  -11.071;37866.938
620.080;32300.906;   -7.750;37869.043
620.660;33198.000;  -12.711;36868.617
621.241;34005.242;  -10.211;36352.309
621.821;34098.531;  -10.961;35459.520
622.401;33793.301;   -7.720;35207.414
622.980;32935.230;   -8.981;35980.422
623.560;31284.961;   -9.331;37351.328
624.140;30382.063;   -9.850;34388.582
624.720;25589.201;   -7.451;32368.764
625.300;21846.883;   -9.070;32638.629
625.880;25082.949;  -12.601;34599.035
626.459;28897.100;  -11.751;36831.738
627.039;32043.125;   -9.281;38299.098
627.619;32074.484;   -8.801;38289.574
628.198;30305.178;  -12.071;37220.695
628.778;29648.611;   -9.461;37632.563
629.357;30506.869;   -8.491;38003.012
629.937;30325.453;   -9.721;38402.039
630.516;29535.865;   -9.951;37868.801
631.096;29397.350;  -11.731;35760.410
631.675;32216.922;   -8.572;35225.219
632.254;37436.113;  -11.282;35130.289
632.834;36900.984;  -13.322;35794.570
633.413;34919.160;  -10.301;35788.922
633.992;31928.723;   -8.582;34532.863
634.571;33176.398;   -8.352;33590.113
635.151;36132.840;  -11.912;34943.863
635.730;34342.309;  -10.511;35352.523
636.309;30920.254;   -7.731;35366.605
636.888;28329.445;   -9.952;36165.637
637.467;29036.920;  -11.672;37515.902
638.046;31170.424;   -8.901;39288.695
638.625;34212.125;   -7.912;38279.699
639.204;33975.906;  -10.022;37741.598
639.782;32034.619;  -12.252;38364.551
640.361;28364.660;  -10.041;36740.621
640.940;25417.828;  -11.161;34950.082
641.519;25797.854;   -9.701;34137.398
642.097;28349.811;  -11.271;35654.258
642.676;31478.732;   -8.651;35637.957
643.255;32507.486;   -8.711;36567.074
643.833;31496.939;   -9.581;37809.434
644.412;31860.506;  -13.711;37337.293
644.990;31260.971;  -11.811;37018.531
645.569;30915.955;   -9.411;36518.469
646.147;29599.617;  -10.291;36186.430
646.726;28859.830;  -12.401;36267.688
647.304;30342.078;  -10.411;36647.625
647.882;32269.871;   -9.651;39286.742
648.461;33710.098;   -9.631;39157.703
649.039;32370.580;  -11.881;35412.883
649.617;32034.965;   -9.661;34744.918
650.195;31928.930;   -9.301;35403.098
650.773;30866.895;  -10.511;35053.797
651.352;28145.875;  -11.521;33756.816
651.930;25615.406;  -12.211;31868.773
652.508;23921.105;   -9.171;33121.551
653.086;27555.982;   -9.371;33564.793
653.663;30650.898;  -13.161;34054.668
654.241;29439.410;  -13.031;35693.309
654.819;31240.574;   -9.371;36422.906
655.397;31332.080;  -10.511;38213.484
655.975;31108.813;  -10.371;39507.625
656.553;31331.943;  -10.051;39498.223
657.130;29571.381;  -10.061;40395.480
657.708;28734.291;   -9.561;39242.020
658.286;28619.387;  -11.511;38920.020
658.863;29790.740;  -10.261;40202.898
659.441;32387.936;   -7.531;39677.938
660.018;31566.271;   -9.501;40413.355
660.596;30622.414;  -13.301;39931.414
661.173;32919.484;  -11.211;39604.531
661.750;33053.023;   -9.951;39700.070
662.328;31774.340;   -9.390;39292.809
662.905;31070.188;  -11.330;38235.648
663.482;26882.877;   -9.050;36212.305
664.060;24758.023;   -8.240;35944.945
664.637;27364.182;  -10.050;35170.785
665.214;29225.330;  -11.760;34197.523
665.791;30962.717;  -10.530;34549.520
666.368;29683.010;   -9.690;35118.578
666.945;30084.545;   -9.320;36019.418
667.522;31677.016;  -11.860;36048.438
668.099;32142.174;  -10.770;36243.914
668.676;31637.896;   -6.260;35958.875
669.253;29945.383;   -7.000;37384.730
669.830;30205.078;  -10.190;36779.629
670.407;29834.355;   -9.550;35231.289
670.984;29993.311;   -9.260;35544.270
671.560;30239.508;   -9.280;35466.867
672.137;28920.900;  -11.810;34280.863
672.714;29684.779;  -11.490;34632.863
673.290;29906.297;   -7.740;35135.422
673.867;30060.846;  -10.660;36114.480
674.443;30548.051;  -12.230;36152.859
675.020;28971.451;  -10.450;35327.238
675.596;29950.135;   -9.260;35795.176
676.173;30327.025;  -10.780;35430.355
676.749;29943.111;  -13.690;33549.516
677.326;30280.869;  -11.980;32210.012
677.902;30555.555;   -8.630;32068.871
678.478;29763.264;  -10.730;32583.891
679.054;29414.594;  -10.520;32088.928
679.631;30073.953;  -11.920;30978.848
680.207;31000.072;   -7.490;33160.887
680.783;32389.523;   -9.860;35570.363
681.359;31650.430;  -13.380;36125.184
681.935;30631.764;  -12.480;35240.922
682.511;29300.787;   -7.900;34429.961
683.087;29133.320;   -7.710;34463.680
683.663;29103.959;  -11.480;34648.898
684.239;28359.852;  -14.090;34546.457
684.815;27953.537;   -7.560;35586.375
685.390;28360.117;   -9.910;35821.895
685.966;28895.936;  -11.159;35085.871
686.542;31603.973;  -11.169;34198.230
687.118;33660.672;   -5.959;32847.707
687.693;33754.234;  -10.329;32794.027
688.269;33047.863;  -12.059;33072.367
688.844;30992.627;  -10.909;33141.664
689.420;28976.781;   -8.019;33965.742
689.995;26683.596;   -8.399;34655.523
690.571;25369.031;  -10.949;33576.742
691.146;25916.182;   -9.619;32657.219
691.722;25254.443;   -8.999;32526.979
692.297;25083.734;  -11.589;33014.617
692.872;27214.299;  -11.739;34012.254
693.448;26716.367;  -11.059;34237.434
694.023;25803.145;  -10.139;34142.672
694.598;27852.932;   -9.029;34132.031
695.173;28114.127;  -13.319;34205.250
695.748;27525.043;  -10.169;32882.488
696.323;27403.188;   -8.339;32864.906
696.898;27411.201;   -8.169;33170.004
697.473;27174.355;  -12.309;32432.984
698.048;26938.164;  -10.989;31649.303
698.623;27382.641;   -9.329;30778.141
699.198;29425.006;   -9.849;31140.119
699.773;30253.221;  -12.329;31764.299
700.348;28520.322;  -10.389;31780.816
700.922;28562.445;   -9.269;32046.375
701.497;29049.826;   -9.329;32603.574
702.072;29277.650;  -10.789;34799.871
702.646;28446.131;  -10.839;35793.172
703.221;26371.318;   -9.099;35201.590
703.795;28397.648;  -10.939;34764.527
704.370;28921.928;  -12.859;34307.367
704.944;29309.355;  -11.559;33509.887
705.519;30364.184;   -7.939;31388.584
706.093;31447.658;  -10.499;31340.104
706.668;31622.307;  -11.289;32630.281
707.242;30135.465;  -11.509;32728.779
707.816;28530.455;   -9.639;32947.238
708.390;27248.732;  -11.429;33277.855
708.965;28148.781;  -11.869;33834.336
709.539;28691.893;  -11.689;33709.273
710.113;29264.238;  -10.478;33044.313
710.687;28560.564;  -10.228;31953.992
711.261;26346.996;  -13.698;30505.949
711.835;26088.404;  -13.378;30262.369
712.409;27148.518;   -9.698;31254.447
712.983;28689.617;  -11.898;32754.986
713.557;29544.119;  -15.138;34018.824
714.131;29333.945;  -14.098;34579.625
714.704;28387.588;   -9.958;33890.262
715.278;25909.869;  -10.028;33531.102
715.852;25215.180;  -11.148;33601.660
716.425;26058.016;   -9.068;33515.117
716.999;26500.785;  -10.038;33185.555
717.573;27529.342;   -9.798;33905.996
718.146;28851.814;  -12.378;35199.293
718.720;28474.186;  -11.918;35060.551
719.293;27806.131;   -8.088;34973.230
719.867;30617.404;  -10.888;36394.449
720.440;30731.723;  -11.938;36663.008
721.013;29353.943;  -12.818;35102.426
721.587;27966.541;  -10.298;33985.266
722.160;26294.826;  -10.048;33524.965
722.733;25434.326;  -12.108;32987.043
723.306;26225.400;  -10.818;33066.301
723.880;28357.604;   -8.908;33399.500
724.453;30044.969;   -9.878;33468.297
725.026;28907.264;  -11.188;33816.637
725.599;26155.941;  -11.678;32797.996
726.172;26485.660;   -9.618;33187.434
726.745;27809.193;   -8.258;35136.613
727.318;29544.041;  -12.978;35751.730
727.891;30367.480;  -12.148;35890.430
728.463;30245.305;   -8.968;34822.090
729.036;29042.166;  -10.188;32895.086
729.609;29210.730;  -11.788;31823.225
730.182;25816.922;  -11.788;31445.283
730.754;23204.547;  -10.268;32373.223
731.327;23243.088;   -9.998;33676.820
731.900;23385.943;  -12.228;33417.000
732.472;24939.889;  -13.848;31978.498
733.045;27186.664;   -8.698;30368.777
733.617;27196.203;  -10.607;30574.215
734.190;26629.797;  -11.507;31280.975
734.762;23767.033;  -13.647;31674.412
735.334;22161.865;   -9.767;31247.291
735.907;22614.992;   -9.897;29876.211
736.479;22313.576;  -11.637;29808.488
737.051;21947.580;   -9.567;30233.547
737.623;23458.744;   -8.187;31469.086
738.195;24630.818;  -11.187;31784.225
738.768;26250.756;  -12.337;32120.523
739.340;26045.805;  -12.227;32094.342
739.912;24765.969;  -11.057;31312.680
740.484;23641.643;  -10.207;31946.238
741.056;22745.781;  -10.047;32984.059
741.628;24617.355;  -13.627;33897.715
742.199;26928.922;   -7.177;33213.016
742.771;25153.502;  -10.797;31369.113
743.343;22688.533;  -11.997;31865.473
743.915;21479.396;  -12.867;32388.631
744.487;21743.094;   -7.617;31079.568
745.058;21981.895;   -9.557;30570.107
745.630;22721.545;   -9.877;29970.127
746.201;23625.219;  -14.177;29186.766
746.773;23864.293;   -9.237;28805.723
747.344;23642.158;   -9.847;29591.223
747.916;22194.721;  -11.657;31412.201
748.487;22005.820;  -10.587;32194.898
749.059;23323.582;   -8.707;32533.719
749.630;24536.119;  -10.537;32158.518
750.201;23629.539;  -11.687;30855.395
750.773;21873.992;  -11.647;28622.555
751.344;21979.486;   -7.147;28405.732
751.915;23078.193;   -9.757;28461.551
752.486;22288.275;  -12.427;27842.850
753.057;19901.025;  -12.227;27845.008
753.628;18789.887;  -10.417;27728.107
754.199;20099.451;  -11.767;27381.086
754.770;21292.391;  -11.187;25882.203
755.341;21200.506;  -10.507;25886.184
755.912;21328.648;   -9.387;26050.861
756.483;20629.201;  -10.647;26798.779
757.054;18844.271;  -11.837;27048.238
757.625;17616.877;  -12.716;26294.838
758.195;17308.613;   -9.666;26142.076
758.766;16943.750;   -8.656;26392.234
759.337;17884.318;  -12.856;26334.594
759.907;19905.613;  -13.366;27579.652
760.478;20810.900;   -8.576;28352.770
761.048;20254.129;  -10.526;27325.088
761.619;19526.912;  -11.116;26460.428
762.189;19397.898;  -12.136;26029.826
762.760;20246.324;   -9.456;26430.145
763.330;21429.367;   -7.136;26670.902
763.900;20778.064;  -11.786;26603.021
764.471;17974.426;  -11.546;25542.740
765.041;16717.643;   -8.096;24358.459
765.611;17020.791;   -8.876;23991.297
766.181;17579.492;  -12.196;24470.236
766.751;18286.367;  -11.636;24845.975
767.321;18109.299;  -10.156;24533.633
767.891;16255.585;  -11.766;24916.492
768.461;15691.971;  -14.936;24776.771
769.031;16072.144;  -12.356;24757.988
769.601;17775.410;   -7.526;24181.088
770.171;17849.357;  -10.766;23670.387
770.741;16968.418;  -13.176;22960.045
771.311;17083.846;  -10.616;22917.523
771.880;17297.146;   -9.576;23562.941
772.450;16640.607;  -10.336;24216.500
773.020;16588.674;  -13.516;24140.398
773.589;16378.989;  -13.466;24414.857
774.159;16050.013;   -8.686;23858.717
774.729;15677.282;   -9.476;22942.135
775.298;15096.982;  -13.666;22324.033
775.867;14656.407;  -11.716;21140.313
776.437;14643.017;   -9.906;20838.092
777.006;14321.148;  -12.166;20599.510
777.576;14334.403;  -12.356;20508.809
778.145;14539.297;  -11.646;20732.947
778.714;14363.699;   -8.226;21062.465
779.283;13498.313;   -9.556;20949.664
779.853;13132.655;  -14.116;20508.623
780.422;13587.369;  -11.506;20649.082
780.991;13172.230;   -9.556;21527.520
781.560;12174.854;   -9.095;22632.658
782.129;12056.130;  -12.135;23048.277
782.698;12035.685;  -10.865;23438.555
783.267;11656.205;   -9.335;23267.734
783.836;11570.857;  -11.045;22415.133
784.404;12499.988;  -13.865;20443.152
784.973;12894.354;  -13.095;19699.150
785.542;12694.813;  -11.575;19763.828
786.111;12549.834;   -9.705;20341.408
786.679;12230.938;  -12.105;20207.967
787.248;12087.730;  -12.455;19516.465
787.817;11887.374;  -11.535;18900.363
788.385;11457.354;   -9.765;17879.121
788.954;10819.356;  -14.005;17658.301
789.522;10338.621;  -11.955;17788.879
790.090;10915.297;  -10.135;18118.277
790.659;11258.466;  -10.975;18338.736
791.227;10649.596;  -13.375;18508.615
791.795;11113.637;  -12.375;17898.254
792.364;11541.255;  -10.725;17295.133
792.932;11814.728;   -9.715;16822.051
793.500;11939.204;  -12.675;17040.148
794.068;12149.961;  -13.495;17179.787
794.636;12313.167;  -10.885;16664.246
795.204;11832.485;  -11.045;16524.545
795.772;11843.467;  -13.175;17274.564
796.340;11398.285;  -12.445;17891.002
796.908;11251.270;   -9.735;17648.561
797.476;11228.170;   -9.815;17064.080
798.044;10804.837;  -13.985;16672.777
798.612; 9927.852;  -13.115;17023.996
799.180; 9548.441;  -10.185;16561.615
799.747; 9436.268;   -9.055;15962.773
800.315; 9109.731;  -12.385;15296.992
800.883; 8779.291;  -15.035;14801.771
801.450; 8741.730;  -10.365;14534.430
802.018; 8768.488;   -9.855;14173.248
802.585; 8816.083;  -11.905;14029.547
803.153; 8875.466;  -11.585;13836.846
803.720; 8844.554;   -9.095;13567.324
804.287; 8554.791;   -9.135;13360.622
804.855; 8121.713;  -11.604;13681.981
805.422; 7949.127;  -11.794;13536.560
805.989; 7906.374;  -10.734;13355.958
806.556; 8047.670;  -10.444;13747.896
807.124; 8327.396;  -12.764;13987.376
807.691; 8256.394;  -12.964;14038.674
808.258; 8068.107;  -11.134;14120.152
808.825; 7773.274;   -9.854;13860.111
809.392; 7836.013;  -10.504;13268.790
809.959; 7373.277;  -13.054;12680.389
810.526; 6993.808;   -8.294;12427.308
811.093; 7051.547;   -8.394;12030.105
811.659; 7608.931;  -12.304;11653.664
812.226; 8028.869;  -13.944;11637.183
812.793; 7711.089;  -10.484;11611.521
813.360; 7082.903;  -10.144;11885.181
813.926; 6686.326;  -11.684;12770.539
814.493; 6418.570;  -13.644;12677.638
815.060; 6093.593;   -9.724;11974.336
815.626; 6180.266;   -9.854;11594.715
816.193; 6632.532;  -13.254;11579.474
816.759; 6675.463;  -13.204;11666.972
817.325; 6784.771;   -9.434;11325.530
817.892; 7142.166;  -10.134;11105.369
818.458; 7531.336;  -13.474;10843.928
819.024; 7177.219;  -11.854;10714.406
819.591; 6807.221;  -10.244;10469.165
820.157; 6525.179;  -10.704;10235.523
820.723; 6030.849;  -12.324;10847.563
821.289; 5786.635;   -9.444;11040.980
821.855; 5749.674;   -8.374;10357.100
822.421; 5802.540;  -10.234; 9978.918
822.987; 5798.036;  -13.294; 9754.177
823.553; 5479.337;  -10.884;10065.755
824.119; 5292.253;   -8.884;10036.294
824.685; 5344.042;   -6.784;10029.192
825.251; 5410.975;  -12.004;10199.230
825.816; 5364.837;  -11.474; 9820.189
826.382; 5179.231;   -9.174; 9297.248
826.948; 5397.634;   -9.214; 9381.347
827.513; 5802.516;  -10.774; 9450.726
828.079; 5621.034;  -11.924; 9472.444
828.645; 5047.883;  -10.543; 9292.643
829.210; 4962.803;  -10.533; 9065.341
829.776; 4942.951;  -10.753; 9132.620
830.341; 4818.782;  -10.173; 9092.878
830.906; 4995.352;  -10.743; 9078.557
831.472; 5356.646;  -11.113; 8534.535
832.037; 5133.970;  -10.603; 8677.874
832.602; 4574.416;  -13.323; 8628.692
833.167; 4227.654;  -10.823; 8879.031
833.733; 4151.354;  -10.113; 9189.790
834.298; 4250.594;  -13.583; 9052.608
834.863; 4262.613;  -12.703; 8895.087
835.428; 4222.599;  -10.523; 8824.266
835.993; 4143.676;   -6.963; 8845.385
836.558; 4045.967;  -10.763; 8888.563
837.123; 4172.113;   -9.903; 8966.582
837.688; 4367.417;   -9.913; 8617.860
838.253; 4563.496;  -10.283; 8590.699
838.817; 4764.313;  -12.963; 8443.797
839.382; 4690.162;  -14.243; 8799.356
839.947; 4389.019;  -10.733; 8810.595
840.511; 4084.709;   -9.383; 8796.394
841.076; 3739.714;  -12.563; 8347.231
841.641; 3773.835;  -12.953; 8224.330
842.205; 3841.067;   -7.043; 8223.349
842.770; 3970.520;   -8.163; 8622.107
843.334; 4221.854;  -12.503; 8410.386
843.898; 4218.513;  -11.693; 8337.465
844.463; 4225.605;  -10.203; 8506.283
845.027; 3967.639;   -9.533; 8280.962
845.591; 3764.970;  -13.443; 8231.141
846.156; 3786.490;  -13.143; 7969.179
846.720; 3666.861;   -9.433; 7768.278
847.284; 3539.823;  -11.033; 7630.957
847.848; 3384.138;  -10.403; 7472.395
848.412; 3298.509;  -11.553; 7437.394
848.976; 3357.646;   -8.393; 7674.592
849.540; 3303.740;   -8.713; 7836.011
850.104; 3386.868;  -12.463; 7913.669
850.668; 3716.003;  -12.973; 7694.508
851.232; 3827.126;  -10.793; 7756.887
851.796; 3665.876;  -10.662; 7926.545
852.359; 3366.730;  -13.082; 7827.844
852.923; 3210.225;  -12.192; 7641.163
853.487; 3039.153;  -11.912; 7342.501
854.050; 2970.017;  -10.892; 7042.820
854.614; 3111.224;  -13.992; 7151.338
855.177; 3239.203;  -11.732; 7105.077
855.741; 3296.636;   -8.962; 6989.675
856.304; 3189.188;   -9.442; 6596.634
856.868; 3107.214;  -14.192; 6356.272
857.431; 3205.587;  -12.702; 6468.571
857.995; 3312.489;   -9.942; 6373.210
858.558; 3332.956;   -9.112; 6324.448
859.121; 3081.979;  -12.932; 6408.327
859.684; 2963.613;  -13.442; 6347.886
860.247; 3088.831;  -10.632; 6321.264
860.810; 3072.210;  -11.272; 6301.903
861.374; 2829.845;   -9.832; 6607.881
861.937; 2584.612;  -11.762; 6408.200
862.500; 2548.754;   -9.722; 6572.639
863.062; 2697.919;  -10.512; 6387.297
863.625; 2867.098;  -11.232; 6190.836
864.188; 3017.531;  -14.112; 5807.254
864.751; 3057.229;  -11.302; 5682.413
865.314; 2941.270;  -10.112; 5547.492
865.876; 2766.524;  -12.182; 5500.150
866.439; 2776.645;  -10.722; 5415.909
867.002; 2735.063;   -9.252; 5501.567
867.564; 2517.075;   -9.572; 5413.946
868.127; 2309.863;  -13.142; 5160.325
868.689; 2231.716;  -12.902; 5133.183
869.252; 2173.564;   -9.732; 5252.382
869.814; 2099.171;   -9.432; 5297.141
870.377; 2108.739;  -11.552; 5390.919
870.939; 2171.051;   -9.052; 5599.898
871.501; 2218.879;  -10.982; 5248.336
872.063; 2216.000;  -12.292; 4854.235
872.626; 2180.216;  -14.912; 4817.074
873.188; 2194.064;  -13.112; 4987.732
873.750; 2147.866;  -13.442; 4868.651
874.312; 2041.178;   -9.402; 4779.330
874.874; 1951.985;  -11.062; 4866.348
875.436; 1875.134;  -13.931; 4718.887
875.998; 1870.037;   -9.561; 4660.005
876.560; 1879.538;  -11.321; 4462.964
877.122; 1823.736;  -12.221; 4145.042
877.683; 1733.692;  -12.191; 4056.481
878.245; 1666.648;  -12.101; 3950.740
878.807; 1693.368;   -8.971; 4058.958
879.369; 1704.680;  -12.071; 3954.677
879.930; 1608.236;  -14.621; 3941.495
880.492; 1554.402;  -10.311; 4067.014
881.053; 1529.870;  -10.901; 3859.633
881.615; 1424.728;  -14.411; 3776.071
882.176; 1343.828;  -13.761; 3734.750
882.738; 1318.635;   -9.181; 3678.489
883.299; 1294.220;  -11.791; 3405.407
883.860; 1289.778;  -13.121; 3351.106
884.422; 1299.705;  -11.211; 3394.044
884.983; 1255.604;  -10.091; 3166.443
885.544; 1158.207;   -8.461; 3189.802
886.105; 1081.502;  -12.361; 3160.360
886.666; 1021.271;  -14.141; 3093.059
887.227;  969.203;  -11.361; 2941.957
887.788;  902.940;  -11.401; 2974.836
888.349;  844.270;  -13.791; 2721.214
888.910;  847.396;  -13.191; 2696.493
889.471;  859.566;   -9.881; 2560.172
890.032;  844.646;   -9.881; 2558.190
890.593;  818.286;  -10.371; 2567.669
891.153;  789.406;  -13.301; 2460.307
891.714;  742.451;  -11.431; 2372.046
892.275;  704.219;  -11.291; 2309.505
892.835;  667.928;  -11.471; 2382.543
893.396;  612.635;  -11.541; 2295.502
893.956;  560.867;  -11.181; 2162.420
894.517;  524.972;  -11.741; 2125.439
895.077;  519.385;  -11.671; 2086.978
895.638;  515.543;  -11.311; 2126.316
896.198;  487.552;   -9.831; 1838.275
896.758;  444.401;   -8.421; 1892.813
897.319;  412.553;  -12.351; 1792.232
897.879;  395.283;  -13.511; 1762.751
898.439;  370.297;  -12.001; 1661.149
898.999;  345.578;  -10.180; 1781.468
899.559;  336.510;  -12.030; 1703.347
900.119;  332.968;  -15.710; 1537.525
900.679;  329.466;   -8.900; 1638.384
901.239;  316.679;   -8.340; 1527.902
901.799;  306.340;  -13.910; 1456.441
902.359;  299.281;  -13.460; 1357.140
902.919;  291.082;  -11.490; 1331.118
903.479;  279.522;  -12.110; 1317.257
904.038;  256.392;  -11.720; 1262.595
904.598;  242.146;  -13.610; 1152.034
905.158;  237.494;  -11.040; 1240.893
905.717;  230.381;  -10.900; 1233.691
906.277;  220.395;  -15.080; 1217.330
906.836;  210.408;  -13.380; 1222.408
907.396;  203.573;  -10.780; 1193.047
907.955;  197.231;   -8.500; 1182.526
908.515;  191.124;  -12.760; 1099.364
909.074;  184.501;  -11.900; 1092.863
909.633;  178.597;   -8.950; 1069.121
910.192;  174.213;   -8.770; 1196.460
910.752;  169.285;  -12.390; 1029.960
911.311;  165.615;  -13.680; 1009.780
911.870;  163.139;  -12.370;  971.460
912.429;  163.577;  -10.900; 1094.080
912.988;  162.700;  -11.690; 1081.060
913.547;  157.585;  -13.240;  940.380
914.106;  152.250;  -11.990;  999.420
914.665;  149.271;   -9.990;  984.020
915.224;  148.553;  -12.880; 1035.760
915.782;  147.846;  -12.350;  922.560
916.341;  147.233;   -9.110; 1049.840
916.900;  143.876;   -9.270;  925.260
917.458;  143.026;  -13.240;  884.220
918.017;  141.553;  -13.550;  942.600
918.576;  140.924;  -12.320;  904.440
919.134;  139.380;  -11.490;  837.980
919.693;  137.658;  -13.670;  893.060
920.251;  135.378;  -15.470;  876.500
920.809;  134.294;  -11.290;  839.580
921.368;  134.862;  -10.210;  885.360
921.926;  132.832;  -12.140;  842.940
922.484;  131.835;  -13.080;  903.360
923.042;  131.169;  -11.720;  880.340
923.601;  134.037;   -7.480;  998.680
924.159;  132.504;  -11.570;  935.560
924.717;  129.100;  -13.840;  841.080
925.275;  129.883;  -10.640;  903.240
925.833;  128.820;  -11.540;  779.320
926.391;  130.927;  -12.960;  938.380
926.949;  128.419;  -14.130;  857.680
927.506;  128.990;  -11.750;  903.500
928.064;  128.766;  -10.250;  877.580
928.622;  128.144;  -13.030;  880.100
929.180;  126.805;  -13.400;  814.180
929.737;  128.894;  -10.700;  808.540
930.295;  131.542;  -10.070;  928.480
930.853;  133.482;  -11.960;  849.100
931.410;  134.142;  -13.120;  821.120
931.968;  134.241;  -10.770;  940.660
932.525;  133.016;  -10.680;  909.380
933.082;  132.888;  -13.130;  811.440
933.640;  135.102;  -13.210;  925.900
934.197;  132.358;  -11.060;  886.360
934.754;  133.377;   -9.580;  897.780
935.312;  136.425;  -14.000;  863.340
935.869;  140.401;  -10.710; 1012.980
936.426;  139.695;   -9.860;  872.800
936.983;  141.485;   -9.710;  889.020
937.540;  141.200;  -13.990;  838.280
938.097;  139.228;  -14.040;  940.120
938.654;  140.041;  -10.310;  898.860
939.211;  142.538;  -10.560;  952.480
939.768;  146.358;  -13.900;  915.420
940.324;  149.639;  -14.760;  904.200
940.881;  150.135;  -10.370;  878.500
941.438;  150.709;   -8.260; 1021.200
941.995;  146.314;  -12.540;  992.560
942.551;  144.508;  -14.670;  875.620
943.108;  143.919;  -10.450;  937.920
943.664;  146.580;  -10.750;  869.340
944.221;  150.089;  -11.550; 1088.140
944.777;  147.860;  -14.770;  869.680
945.334;  148.930;  -12.820;  884.840
945.890;  151.653;  -10.130;  946.480
946.446;  151.452;  -13.470;  947.020
947.003;  151.657;  -12.120;  964.940
947.559;  154.305;   -9.980; 1063.040
948.115;  154.539;   -9.080; 1026.540
948.671;  151.778;  -10.830;  967.300
949.227;  148.970;  -12.440;  859.560
949.783;  147.053;  -12.910;  858.900
950.339;  147.483;  -10.270;  991.000
950.895;  148.184;  -13.630; 1023.840
951.451;  147.968;  -15.100;  925.280
952.007;  148.566;  -11.330;  998.540
952.563;  150.520;  -10.580;  937.780
953.118;  149.997;  -13.440;  904.940
953.674;  148.891;  -12.710;  935.780
954.230;  148.193;  -10.350;  949.640
954.785;  146.941;   -9.190;  936.640
955.341;  143.786;  -11.200;  998.160
955.897;  141.888;  -16.560;  834.660
956.452;  142.783;  -12.570;  953.840
957.008;  142.405;   -7.970; 1083.640
957.563;  139.712;  -11.940; 1009.540
958.118;  134.696;  -13.450;  877.700
958.674;  135.690;  -12.030;  946.780
959.229;  135.949;   -9.410; 1013.980
959.784;  134.998;  -12.000;  832.400
960.339;  133.241;  -14.780; 1001.280
960.894;  129.677;   -9.860;  963.760
961.449;  125.997;   -9.970;  859.960
962.004;  126.318;  -10.900; 1212.840
962.559;  121.585;  -13.150;  860.140
963.114;  118.782;  -13.740;  742.480
963.669;  119.247;   -9.820;  915.500
964.224;  117.089;  -13.890;  874.340
964.779;  117.070;  -12.600;  828.420
965.334;  118.421;  -10.950; 1017.860
965.888;  116.493;  -11.170;  875.360
966.443;  119.785;  -12.540;  972.380
966.998;  118.684;  -15.780;  819.460
967.552;  117.787;   -9.760;  908.380
968.107;  114.439;   -9.060;  868.300
968.661;  114.886;  -11.950;  922.440
969.216;  115.453;  -12.800;  856.280
969.770;  116.180;  -11.210;  917.200
970.324;  114.407;  -11.610;  923.140
970.879;  112.073;  -11.370;  947.180
971.433;  108.881;  -12.540;  952.720
971.987;  104.536;  -11.320;  895.340
972.541;  100.693;  -10.720;  917.100
973.095;  100.652;   -9.680; 1009.460
973.649;   99.345;  -11.440;  809.480
974.203;   98.773;  -11.210;  829.040
974.757;   98.814;  -10.240;  855.220
975.311;   98.975;  -13.720;  872.600
975.865;   97.749;  -13.770;  881.820
976.419;   96.260;  -11.690;  857.400
976.973;   96.520;   -9.510;  849.620
977.526;   99.012;  -12.620;  949.920
978.080;   97.892;  -12.010;  796.780
978.634;   99.121;  -10.170;  921.320
979.187;   96.365;   -9.020;  905.400
979.741;   94.688;   -9.820; 1018.380
980.294;   89.218;  -14.870;  789.160
980.848;   87.252;  -12.380;  717.220
981.401;   89.680;  -10.350;  816.540
981.955;   91.733;  -13.720;  844.300
982.508;   90.809;  -11.490;  746.340
983.061;   90.554;  -10.000;  915.260
983.615;   87.451;  -11.480;  798.800
984.168;   84.321;  -13.220;  770.080
984.721;   82.190;  -13.960;  880.760
985.274;   82.793;  -10.870;  867.500
985.827;   80.943;   -9.790;  834.220
986.380;   78.998;  -13.120;  721.340
986.933;   77.782;  -12.450;  864.800
987.486;   76.100;  -10.210;  861.920
988.039;   75.806;   -8.430;  863.100
988.591;   73.490;  -10.520;  893.260
989.144;   71.335;  -14.860;  737.260
989.697;   70.625;  -13.080;  758.740
990.250;   70.666;  -10.150;  858.100
990.802;   70.021;  -13.430;  755.860
991.355;   71.683;  -12.750;  974.880
991.907;   69.168;  -12.040;  864.320
992.460;   66.653;  -11.330;  753.760
993.012;   65.789;  -13.610;  749.540
993.565;   64.902;  -13.460;  711.360
994.117;   66.455;   -9.360;  950.780
994.669;   62.681;  -11.300;  701.320
995.221;   61.398;  -13.540;  791.920
995.774;   59.016;  -13.430;  787.580
996.326;   57.506;  -12.520;  740.220
996.878;   56.890;  -10.950;  838.420
997.430;   55.088;  -14.300;  699.860
997.982;   54.524;  -13.760;  750.140
998.534;   53.692;  -11.530;  739.060
999.086;   52.739;  -10.310;  738.220
999.638;   51.165;  -12.530;  661.380
1000.190;   50.578;  -11.840;  699.320
1000.741;   50.336;  -10.260;  742.700
1001.293;   50.063;   -8.860;  686.020
1001.845;   49.089;  -13.700;  676.640
1002.396;   49.194;  -12.100;  743.400
1002.948;   49.046;  -12.760;  737.400
1003.500;   47.138;  -10.380;  723.780
1004.051;   47.566;  -11.900;  907.580
1004.603;   45.940;  -12.250;  791.820
1005.154;   41.858;  -13.210;  608.980
1005.705;   41.472;  -10.950;  723.960
1006.257;   41.226;  -13.880;  707.220
1006.808;   40.260;  -12.840;  685.460
1007.359;   39.726;  -10.570;  763.240
1007.910;   38.707;   -9.620;  646.640
1008.461;   38.609;  -13.630;  732.940
1009.013;   37.320;  -17.200;  588.340
1009.564;   38.954;  -10.200;  793.520
1010.115;   36.280;  -12.570;  597.040
1010.665;   36.026;  -15.150;  602.160
1011.216;   36.159;  -14.480;  667.920
1011.767;   35.997;  -11.340;  697.920
1012.318;   35.634;   -9.780;  736.980
1012.869;   34.861;  -12.380;  679.000
1013.419;   33.602;  -15.560;  603.120
1013.970;   34.581;  -11.010;  666.640
1014.521;   34.448;  -11.610;  620.620
1015.071;   33.953;  -13.450;  670.380
1015.622;   33.967;  -13.870;  635.460
1016.172;   33.394;  -11.610;  596.820
1016.723;   33.466;  -12.120;  614.380
1017.273;   32.550;  -13.620;  604.160
1017.823;   32.442;  -14.140;  650.340
1018.374;   32.076;  -12.800;  611.760
1018.924;   31.938;  -12.340;  716.880
1019.474;   32.440;  -11.410;  718.880
1020.024;   30.947;  -14.770;  657.580
1020.574;   32.015;   -9.780;  726.160
1021.124;   32.408;   -8.560;  673.580
1021.674;   30.573;  -15.190;  559.120
1022.224;   32.749;  -13.530;  708.940
1022.774;   31.538;  -13.280;  668.820
1023.324;   31.865;  -10.690;  753.520
1023.874;   33.143;  -10.240;  875.760
1024.423;   30.256;  -12.540;  613.700
1024.973;   29.750;  -10.010;  610.760
1025.523;   29.405;  -10.550;  620.960
1026.072;   28.399;  -13.560;  606.420
1026.622;   28.735;  -15.120;  675.740
1027.172;   29.979;  -11.260;  715.660
1027.721;   28.790;  -11.410;  601.220
1028.270;   29.282;  -13.530;  663.400
1028.820;   28.617;  -13.680;  638.080
1029.369;   28.173;  -13.520;  612.700
1029.918;   28.558;  -10.980;  649.840
1030.468;   27.562;  -13.530;  564.780
1031.017;   28.992;  -13.170;  634.800
1031.566;   26.812;  -12.200;  608.900
1032.115;   27.643;   -9.960;  694.500
1032.664;   26.207;  -13.210;  596.480
1033.213;   27.610;  -12.500;  735.420
1033.762;   27.288;  -11.910;  635.620
1034.311;   26.346;   -9.640;  677.220
1034.860;   27.642;  -13.310;  691.000
1035.408;   26.698;  -11.830;  722.720
1035.957;   27.508;  -12.000;  719.540
1036.506;   24.994;  -11.690;  530.800
1037.055;   26.729;  -10.990;  844.320
1037.603;   25.496;  -15.120;  664.000
1038.152;   24.047;  -12.450;  534.760
1038.700;   25.033;  -10.560;  585.740
1039.249;   25.262;  -11.080;  681.220
1039.797;   24.829;  -12.540;  633.360
1040.345;   24.549;  -11.920;  705.420
1040.894;   24.052;  -11.410;  625.300
1041.442;   24.623;  -14.320;  632.200
1041.990;   23.504;  -16.240;  559.160
1042.538;   23.283;  -11.680;  536.180
1043.087;   23.239;  -10.760;  570.860
1043.635;   24.916;  -11.850;  670.500
1044.183;   23.661;  -15.480;  586.400
1044.731;   22.779;  -11.770;  576.000
1045.279;   22.606;  -13.090;  674.920
1045.827;   24.767;  -12.440;  892.400
1046.374;   22.173;  -13.840;  515.420
1046.922;   21.670;  -13.220;  590.580
1047.470;   23.676;  -10.230;  691.300
1048.018;   22.322;  -14.590;  647.960
1048.565;   23.274;  -12.050;  708.600
1049.113;   21.201;  -11.650;  557.000
1049.660;   21.408;  -10.510;  629.660
1050.208;   21.791;  -13.310;  675.640
1050.755;   20.362;  -15.900;  606.580
1051.303;   22.254;  -11.430;  686.820
1051.850;   21.022;   -8.480;  635.120
1052.397;   20.264;  -15.010;  473.960
1052.945;   20.696;  -13.960;  617.760
1053.492;   22.272;  -13.150;  741.840
1054.039;   21.931;   -9.630;  720.180
1054.586;   20.373;  -13.680;  557.240
1055.133;   21.410;  -14.570;  693.140
1055.680;   20.580;  -13.820;  646.620
1056.227;   19.418;  -11.730;  542.780
1056.774;   20.916;  -12.480;  794.980
1057.321;   19.150;  -13.930;  523.260
1057.868;   19.442;  -11.690;  651.320
1058.415;   19.480;   -9.520;  651.980
1058.961;   19.358;  -13.160;  678.940
1059.508;   19.201;  -12.920;  643.820
1060.055;   19.021;  -11.920;  581.780
1060.601;   19.692;  -11.500;  624.300
1061.148;   18.863;  -14.330;  616.820
1061.694;   17.890;  -16.870;  592.580
1062.241;   19.091;  -10.330;  596.320
1062.787;   17.959;  -10.620;  663.140
1063.334;   20.572;  -10.110;  808.560
1063.880;   18.935;  -13.400;  668.360
1064.426;   18.372;  -10.680;  706.820
1064.972;   17.806;   -9.920;  601.340
1065.518;   16.652;  -10.980;  566.640
1066.065;   16.931;  -14.890;  624.460
1066.611;   17.277;  -12.870;  598.800
1067.157;   18.066;  -12.950;  641.860
1067.703;   17.621;  -13.540;  668.480
1068.249;   17.725;  -13.540;  605.220
1068.794;   17.090;  -12.600;  626.880
1069.340;   15.362;  -10.620;  578.960
1069.886;   17.034;  -12.830;  590.700
1070.432;   15.132;  -14.870;  541.720
1070.977;   15.226;  -11.980;  601.080
1071.523;   15.733;   -8.200;  573.060
1072.068;   16.231;  -12.330;  582.000
1072.614;   15.176;  -16.370;  527.760
1073.160;   16.752;  -11.100;  687.040
1073.705;   15.261;  -10.480;  572.520
1074.250;   15.759;  -14.520;  559.900
1074.796;   16.220;  -11.460;  655.160
1075.341;   16.454;  -11.950;  664.100
1075.886;   15.414;  -11.460;  594.240
1076.431;   14.737;  -13.770;  649.880
1076.976;   14.604;  -12.680;  639.220
1077.521;   14.159;  -13.170;  583.080
1078.067;   14.751;  -10.860;  579.400
1078.612;   15.581;  -13.920;  661.620
1079.156;   14.776;  -13.880;  601.540
1079.701;   15.046;  -13.120;  693.260
1080.246;   14.930;   -9.940;  696.300
1080.791;   14.742;  -14.740;  625.020
1081.336;   14.439;  -13.750;  659.320
1081.880;   14.533;  -13.400;  649.680
1082.425;   13.436;  -12.220;  573.480
1082.970;   15.110;  -11.610;  717.040
1083.514;   13.387;  -13.580;  597.000
1084.059;   12.843;  -12.810;  586.720
1084.603;   13.080;  -12.320;  565.840
1085.147;   13.669;  -13.190;  645.220
1085.692;   14.358;  -12.480;  716.800
1086.236;   12.425;  -13.020;  503.140
1086.780;   14.468;   -9.190;  751.440
1087.325;   13.475;  -12.480;  654.620
1087.869;   13.205;  -12.450;  610.700
1088.413;   13.129;  -12.240;  705.040
1088.957;   11.550;   -9.020;  543.400
1089.501;   13.313;  -10.320;  766.640
1090.045;   12.558;  -12.720;  726.480
1090.589;   11.267;  -13.690;  569.920
1091.133;   12.487;  -10.020;  673.340
1091.676;   11.739;  -12.330;  591.940
1092.220;   11.825;  -14.970;  600.920
1092.764;   13.040;  -12.430;  706.960
1093.307;   12.233;   -9.800;  673.780
1093.851;   10.827;  -14.970;  556.540
1094.395;   12.028;  -15.310;  683.140
1094.938;   10.957;  -10.370;  632.520
1095.482;   11.282;  -11.050;  559.800
1096.025;   12.319;  -11.840;  710.880
1096.568;   12.320;  -12.840;  779.280
1097.112;    9.640;  -14.700;  508.180
1097.655;   11.269;   -8.720;  603.000
1098.198;    9.701;  -13.610;  600.180
1098.741;   10.077;  -13.350;  612.860
1099.285;   10.581;  -11.230;  657.300
1099.828;    8.856;  -11.840;  439.400
1100.371;    9.653;  -10.840;  608.160
1100.914;   10.581;  -14.190;  682.660
1101.457;    9.942;  -11.240;  679.900
1101.999;    8.243;  -11.270;  584.680
1102.542;    9.333;  -11.480;  641.440
1103.085;    8.988;  -11.750;  658.500
1103.628;   10.031;  -11.400;  762.060
1104.170;    8.868;  -10.490;  588.280
1104.713;    9.251;  -10.600;  646.700
1105.256;    8.842;  -14.360;  557.440
1105.798;    7.844;  -13.210;  499.980
1106.341;    9.794;  -10.270;  728.900
1106.883;    9.062;  -12.200;  521.340
1107.425;    8.351;  -13.110;  668.180
1107.968;    8.433;  -12.840;  612.380
1108.510;    8.657;   -6.480;  684.960
1109.052;    6.844;  -13.940;  612.620
1109.594;    7.664;  -13.690;  554.440
1110.136;    8.459;  -11.880;  643.220
1110.679;    8.109;   -9.500;  633.080
1111.221;    8.870;  -14.160;  604.460
1111.763;    7.985;  -13.980;  559.220
1112.304;    7.244;  -13.880;  547.140
1112.846;    8.500;  -12.210;  666.240
1113.388;   10.352;  -11.390;  942.180
1113.930;    7.464;  -14.540;  694.200
1114.472;    6.836;  -12.640;  606.540
1115.013;    5.518;  -11.620;  551.280
1115.555;    6.934;  -13.640;  587.100
1116.097;    6.097;  -15.380;  579.480
1116.638;    7.287;  -12.640;  684.600
1117.180;    7.193;   -9.850;  667.740
1117.721;    6.740;  -13.690;  568.580
1118.262;    8.029;  -12.680;  677.960
1118.804;    7.604;  -12.530;  637.340
1119.345;    5.969;  -11.690;  578.400
1119.886;    7.465;  -13.380;  704.040
1120.427;    5.767;  -14.070;  589.020
1120.969;    5.575;  -13.500;  597.920
1121.510;    5.389;  -11.480;  563.060
1122.051;    5.466;  -12.830;  723.580
1122.592;    5.359;  -14.290;  655.420
1123.133;    4.916;  -12.400;  547.940
1123.673;    6.988;  -10.130;  706.480
1124.214;    5.737;  -12.930;  612.460
1124.755;    6.028;  -14.380;  639.460
1125.296;    5.895;  -14.000;  627.320
1125.836;    6.370;  -10.070;  691.500
1126.377;    5.354;  -12.640;  599.660
1126.918;    5.444;  -12.960;  614.980
1127.458;    4.644;  -13.350;  622.220
1127.999;    5.593;  -10.750;  656.980
1128.539;    5.317;  -12.350;  694.240
1129.079;    4.081;  -14.860;  632.720
1129.620;    4.507;  -13.840;  558.100
1130.160;    4.702;  -12.330;  539.480
1130.700;    5.631;  -14.530;  640.840
1131.240;    4.983;  -12.530;  643.700
1131.781;    4.146;  -14.450;  619.680
1132.321;    4.365;   -9.790;  599.120
1132.861;    3.602;  -14.860;  564.200
1133.401;    3.084;  -14.290;  593.940
1133.941;    3.991;  -11.750;  626.280
1134.481;    3.492;   -9.920;  597.580
1135.020;    3.227;  -12.290;  609.160
1135.560;    3.830;  -11.650;  674.940
1136.100;    2.676;  -16.270;  501.160
1136.640;    3.084;  -10.890;  510.480
1137.179;    3.297;  -14.180;  537.960
1137.719;    3.499;  -16.250;  605.400
1138.258;    4.022;  -14.230;  587.360
1138.798;    3.747;   -9.090;  663.780
1139.337;    1.836;  -15.130;  482.840
1139.877;    3.533;  -13.680;  642.360
1140.416;    4.853;  -11.320;  878.060
1140.955;    2.313;  -10.860;  535.380
1141.494;    2.410;  -12.920;  669.280
1142.034;    2.803;  -13.930;  583.520
1142.573;    3.466;  -11.440;  646.280
1143.112;    2.286;  -12.000;  553.480
1143.651;    2.572;  -13.670;  536.480
1144.190;    3.642;  -12.730;  691.640
1144.729;    2.499;  -14.560;  607.420
1145.267;    2.712;  -11.830;  584.900
1145.806;    3.220;  -12.230;  637.040
1146.345;    1.338;  -14.130;  635.020
1146.884;    1.741;  -11.590;  622.500
1147.422;    1.085;  -12.550;  533.060
1147.961;    3.166;  -11.180;  708.460
1148.500;    2.821;  -11.510;  669.720
1149.038;    2.481;  -11.640;  632.500
1149.577;    2.441;  -10.130;  698.640
1150.115;    0.196;  -13.970;  452.280
1150.653;    2.014;  -14.520;  607.340
1151.192;    2.011;  -12.810;  552.920
1151.730;    1.143;   -9.100;  652.560
1152.268;    1.636;  -12.220;  589.520
1152.806;    1.147;  -14.140;  571.180
1153.344;   -0.399;  -12.350;  577.640
1153.882;    1.584;   -8.980;  600.060
1154.421;    0.191;  -15.190;  470.620
1154.958;   -0.330;  -15.210;  595.240
1155.496;    2.025;  -12.850;  645.280
1156.034;    1.504;   -9.940;  721.880
1156.572;    1.811;  -13.570;  667.060
1157.110;   -0.470;  -14.590;  473.940
1157.647;    1.400;  -13.030;  676.960
1158.185;   -0.391;  -12.140;  564.320
1158.723;   -1.453;  -14.390;  509.200
1159.260;    0.269;  -14.090;  701.700
1159.798;    0.664;  -11.920;  658.160
1160.335;    0.240;  -11.110;  631.820

