
Integration time [ms]:   3.882
Averaging Nr. [scans]: 1000
Smoothing Nr. [pixels]: 0
Data measured with spectrometer [name]: 7414430SP
Wave   ;Sample   ;Dark     ;Reference
[nm]   ;[counts] ;[counts] ;[counts] 

288.544;  119.479;   10.292;  793.890
289.143;  121.858;    4.564;  681.602
289.742;  122.843;    6.144;  828.814
290.341;  111.267;    4.396;  789.841
290.940;  101.555;    0.938;  730.702
291.538;  102.383;   -0.684;  881.108
292.137;  102.370;   -2.845;  792.581
292.736;  107.237;   -0.144;  975.101
293.335;  102.875;   -6.352;  735.086
293.934;  103.197;   -7.642;  781.677
294.532;  104.241;   -4.992; 1031.958
295.131;   91.691;   -5.478;  834.394
295.730;   90.455;   -6.549;  809.588
296.328;   88.331;   -9.558;  783.442
296.927;   89.445;   -8.118;  779.652
297.525;   91.548;   -6.908;  781.236
298.124;   81.122;   -9.195;  654.009
298.722;   85.740;   -8.198;  761.933
299.321;   83.664;   -8.817;  708.597
299.919;   82.057;   -7.716;  751.918
300.518;   79.215;  -10.745;  689.338
301.116;   79.351;   -9.647;  691.381
301.715;   80.307;  -10.828;  730.222
302.313;   79.975;   -6.087;  704.943
302.911;   74.848;   -6.824;  733.830
303.509;   80.144;   -8.807;  925.627
304.108;   77.374;   -8.198;  760.383
304.706;   77.027;   -6.218;  801.664
305.304;   72.481;   -7.185;  796.707
305.902;   79.216;   -8.568;  784.484
306.500;   74.214;   -7.737;  728.200
307.098;   73.325;   -6.026;  746.560
307.696;   70.851;   -7.176;  780.432
308.294;   72.009;   -8.656;  731.359
308.892;   73.916;   -6.838;  759.769
309.490;   70.307;   -2.596;  712.161
310.088;   68.068;   -4.485;  788.444
310.686;   73.121;   -3.907;  821.749
311.284;   69.396;   -2.806;  766.040
311.882;   67.669;   -2.845;  731.225
312.480;   63.549;   -3.274;  697.167
313.078;   65.672;   -3.645;  808.331
313.675;   67.226;   -4.997;  691.600
314.273;   62.760;   -0.894;  797.837
314.871;   61.017;   -2.854;  589.829
315.468;   59.366;   -3.644;  652.090
316.066;   63.007;   -3.947;  694.427
316.664;   56.748;   -1.824;  656.351
317.261;   61.262;    1.565;  910.128
317.859;   56.341;   -3.955;  768.735
318.456;   58.249;   -2.886;  830.096
319.054;   54.128;   -0.995;  787.828
319.651;   53.784;   -1.765;  759.928
320.249;   52.064;   -3.685;  810.188
320.846;   50.588;   -3.736;  714.286
321.443;   49.642;   -2.065;  832.135
322.041;   46.093;   -5.635;  812.315
322.638;   43.903;   -5.985;  701.456
323.235;   46.293;   -6.677;  665.683
323.833;   44.488;   -3.497;  740.354
324.430;   40.626;   -6.756;  615.900
325.027;   41.747;   -7.647;  876.855
325.624;   42.130;   -7.598;  644.532
326.221;   39.977;   -5.848;  689.717
326.818;   39.254;   -5.777;  818.332
327.415;   41.304;   -8.769;  748.828
328.012;   41.106;   -6.299;  690.585
328.609;   40.084;   -6.639;  731.389
329.206;   38.061;   -6.358;  778.621
329.803;   37.298;   -8.698;  737.841
330.400;   38.084;   -8.379;  704.260
330.997;   40.364;   -6.178;  817.147
331.594;   37.549;   -5.646;  788.185
332.191;   41.387;   -6.928;  728.722
332.787;   43.026;   -6.057;  844.463
333.384;   41.209;   -6.445;  763.093
333.981;   37.451;   -8.002;  815.687
334.578;   40.542;   -8.443;  708.378
335.174;   41.902;   -6.053;  731.469
335.771;   42.869;   -5.791;  836.456
336.367;   39.162;   -6.570;  710.631
336.964;   40.548;   -6.741;  793.266
337.561;   42.476;   -5.710;  731.112
338.157;   39.629;   -3.928;  911.916
338.754;   34.926;   -5.577;  796.589
339.350;   34.376;   -9.667;  722.493
339.946;   38.587;   -5.269;  773.135
340.543;   30.936;   -4.485;  846.136
341.139;   24.927;   -7.584;  720.836
341.735;   23.797;   -8.553;  772.593
342.332;   22.555;   -4.984;  691.472
342.928;   25.410;   -3.475;  795.394
343.524;   19.384;   -6.653;  761.684
344.120;   15.131;   -7.173;  738.562
344.716;   19.011;   -4.385;  723.717
345.313;   16.954;   -3.565;  795.342
345.909;   12.606;   -7.495;  627.336
346.505;   14.442;   -8.276;  740.247
347.101;   15.638;   -5.697;  827.864
347.697;   16.011;   -4.767;  785.398
348.293;   10.611;   -7.226;  627.244
348.889;   11.012;   -7.547;  745.914
349.485;   11.043;   -9.147;  688.205
350.081;   12.899;   -6.568;  772.592
350.676;    7.775;   -6.516;  691.606
351.272;   11.216;   -7.378;  809.530
351.868;   11.824;   -6.759;  780.497
352.464;    9.589;   -4.798;  723.932
353.059;    5.258;   -7.977;  646.017
353.655;    8.934;   -8.769;  777.063
354.251;   10.118;   -5.920;  759.845
354.846;    5.265;   -7.647;  740.646
355.442;    3.182;   -6.956;  753.071
356.038;    4.573;   -9.928;  751.708
356.633;    5.709;   -7.698;  728.594
357.229;    3.933;   -6.307;  724.757
357.824;    1.072;   -7.647;  703.600
358.420;    0.914;  -10.047;  679.726
359.015;    1.150;   -7.458;  695.357
359.610;    3.434;   -5.748;  763.920
360.206;   -3.317;   -9.346;  603.240
360.801;   -1.368;  -11.268;  646.503
361.396;    1.419;   -8.789;  725.975
361.992;   -1.638;   -6.347;  668.220
362.587;   -4.428;   -6.476;  670.160
363.182;   -2.874;   -9.457;  689.631
363.777;   -1.025;   -7.147;  738.242
364.372;   -1.599;   -5.507;  737.314
364.967;   -5.354;   -6.386;  680.744
365.563;   -1.269;   -7.858;  815.567
366.158;   -3.107;   -8.517;  685.161
366.753;   -3.168;   -8.728;  649.263
367.348;   -4.212;   -7.677;  746.056
367.942;   -4.932;  -10.387;  697.298
368.537;   -5.870;   -7.187;  754.245
369.132;   -5.404;   -8.587;  703.428
369.727;   -9.620;   -8.606;  638.079
370.322;   -7.772;  -10.426;  580.186
370.917;   -7.698;   -5.776;  710.646
371.511;   -4.724;   -6.007;  861.834
372.106;   -8.635;   -6.686;  776.964
372.701;  -11.332;   -9.335;  585.988
373.296;   -5.280;   -6.777;  863.135
373.890;  -10.204;   -7.546;  647.840
374.485;  -11.998;   -8.755;  691.199
375.079;   -8.276;   -9.797;  738.685
375.674;   -7.128;   -6.327;  812.970
376.268;  -10.014;   -9.046;  691.759
376.863;  -17.037;   -7.993;  580.327
377.457;  -10.801;   -9.206;  662.490
378.052;  -12.020;   -5.345;  764.884
378.646;  -12.277;   -5.605;  741.167
379.240;  -13.098;   -6.825;  721.176
379.835;  -12.290;  -10.476;  636.978
380.429;  -14.468;   -8.676;  562.557
381.023;  -13.434;   -4.945;  779.205
381.617;  -15.650;   -8.094;  680.106
382.212;  -13.590;  -10.646;  685.303
382.806;  -11.729;   -8.136;  760.690
383.400;  -14.978;   -7.855;  672.281
383.994;  -16.377;   -8.125;  664.870
384.588;  -13.122;   -7.637;  697.701
385.182;  -11.550;   -7.458;  726.624
385.776;  -11.775;   -6.277;  706.875
386.370;  -16.014;   -7.485;  681.968
386.964;  -14.643;   -9.416;  684.155
387.558;  -13.110;   -8.518;  598.360
388.152;  -15.059;   -7.096;  681.959
388.745;  -13.629;   -7.656;  814.707
389.339;  -12.146;   -8.927;  747.642
389.933;  -10.942;   -9.538;  695.370
390.527;  -11.977;   -5.857;  859.029
391.120;  -18.554;   -9.455;  595.318
391.714;  -15.662;   -9.746;  711.633
392.308;  -12.663;   -7.857;  780.253
392.901;  -15.307;   -9.106;  642.460
393.495;  -16.446;  -10.365;  595.414
394.089;  -15.497;   -9.696;  760.452
394.682;  -16.055;   -7.016;  697.188
395.275;  -15.876;   -8.466;  719.927
395.869;  -17.172;   -8.985;  667.314
396.462;  -16.265;  -11.496;  616.609
397.056;  -11.808;   -7.838;  776.621
397.649;  -15.686;   -6.895;  731.575
398.242;  -13.910;   -5.017;  712.645
398.836;  -13.159;   -8.787;  766.408
399.429;  -14.149;   -8.967;  631.041
400.022;  -17.641;   -8.815;  665.902
400.615;  -14.675;   -6.276;  805.609
401.208;  -13.528;   -8.407;  691.451
401.802;  -15.663;   -7.296;  699.329
402.395;  -16.311;   -7.585;  683.502
402.988;  -16.972;   -8.015;  696.627
403.581;  -14.347;   -9.577;  646.878
404.174;  -11.106;   -7.588;  686.568
404.767;  -13.993;   -7.906;  638.583
405.360;  -16.872;   -7.875;  621.445
405.953;  -11.390;   -8.127;  759.034
406.545;  -10.823;   -7.198;  725.342
407.138;  -14.254;   -8.916;  618.350
407.731;  -13.633;   -9.767;  613.303
408.324;   -9.624;  -10.659;  660.554
408.917;  -10.313;   -8.068;  681.864
409.509;  -11.956;   -9.837;  740.396
410.102;  -13.839;   -8.146;  643.948
410.695;   -8.406;   -7.969;  665.758
411.287;   -9.031;   -8.579;  599.821
411.880;   -9.858;   -6.968;  585.421
412.472;  -13.244;   -9.487;  613.092
413.065;  -10.411;  -10.338;  629.408
413.657;   -8.214;   -9.169;  576.678
414.250;   -7.384;  -10.119;  646.681
414.842;   -9.528;   -9.938;  676.353
415.434;   -7.272;  -10.409;  570.463
416.027;   -3.835;   -9.591;  652.196
416.619;   -5.376;   -7.379;  713.400
417.211;   -5.711;   -9.159;  599.352
417.804;   -2.528;   -9.191;  628.499
418.396;   -6.635;   -8.159;  607.643
418.988;   -3.440;   -6.960;  659.238
419.580;   -6.955;  -11.389;  568.276
420.172;   -5.414;  -13.460;  536.196
420.764;   -0.925;  -10.701;  672.482
421.356;   -1.139;   -8.961;  636.898
421.948;   -2.492;   -9.770;  677.661
422.540;    2.240;   -8.832;  680.027
423.132;    2.295;   -8.153;  600.641
423.724;   -1.417;   -8.481;  561.267
424.316;    0.292;   -9.261;  621.345
424.908;    4.086;   -9.643;  591.517
425.500;    5.100;   -8.663;  647.978
426.092;    5.365;   -8.503;  648.268
426.683;    4.478;  -10.522;  684.836
427.275;    7.521;  -11.734;  641.471
427.867;    8.379;  -10.264;  668.948
428.458;    9.302;   -7.644;  732.344
429.050;    7.774;   -7.853;  680.749
429.642;    9.581;   -8.904;  743.124
430.233;   10.537;  -10.795;  569.356
430.825;   12.238;   -7.665;  724.809
431.416;    9.473;   -8.843;  698.241
432.008;   12.432;   -9.885;  651.723
432.599;   13.675;   -9.966;  656.073
433.190;   10.068;   -9.164;  637.670
433.782;   10.259;   -8.584;  590.395
434.373;   17.157;   -8.296;  884.765
434.964;   15.844;   -9.896;  602.920
435.556;   13.991;   -8.255;  634.537
436.147;   16.931;   -8.075;  758.490
436.738;   16.042;   -9.716;  701.099
437.329;   21.781;   -7.318;  721.723
437.920;   15.282;   -6.694;  666.688
438.511;   14.065;   -9.644;  564.526
439.103;   21.225;   -9.427;  623.998
439.694;   23.471;  -10.748;  681.583
440.285;   24.513;   -7.997;  764.432
440.876;   22.415;  -10.046;  845.738
441.466;   21.301;  -13.467;  575.162
442.057;   26.426;   -9.329;  665.814
442.648;   25.877;   -7.707;  746.255
443.239;   23.695;   -9.017;  620.477
443.830;   28.542;  -10.279;  704.958
444.421;   30.633;  -12.630;  655.474
445.011;   27.184;   -8.697;  693.619
445.602;   26.693;   -7.787;  743.126
446.193;   29.135;  -13.329;  488.117
446.783;   33.322;   -9.171;  640.397
447.374;   29.388;   -7.457;  692.759
447.964;   29.310;   -9.277;  713.770
448.555;   37.049;   -9.041;  822.742
449.145;   34.403;   -8.969;  662.853
449.736;   35.376;   -6.809;  803.179
450.326;   34.897;   -7.229;  713.626
450.917;   40.073;  -11.391;  675.324
451.507;   39.279;   -9.501;  600.661
452.097;   40.309;   -8.460;  746.267
452.688;   41.358;  -10.080;  742.160
453.278;   40.388;  -12.861;  566.840
453.868;   46.048;   -8.372;  793.550
454.458;   43.615;   -8.131;  651.141
455.048;   43.707;   -8.520;  711.783
455.639;   44.419;  -13.632;  567.096
456.229;   48.591;  -10.143;  710.694
456.819;   51.378;   -9.163;  751.158
457.409;   50.928;   -8.652;  773.993
457.999;   52.509;   -9.933;  737.505
458.589;   53.047;  -10.363;  686.606
459.179;   54.322;  -10.633;  717.658
459.769;   51.459;  -12.442;  627.099
460.358;   55.597;   -9.844;  797.262
460.948;   56.003;   -9.924;  689.503
461.538;   58.231;  -10.484;  660.677
462.128;   55.599;  -10.703;  664.934
462.717;   61.062;  -11.486;  710.326
463.307;   65.247;  -10.767;  705.846
463.897;   61.305;   -8.814;  656.942
464.486;   61.059;   -8.182;  837.128
465.076;   64.264;   -9.985;  733.776
465.666;   68.256;  -10.447;  652.900
466.255;   67.135;   -7.754;  785.651
466.845;   66.541;  -10.884;  666.749
467.434;   68.450;  -12.525;  725.873
468.023;   69.543;  -11.456;  658.357
468.613;   67.362;   -9.173;  713.946
469.202;   70.861;   -9.306;  646.507
469.791;   75.545;   -8.917;  737.811
470.381;   77.319;   -9.657;  742.813
470.970;   77.531;   -9.947;  711.099
471.559;   76.648;   -9.256;  733.291
472.148;   79.689;  -13.397;  675.737
472.738;   82.496;   -9.928;  765.466
473.327;   82.177;  -10.897;  637.529
473.916;   82.277;   -8.526;  737.446
474.505;   85.910;  -11.078;  751.703
475.094;   89.104;   -9.559;  806.570
475.683;   88.330;   -8.838;  797.699
476.272;   90.079;  -10.198;  730.632
476.861;   92.134;  -11.489;  706.754
477.449;   99.332;  -10.721;  728.487
478.038;   93.573;   -9.818;  692.513
478.627;   94.965;   -9.887;  714.852
479.216;  101.344;  -10.030;  769.441
479.805;  104.016;   -9.401;  783.375
480.393;  104.218;   -5.739; 1008.945
480.982;  103.484;   -7.838;  874.501
481.571;  109.663;   -9.111;  858.333
482.159;  110.390;  -10.601;  705.386
482.748;  110.908;   -8.500;  821.385
483.336;  115.538;   -9.241;  858.209
483.925;  115.053;  -10.440;  774.373
484.513;  121.988;  -11.063;  758.962
485.102;  120.564;   -9.540;  810.965
485.690;  128.975;   -6.742; 1011.050
486.278;  131.197;   -8.442;  979.329
486.867;  131.538;  -10.472;  809.662
487.455;  135.015;   -8.811;  898.229
488.043;  136.671;  -10.721;  748.361
488.631;  145.703;  -10.393; 1005.079
489.220;  150.522;  -10.843;  908.626
489.808;  152.235;  -10.572;  741.415
490.396;  160.896;  -10.482;  914.645
490.984;  169.079;  -11.542;  830.161
491.572;  182.715;   -8.463;  940.315
492.160;  190.801;   -8.491;  919.081
492.748;  203.122;   -9.681;  884.341
493.336;  230.800;  -10.493; 1019.693
493.924;  271.952;   -9.354;  958.077
494.512;  320.587;   -9.132; 1066.638
495.100;  366.934;   -9.001; 1103.280
495.687;  430.393;  -11.924; 1206.373
496.275;  529.395;  -11.193; 1150.796
496.863;  665.435;   -9.241; 1281.171
497.451;  800.532;  -11.341; 1386.805
498.038;  904.483;  -11.364; 1556.729
498.626; 1059.542;   -8.104; 1741.407
499.214; 1316.137;   -8.842; 2016.609
499.801; 1569.790;  -10.112; 2220.633
500.389; 1830.797;  -11.953; 2312.494
500.976; 2138.474;  -10.023; 2744.849
501.564; 2551.240;   -8.662; 3148.565
502.151; 3037.288;  -10.531; 3515.999
502.738; 3554.828;  -13.853; 3971.274
503.326; 4209.566;  -10.794; 4403.796
503.913; 4796.228;   -8.663; 5161.749
504.500; 5286.937;  -10.172; 5986.420
505.088; 5887.658;  -13.472; 6381.201
505.675; 6916.140;  -10.924; 6925.547
506.262; 7872.781;   -8.551; 7619.060
506.849; 8924.890;  -10.523; 8733.969
507.436; 9826.478;  -10.834; 9790.121
508.023;10078.979;   -9.093; 9985.472
508.610;10505.477;  -10.073;10434.618
509.197;11243.948;   -9.500;11198.435
509.784;13111.407;  -13.242;12391.194
510.371;14014.459;  -10.964;13603.713
510.958;14074.121;   -9.772;14426.586
511.545;15433.895;   -7.842;15243.775
512.132;15251.293;  -12.184;15945.876
512.719;15222.713;   -9.733;16340.369
513.305;17375.615;   -9.172;18011.766
513.892;18959.615;   -9.581;19754.971
514.479;20773.344;  -10.253;20967.805
515.066;22851.152;   -8.183;22299.793
515.652;23523.154;   -9.253;22908.660
516.239;24305.625;   -9.412;23798.875
516.825;26264.803;  -11.153;25567.275
517.412;25227.641;  -10.263;28154.959
517.998;25077.699;   -8.802;28344.111
518.585;25025.861;  -10.401;27134.219
519.171;25143.459;  -12.744;27268.576
519.758;28369.672;  -11.793;28964.129
520.344;30044.020;   -8.912;30664.494
520.930;28763.971;  -10.901;32550.605
521.516;29708.402;  -12.034;35422.895
522.103;31070.643;  -10.473;38280.004
522.689;32759.465;   -8.311;37835.117
523.275;34756.715;  -10.691;37288.613
523.861;33579.945;  -11.193;37281.395
524.447;32486.457;  -11.484;37846.949
525.033;31080.139;   -7.702;38321.949
525.619;30821.438;  -11.241;38579.285
526.205;33036.477;  -12.152;40622.875
526.791;34258.949;  -11.423;42258.836
527.377;33753.348;   -7.981;42966.902
527.963;35080.953;   -9.450;42018.949
528.549;38764.781;  -11.351;42476.828
529.135;40314.785;  -10.202;41854.852
529.721;38902.418;   -8.672;41237.711
530.306;37553.480;   -9.111;41259.445
530.892;38306.555;  -11.252;41506.047
531.478;40513.336;  -10.432;43559.613
532.063;42252.043;  -10.721;47695.563
532.649;42285.125;   -7.450;50808.324
533.235;41484.508;  -11.811;51787.500
533.820;41974.008;   -9.383;52145.035
534.406;42115.777;   -9.400;51133.488
534.991;41409.926;   -8.861;49996.805
535.576;38945.098;  -10.612;48882.852
536.162;36960.625;   -7.322;46942.285
536.747;38929.793;   -9.360;45711.746
537.333;42288.461;  -10.450;48510.180
537.918;44029.238;  -12.610;50439.891
538.503;44250.863;  -12.132;50863.711
539.088;41145.793;  -10.831;50906.922
539.673;38697.363;  -11.220;52621.965
540.259;39741.176;  -11.481;52368.094
540.844;39831.344;  -11.462;50879.109
541.429;38434.469;   -7.869;52077.777
542.014;37648.234;  -11.859;52716.695
542.599;40257.063;  -11.061;52363.281
543.184;43714.711;  -12.300;53187.137
543.769;44416.547;   -9.369;54697.605
544.354;45078.531;  -12.020;53913.914
544.938;42704.422;  -10.350;49680.164
545.523;40787.707;  -10.841;47386.277
546.108;42339.125;   -8.579;49151.949
546.693;45395.281;   -8.818;51384.637
547.278;46429.680;  -11.331;51853.254
547.862;42889.621;  -10.292;51173.750
548.447;39453.375;   -8.349;51691.395
549.031;41132.168;  -10.838;52456.703
549.616;46148.840;  -11.681;52714.516
550.201;48215.043;  -11.140;52414.598
550.785;47741.160;   -8.649;52355.059
551.370;48607.031;  -11.889;54589.453
551.954;47634.129;  -11.239;58267.348
552.538;48122.898;   -8.850;59062.176
553.123;48215.535;  -10.829;58115.285
553.707;47837.367;   -8.887;56556.285
554.291;47028.414;  -10.430;56201.668
554.876;45719.848;   -9.799;55335.762
555.460;47196.637;  -10.018;54155.703
556.044;47624.000;   -7.307;53721.484
556.628;44892.328;  -12.229;53731.016
557.212;43479.809;   -9.820;54312.531
557.796;43650.367;   -9.109;53797.773
558.380;45441.789;   -9.707;56145.984
558.964;44238.352;  -10.980;57277.930
559.548;45081.563;  -12.010;56459.641
560.132;48905.930;   -7.928;54434.543
560.716;50664.488;  -10.247;54800.617
561.300;49715.832;  -11.250;57606.945
561.884;49135.414;  -10.568;58972.445
562.467;46992.793;   -9.727;57327.570
563.051;46657.191;  -11.847;54962.434
563.635;46282.473;  -10.747;52594.473
564.219;43332.305;  -13.108;50610.410
564.802;41362.027;  -11.417;49551.180
565.386;42763.598;  -10.457;48370.953
565.969;43799.910;   -8.959;48178.871
566.553;43448.477;  -10.328;49957.305
567.136;43007.906;  -10.257;50369.594
567.720;43089.801;  -10.186;49492.004
568.303;43318.922;  -10.027;50616.352
568.887;44328.742;  -10.397;50727.148
569.470;43202.355;   -8.185;51698.379
570.053;42547.422;  -11.596;52122.078
570.637;41827.070;  -11.378;52536.438
571.220;40318.578;   -9.138;51186.098
571.803;39126.480;   -7.675;51032.762
572.386;38358.898;   -8.976;49609.887
572.969;37126.723;  -12.477;48285.926
573.552;38312.438;   -9.767;47624.285
574.135;38778.074;   -8.175;45498.641
574.718;35620.383;  -11.096;41970.434
575.301;33938.406;  -11.966;41447.137
575.884;32256.432;  -12.836;40923.836
576.467;36925.207;   -9.116;45267.723
577.050;37332.906;  -10.536;48175.543
577.633;37575.703;  -11.027;47729.328
578.216;38623.629;   -9.946;47579.793
578.799;40132.258;   -9.645;47820.996
579.381;41262.113;   -9.446;48115.551
579.964;42167.309;  -12.217;47333.766
580.547;42157.551;  -10.586;46668.969
581.129;41873.176;   -8.374;44466.141
581.712;39868.105;  -10.434;44164.922
582.294;38597.676;  -10.896;46477.855
582.877;38958.508;   -8.906;48244.254
583.459;38734.832;   -9.994;47437.895
584.042;38745.227;  -10.084;46943.219
584.624;38941.480;  -13.534;46792.227
585.206;37899.066;  -12.716;46557.250
585.789;38561.492;  -11.614;45793.773
586.371;35896.109;  -10.203;43836.391
586.953;32927.223;  -10.314;42972.492
587.536;32412.619;   -9.776;42487.211
588.118;33834.645;   -9.821;42086.414
588.700;35736.730;  -10.073;43389.930
589.282;35143.512;  -12.395;43646.039
589.864;35839.793;  -11.514;43438.109
590.446;35394.953;  -10.803;43151.926
591.028;33994.801;  -11.043;42781.867
591.610;34178.988;  -13.244;42839.098
592.192;34547.246;  -11.095;42820.402
592.774;33750.336;  -10.823;40724.277
593.356;32859.047;  -11.052;39874.789
593.937;33371.879;  -11.664;39980.648
594.519;37058.957;  -10.454;42069.633
595.101;40304.211;  -10.322;42976.031
595.683;37851.512;  -10.042;44084.441
596.264;33672.715;  -14.334;43478.797
596.846;34623.434;  -10.863;43803.672
597.427;34127.898;   -9.901;42986.934
598.009;32892.070;  -10.911;42832.219
598.591;34194.930;  -10.483;42580.086
599.172;35529.211;   -9.663;43061.805
599.753;36269.691;  -10.631;41691.469
600.335;36508.164;   -9.371;40692.520
600.916;34500.313;  -13.992;39982.422
601.498;34313.117;   -8.352;40318.617
602.079;34620.777;   -8.411;40670.609
602.660;33775.176;  -10.841;41450.898
603.241;33988.090;  -12.963;41137.738
603.823;34834.078;  -11.523;38868.797
604.404;34998.770;  -11.881;38182.785
604.985;35240.469;  -11.721;38078.047
605.566;32840.008;   -9.293;38056.633
606.147;31395.072;  -10.940;37020.418
606.728;33265.844;  -11.840;37883.359
607.309;34080.676;  -11.781;38748.273
607.890;34385.184;  -11.262;38850.230
608.471;33514.363;  -10.111;37457.918
609.051;33309.094;   -7.709;36066.457
609.632;30551.775;  -12.409;35991.074
610.213;30957.424;  -10.811;37402.641
610.794;32915.031;  -11.630;38383.363
611.374;36165.563;   -8.030;40562.387
611.955;34633.320;  -10.809;38533.727
612.536;33614.938;  -10.531;36951.789
613.116;33193.793;  -12.820;37197.891
613.697;34624.199;  -11.419;38411.125
614.277;34713.563;   -9.768;38673.938
614.858;31734.156;  -10.251;37075.863
615.438;28425.668;  -11.981;35092.906
616.019;26660.580;   -8.978;33666.301
616.599;28213.793;  -12.219;34189.023
617.179;30719.086;  -14.170;36952.047
617.760;31772.230;   -9.211;39582.574
618.340;31844.475;   -9.018;38943.977
618.920;31875.693;   -9.249;37594.156
619.500;31880.764;  -12.728;37866.938
620.080;33246.645;  -12.939;37869.043
620.660;34707.945;  -11.586;36868.617
621.241;33844.336;  -11.538;36352.309
621.821;32049.801;  -11.398;35459.520
622.401;30592.172;  -10.179;35207.414
622.980;31185.340;  -11.587;35980.422
623.560;31872.195;  -12.888;37351.328
624.140;29420.160;  -13.149;34388.582
624.720;25000.572;   -9.928;32368.764
625.300;25234.902;  -10.869;32638.629
625.880;27783.139;   -8.617;34599.035
626.459;29273.307;  -12.138;36831.738
627.039;32083.266;  -12.267;38299.098
627.619;34432.246;   -7.476;38289.574
628.198;35049.660;  -11.347;37220.695
628.778;32315.682;  -11.678;37632.563
629.357;30245.004;  -12.438;38003.012
629.937;30317.877;   -9.576;38402.039
630.516;30266.686;  -11.096;37868.801
631.096;30909.908;  -11.828;35760.410
631.675;31922.369;  -11.565;35225.219
632.254;33247.648;  -11.845;35130.289
632.834;34653.813;  -11.545;35794.570
633.413;33973.422;  -10.887;35788.922
633.992;34842.461;  -10.175;34532.863
634.571;34745.188;   -9.704;33590.113
635.151;32705.244;  -10.815;34943.863
635.730;31582.748;  -11.617;35352.523
636.309;32022.236;  -10.836;35366.605
636.888;32734.760;   -9.755;36165.637
637.467;33484.047;  -11.684;37515.902
638.046;33328.340;  -11.987;39288.695
638.625;32421.096;  -10.455;38279.699
639.204;32296.631;  -11.234;37741.598
639.782;33005.020;  -12.023;38364.551
640.361;31044.598;  -11.506;36740.621
640.940;27434.254;  -12.316;34950.082
641.519;25437.980;  -11.616;34137.398
642.097;29207.547;   -9.266;35654.258
642.676;32589.021;  -12.936;35637.957
643.255;32783.258;   -9.966;36567.074
643.833;32102.008;   -8.916;37809.434
644.412;29624.340;  -10.936;37337.293
644.990;29521.506;  -12.176;37018.531
645.569;31161.752;  -12.246;36518.469
646.147;34977.992;  -12.107;36186.430
646.726;37160.824;  -12.937;36267.688
647.304;34107.535;  -12.547;36647.625
647.882;33807.793;  -12.597;39286.742
648.461;33018.059;   -9.427;39157.703
649.039;32948.227;   -8.937;35412.883
649.617;32983.168;  -11.067;34744.918
650.195;31180.814;  -10.657;35403.098
650.773;28828.574;  -10.097;35053.797
651.352;28989.574;  -11.887;33756.816
651.930;28582.471;  -13.557;31868.773
652.508;27701.086;  -11.767;33121.551
653.086;28962.582;  -10.777;33564.793
653.663;31958.289;  -12.067;34054.668
654.241;35776.824;  -14.918;35693.309
654.819;35144.266;  -11.788;36422.906
655.397;33364.996;  -11.268;38213.484
655.975;31974.232;  -11.738;39507.625
656.553;30303.766;  -11.018;39498.223
657.130;28883.531;  -12.848;40395.480
657.708;27721.510;  -10.098;39242.020
658.286;28180.313;  -11.678;38920.020
658.863;29402.389;  -11.498;40202.898
659.441;31650.805;  -11.008;39677.938
660.018;33344.910;  -11.048;40413.355
660.596;34800.980;  -12.058;39931.414
661.173;35828.387;  -14.158;39604.531
661.750;35467.238;  -12.298;39700.070
662.328;35358.047;  -10.699;39292.809
662.905;35157.922;  -12.119;38235.648
663.482;31202.018;  -11.829;36212.305
664.060;27895.219;  -11.009;35944.945
664.637;31476.520;  -10.369;35170.785
665.214;33372.137;  -10.459;34197.523
665.791;31510.646;  -12.599;34549.520
666.368;28571.289;  -12.919;35118.578
666.945;27519.766;  -10.699;36019.418
667.522;29353.082;  -11.359;36048.438
668.099;30017.371;  -13.529;36243.914
668.676;29688.297;  -10.229;35958.875
669.253;29618.463;   -9.279;37384.730
669.830;29322.035;  -11.370;36779.629
670.407;29365.441;  -10.950;35231.289
670.984;30055.762;  -12.850;35544.270
671.560;29488.297;   -8.440;35466.867
672.137;30682.059;  -13.520;34280.863
672.714;31157.373;  -13.620;34632.863
673.290;30781.760;  -10.450;35135.422
673.867;30392.559;  -10.960;36114.480
674.443;31092.139;  -13.300;36152.859
675.020;28752.389;  -12.370;35327.238
675.596;27684.557;  -11.250;35795.176
676.173;27672.180;  -11.080;35430.355
676.749;27639.389;  -13.220;33549.516
677.326;29271.244;  -13.000;32210.012
677.902;29217.766;  -12.701;32068.871
678.478;27616.115;  -12.801;32583.891
679.054;28347.793;   -8.601;32088.928
679.631;29511.191;  -12.631;30978.848
680.207;30167.463;   -9.451;33160.887
680.783;29752.688;  -11.701;35570.363
681.359;30141.541;  -12.701;36125.184
681.935;31349.791;  -13.271;35240.922
682.511;32252.891;  -10.791;34429.961
683.087;30467.711;  -10.791;34463.680
683.663;27780.174;   -8.121;34648.898
684.239;26719.373;  -13.261;34546.457
684.815;28153.908;  -10.581;35586.375
685.390;29096.682;   -9.961;35821.895
685.966;28409.402;  -11.182;35085.871
686.542;28172.916;  -13.512;34198.230
687.118;26421.428;  -11.472;32847.707
687.693;25825.898;  -10.152;32794.027
688.269;25685.457;  -14.442;33072.367
688.844;24356.850;  -11.852;33141.664
689.420;23504.686;  -13.942;33965.742
689.995;25320.100;   -9.702;34655.523
690.571;27228.941;  -11.312;33576.742
691.146;27008.080;  -14.332;32657.219
691.722;26862.721;  -11.192;32526.979
692.297;27304.377;  -10.962;33014.617
692.872;28697.799;  -11.082;34012.254
693.448;30116.920;  -14.732;34237.434
694.023;29608.088;  -12.363;34142.672
694.598;27730.195;  -12.393;34132.031
695.173;28857.004;  -11.023;34205.250
695.748;29764.701;  -12.743;32882.488
696.323;28520.418;  -11.103;32864.906
696.898;27679.602;   -8.123;33170.004
697.473;27670.859;  -12.603;32432.984
698.048;28227.820;  -12.553;31649.303
698.623;28761.879;  -12.573;30778.141
699.198;28190.586;  -12.743;31140.119
699.773;28043.301;  -12.843;31764.299
700.348;28049.984;  -16.683;31780.816
700.922;28764.809;  -11.403;32046.375
701.497;29520.980;  -11.253;32603.574
702.072;28421.906;  -10.044;34799.871
702.646;27678.969;  -13.054;35793.172
703.221;28538.877;  -11.414;35201.590
703.795;27751.561;  -10.644;34764.527
704.370;26159.674;  -13.484;34307.367
704.944;25124.723;  -12.144;33509.887
705.519;24797.268;  -12.024;31388.584
706.093;26739.289;  -11.234;31340.104
706.668;27125.215;   -9.874;32630.281
707.242;26241.469;  -12.404;32728.779
707.816;25344.463;  -10.644;32947.238
708.390;25090.436;  -11.174;33277.855
708.965;25247.859;  -10.324;33834.336
709.539;26260.254;  -12.014;33709.273
710.113;26025.645;  -12.295;33044.313
710.687;27601.137;  -10.965;31953.992
711.261;29015.592;  -13.685;30505.949
711.835;26909.883;  -15.335;30262.369
712.409;25820.969;  -13.785;31254.447
712.983;26077.010;  -10.525;32754.986
713.557;24628.764;  -13.175;34018.824
714.131;24871.541;  -13.245;34579.625
714.704;27140.275;  -13.175;33890.262
715.278;28190.115;  -11.545;33531.102
715.852;26581.734;  -10.975;33601.660
716.425;25767.611;  -10.075;33515.117
716.999;26974.998;  -12.185;33185.555
717.573;28814.010;   -9.685;33905.996
718.146;28482.416;  -10.516;35199.293
718.720;27284.646;  -12.106;35060.551
719.293;26518.982;  -12.386;34973.230
719.867;27214.678;  -12.456;36394.449
720.440;26901.822;  -10.686;36663.008
721.013;26595.590;  -12.596;35102.426
721.587;28445.461;  -13.956;33985.266
722.160;30728.641;   -9.806;33524.965
722.733;31306.369;  -11.676;32987.043
723.306;30613.006;  -14.276;33066.301
723.880;28729.234;  -12.126;33399.500
724.453;26498.975;  -10.156;33468.297
725.026;26437.797;  -12.956;33816.637
725.599;26684.938;  -11.676;32797.996
726.172;27246.383;  -12.337;33187.434
726.745;27685.004;  -11.277;35136.613
727.318;28152.754;  -11.927;35751.730
727.891;27234.119;  -13.607;35890.430
728.463;25001.611;  -11.327;34822.090
729.036;24933.676;  -11.917;32895.086
729.609;25705.783;  -12.697;31823.225
730.182;25849.174;  -11.787;31445.283
730.754;26081.668;  -12.957;32373.223
731.327;27029.596;  -11.017;33676.820
731.900;27125.439;  -12.797;33417.000
732.472;26048.748;  -10.677;31978.498
733.045;25698.432;  -12.797;30368.777
733.617;25924.793;  -13.908;30574.215
734.190;24918.799;  -12.258;31280.975
734.762;25236.502;  -13.438;31674.412
735.334;26471.023;  -11.758;31247.291
735.907;28949.270;  -11.158;29876.211
736.479;31259.945;  -11.258;29808.488
737.051;30764.818;  -10.918;30233.547
737.623;29061.174;  -11.038;31469.086
738.195;30516.469;  -12.188;31784.225
738.768;28424.455;  -11.378;32120.523
739.340;23647.334;  -12.598;32094.342
739.912;22614.730;  -11.568;31312.680
740.484;23735.621;   -9.348;31946.238
741.056;25435.555;  -12.628;32984.059
741.628;26593.908;  -13.349;33897.715
742.199;26216.848;  -11.309;33213.016
742.771;27457.182;  -12.699;31369.113
743.343;28573.248;  -11.919;31865.473
743.915;28581.387;  -11.679;32388.631
744.487;27079.150;  -12.249;31079.568
745.058;24252.785;  -11.119;30570.107
745.630;22674.133;   -9.439;29970.127
746.201;22181.057;  -11.949;29186.766
746.773;22080.430;  -12.639;28805.723
747.344;23250.904;  -11.039;29591.223
747.916;24760.541;  -12.549;31412.201
748.487;23574.785;  -12.659;32194.898
749.059;22491.320;  -13.059;32533.719
749.630;21638.236;  -12.080;32158.518
750.201;20517.502;  -13.100;30855.395
750.773;19985.260;  -15.310;28622.555
751.344;19474.402;  -12.240;28405.732
751.915;19611.219;  -11.960;28461.551
752.486;19200.994;  -13.200;27842.850
753.057;18660.512;  -15.230;27845.008
753.628;20166.328;  -13.130;27728.107
754.199;22297.031;  -12.720;27381.086
754.770;22151.568;  -10.680;25882.203
755.341;21028.691;  -11.010;25886.184
755.912;20738.146;  -12.990;26050.861
756.483;19549.729;  -11.110;26798.779
757.054;19068.270;  -12.190;27048.238
757.625;18867.402;  -13.981;26294.838
758.195;19130.732;  -11.041;26142.076
758.766;19934.469;  -11.861;26392.234
759.337;20121.672;  -11.461;26334.594
759.907;19466.055;  -15.001;27579.652
760.478;18247.840;   -9.681;28352.770
761.048;17764.334;  -12.421;27325.088
761.619;18541.287;  -11.761;26460.428
762.189;18555.500;  -12.391;26029.826
762.760;18174.498;  -10.201;26430.145
763.330;19151.926;  -10.811;26670.902
763.900;19610.914;  -10.261;26603.021
764.471;18304.920;  -13.061;25542.740
765.041;16953.445;  -11.051;24358.459
765.611;17029.129;  -11.032;23991.297
766.181;17113.141;  -10.532;24470.236
766.751;17634.311;  -13.502;24845.975
767.321;18960.857;  -11.392;24533.633
767.891;20841.643;  -11.522;24916.492
768.461;21440.588;  -13.672;24776.771
769.031;18624.619;  -14.652;24757.988
769.601;16280.408;  -10.182;24181.088
770.171;15383.372;  -11.752;23670.387
770.741;14693.865;  -12.272;22960.045
771.311;14901.580;  -13.112;22917.523
771.880;15964.243;  -14.122;23562.941
772.450;16382.434;  -11.782;24216.500
773.020;15877.975;  -12.642;24140.398
773.589;14505.050;  -13.043;24414.857
774.159;13922.383;  -11.783;23858.717
774.729;14974.845;  -13.473;22942.135
775.298;15629.775;  -14.523;22324.033
775.867;15331.157;  -12.013;21140.313
776.437;14667.382;  -12.113;20838.092
777.006;14290.767;  -13.543;20599.510
777.576;14746.048;  -12.523;20508.809
778.145;14856.944;  -12.173;20732.947
778.714;14210.071;  -12.153;21062.465
779.283;13592.573;  -11.833;20949.664
779.853;13741.946;  -13.483;20508.623
780.422;13771.058;  -12.933;20649.082
780.991;13452.609;  -13.173;21527.520
781.560;13312.679;  -10.224;22632.658
782.129;13511.932;  -12.684;23048.277
782.698;13345.063;  -11.284;23438.555
783.267;13358.759;  -11.684;23267.734
783.836;13146.333;  -10.974;22415.133
784.404;12517.799;  -13.534;20443.152
784.973;11785.677;  -16.734;19699.150
785.542;10860.791;  -12.594;19763.828
786.111;10924.238;  -11.644;20341.408
786.679;11746.157;  -11.384;20207.967
787.248;11796.194;  -12.014;19516.465
787.817;10843.022;  -12.804;18900.363
788.385; 9920.597;  -11.994;17879.121
788.954; 9917.716;  -12.564;17658.301
789.522;10299.514;  -12.225;17788.879
790.090;10214.584;  -13.775;18118.277
790.659;10382.572;  -12.485;18338.736
791.227;10923.398;  -12.295;18508.615
791.795;11403.695;  -13.415;17898.254
792.364;11677.015;  -12.995;17295.133
792.932;11146.580;   -8.365;16822.051
793.500;10304.103;  -11.925;17040.148
794.068;10562.936;  -13.245;17179.787
794.636;10822.488;  -13.815;16664.246
795.204;10740.194;  -13.375;16524.545
795.772;10651.211;  -12.125;17274.564
796.340; 9979.067;  -13.855;17891.002
796.908; 8731.776;  -13.456;17648.561
797.476; 8421.490;  -13.116;17064.080
798.044; 8777.547;  -13.226;16672.777
798.612; 8818.288;  -11.236;17023.996
799.180; 8578.662;  -10.476;16561.615
799.747; 8442.306;  -11.746;15962.773
800.315; 8260.745;  -12.366;15296.992
800.883; 7672.626;  -14.616;14801.771
801.450; 7742.552;  -11.996;14534.430
802.018; 8500.366;  -11.206;14173.248
802.585; 8788.204;  -12.466;14029.547
803.153; 8215.424;  -12.846;13836.846
803.720; 7851.014;  -12.136;13567.324
804.287; 8070.405;  -10.966;13360.622
804.855; 7974.509;   -9.797;13681.981
805.422; 7256.300;  -13.037;13536.560
805.989; 6932.940;  -12.697;13355.958
806.556; 7427.230;  -11.737;13747.896
807.124; 8014.996;  -11.997;13987.376
807.691; 7656.338;  -13.997;14038.674
808.258; 7292.573;  -10.927;14120.152
808.825; 7528.506;  -13.727;13860.111
809.392; 7505.204;  -11.847;13268.790
809.959; 7616.148;  -14.217;12680.389
810.526; 7679.760;   -8.277;12427.308
811.093; 7988.583;   -9.647;12030.105
811.659; 7979.488;  -10.987;11653.664
812.226; 7256.633;  -13.447;11637.183
812.793; 6811.671;  -14.418;11611.521
813.360; 7000.966;  -13.908;11885.181
813.926; 7563.866;  -12.918;12770.539
814.493; 7644.935;  -14.888;12677.638
815.060; 7191.362;  -12.758;11974.336
815.626; 6995.228;  -13.478;11594.715
816.193; 7002.688;  -13.898;11579.474
816.759; 7222.441;  -13.588;11666.972
817.325; 7276.865;  -12.018;11325.530
817.892; 7076.594;  -14.068;11105.369
818.458; 7239.579;  -13.458;10843.928
819.024; 7002.749;  -11.968;10714.406
819.591; 6732.711;  -11.028;10469.165
820.157; 6835.216;  -12.088;10235.523
820.723; 6864.332;  -12.599;10847.563
821.289; 6677.515;  -10.419;11040.980
821.855; 6639.111;  -10.939;10357.100
822.421; 6680.636;  -12.539; 9978.918
822.987; 6626.905;  -13.259; 9754.177
823.553; 6457.300;  -15.369;10065.755
824.119; 6508.279;  -10.779;10036.294
824.685; 6464.189;   -9.999;10029.192
825.251; 6171.401;  -11.819;10199.230
825.816; 6104.816;  -13.369; 9820.189
826.382; 5918.883;  -12.679; 9297.248
826.948; 5566.479;  -11.199; 9381.347
827.513; 5530.393;  -11.179; 9450.726
828.079; 5648.529;  -13.489; 9472.444
828.645; 5791.958;  -12.500; 9292.643
829.210; 5856.624;  -15.120; 9065.341
829.776; 5874.292;  -12.590; 9132.620
830.341; 6085.665;  -11.540; 9092.878
830.906; 6546.807;  -12.400; 9078.557
831.472; 6364.515;  -12.720; 8534.535
832.037; 5450.760;  -11.490; 8677.874
832.602; 4845.456;  -14.380; 8628.692
833.167; 4837.212;  -12.780; 8879.031
833.733; 5293.183;  -11.100; 9189.790
834.298; 5543.936;  -12.080; 9052.608
834.863; 5245.719;  -13.910; 8895.087
835.428; 4811.557;  -13.470; 8824.266
835.993; 4677.910;  -11.760; 8845.385
836.558; 4893.588;  -12.731; 8888.563
837.123; 4913.789;  -12.431; 8966.582
837.688; 4694.362;  -11.241; 8617.860
838.253; 4624.446;  -13.681; 8590.699
838.817; 4815.805;  -12.531; 8443.797
839.382; 4905.858;  -12.671; 8799.356
839.947; 4961.025;  -11.541; 8810.595
840.511; 5078.390;  -12.021; 8796.394
841.076; 5159.848;  -13.071; 8347.231
841.641; 5391.744;  -11.411; 8224.330
842.205; 5571.477;  -13.671; 8223.349
842.770; 5367.654;  -11.291; 8622.107
843.334; 5060.356;  -12.951; 8410.386
843.898; 4819.064;  -11.221; 8337.465
844.463; 4854.544;  -11.322; 8506.283
845.027; 4747.902;  -11.412; 8280.962
845.591; 4501.749;  -11.512; 8231.141
846.156; 4380.081;  -14.042; 7969.179
846.720; 4377.912;  -12.152; 7768.278
847.284; 4239.323;  -10.922; 7630.957
847.848; 4059.064;  -10.962; 7472.395
848.412; 3822.136;  -14.612; 7437.394
848.976; 3929.197;  -11.492; 7674.592
849.540; 4308.652;   -9.172; 7836.011
850.104; 4473.038;  -11.232; 7913.669
850.668; 4335.602;  -15.182; 7694.508
851.232; 4175.976;  -15.332; 7756.887
851.796; 4057.052;  -13.703; 7926.545
852.359; 4046.875;  -11.113; 7827.844
852.923; 4097.531;  -11.843; 7641.163
853.487; 4087.838;  -11.173; 7342.501
854.050; 3981.479;  -13.443; 7042.820
854.614; 3928.642;  -13.823; 7151.338
855.177; 3835.656;  -16.393; 7105.077
855.741; 3756.194;  -11.693; 6989.675
856.304; 3694.902;  -10.843; 6596.634
856.868; 3522.478;  -13.783; 6356.272
857.431; 3244.124;  -11.953; 6468.571
857.995; 3003.232;  -13.683; 6373.210
858.558; 3012.200;  -11.433; 6324.448
859.121; 3035.733;  -12.493; 6408.327
859.684; 2840.388;  -12.384; 6347.886
860.247; 2540.461;  -14.774; 6321.264
860.810; 2378.246;  -13.154; 6301.903
861.374; 2413.400;  -11.264; 6607.881
861.937; 2468.882;  -15.424; 6408.200
862.500; 2434.113;  -12.854; 6572.639
863.062; 2432.218;  -12.344; 6387.297
863.625; 2490.482;  -13.314; 6190.836
864.188; 2587.185;  -14.724; 5807.254
864.751; 2808.884;  -13.464; 5682.413
865.314; 3147.365;  -11.684; 5547.492
865.876; 3308.031;  -11.104; 5500.150
866.439; 3262.765;  -12.344; 5415.909
867.002; 3073.036;  -13.494; 5501.567
867.564; 2874.881;  -10.935; 5413.946
868.127; 2809.974;  -12.665; 5160.325
868.689; 2800.239;  -14.515; 5133.183
869.252; 2863.063;  -13.425; 5252.382
869.814; 3064.481;  -11.595; 5297.141
870.377; 3078.145;  -12.175; 5390.919
870.939; 2912.503;  -10.265; 5599.898
871.501; 2770.760;  -12.375; 5248.336
872.063; 2679.685;  -14.355; 4854.235
872.626; 2606.998;  -14.435; 4817.074
873.188; 2561.636;  -12.415; 4987.732
873.750; 2588.803;  -14.555; 4868.651
874.312; 2503.808;  -11.185; 4779.330
874.874; 2343.779;  -12.715; 4866.348
875.436; 2282.594;  -13.196; 4718.887
875.998; 2187.657;  -11.426; 4660.005
876.560; 2021.629;   -9.786; 4462.964
877.122; 1849.841;  -12.796; 4145.042
877.683; 1653.922;  -13.226; 4056.481
878.245; 1427.369;  -12.036; 3950.740
878.807; 1269.880;  -11.536; 4058.958
879.369; 1228.895;  -10.806; 3954.677
879.930; 1234.375;  -13.946; 3941.495
880.492; 1255.324;  -11.876; 4067.014
881.053; 1352.066;  -13.216; 3859.633
881.615; 1461.864;  -12.226; 3776.071
882.176; 1466.804;  -12.946; 3734.750
882.738; 1400.755;  -10.736; 3678.489
883.299; 1367.632;  -12.057; 3405.407
883.860; 1381.597;  -12.677; 3351.106
884.422; 1372.282;  -14.097; 3394.044
884.983; 1297.439;  -13.667; 3166.443
885.544; 1177.920;  -10.717; 3189.802
886.105; 1109.926;  -14.357; 3160.360
886.666; 1117.276;  -14.287; 3093.059
887.227; 1133.005;  -14.297; 2941.957
887.788; 1122.007;  -13.137; 2974.836
888.349; 1043.865;  -14.637; 2721.214
888.910;  986.252;  -12.247; 2696.493
889.471;  982.789;  -10.577; 2560.172
890.032;  969.325;  -12.937; 2558.190
890.593;  903.434;  -12.487; 2567.669
891.153;  841.173;  -11.898; 2460.307
891.714;  847.245;  -14.278; 2372.046
892.275;  839.902;  -13.308; 2309.505
892.835;  765.480;  -12.058; 2382.543
893.396;  694.069;  -15.268; 2295.502
893.956;  651.078;  -13.278; 2162.420
894.517;  624.460;  -11.968; 2125.439
895.077;  612.503;  -12.798; 2086.978
895.638;  580.456;  -11.908; 2126.316
896.198;  544.070;  -13.288; 1838.275
896.758;  519.266;  -12.198; 1892.813
897.319;  490.303;  -13.048; 1792.232
897.879;  440.397;  -13.718; 1762.751
898.439;  402.262;  -14.138; 1661.149
898.999;  393.893;  -13.659; 1781.468
899.559;  380.639;  -14.699; 1703.347
900.119;  359.967;  -14.339; 1537.525
900.679;  338.013;  -11.789; 1638.384
901.239;  314.076;  -13.629; 1527.902
901.799;  294.899;  -13.679; 1456.441
902.359;  280.559;  -13.679; 1357.140
902.919;  269.275;  -14.159; 1331.118
903.479;  255.593;  -13.419; 1317.257
904.038;  242.079;  -14.899; 1262.595
904.598;  228.485;  -14.339; 1152.034
905.158;  223.430;  -13.959; 1240.893
905.717;  218.281;  -12.749; 1233.691
906.277;  209.047;  -11.889; 1217.330
906.836;  200.021;  -12.870; 1222.408
907.396;  197.367;  -11.790; 1193.047
907.955;  194.657;  -13.750; 1182.526
908.515;  187.657;  -14.760; 1099.364
909.074;  180.928;  -12.540; 1092.863
909.633;  175.324;  -12.120; 1069.121
910.192;  172.756;  -12.550; 1196.460
910.752;  171.207;  -12.760; 1029.960
911.311;  166.773;  -14.750; 1009.780
911.870;  162.739;  -13.860;  971.460
912.429;  160.250;  -13.480; 1094.080
912.988;  156.331;  -12.370; 1081.060
913.547;  151.437;  -14.670;  940.380
914.106;  149.268;  -12.800;  999.420
914.665;  148.874;  -11.370;  984.020
915.224;  146.790;  -11.430; 1035.760
915.782;  142.347;  -12.260;  922.560
916.341;  140.631;  -12.540; 1049.840
916.900;  137.649;  -12.540;  925.260
917.458;  137.150;  -13.480;  884.220
918.017;  137.073;  -12.470;  942.600
918.576;  137.285;  -13.450;  904.440
919.134;  137.158;  -12.890;  837.980
919.693;  135.203;  -15.480;  893.060
920.251;  133.677;  -14.420;  876.500
920.809;  132.651;  -12.170;  839.580
921.368;  132.994;  -13.650;  885.360
921.926;  131.222;  -12.750;  842.940
922.484;  130.604;  -14.150;  903.360
923.042;  132.580;  -15.100;  880.340
923.601;  137.066;  -10.990;  998.680
924.159;  137.848;  -12.470;  935.560
924.717;  136.536;  -15.640;  841.080
925.275;  137.685;  -12.380;  903.240
925.833;  137.419;  -12.710;  779.320
926.391;  140.159;  -11.200;  938.380
926.949;  140.134;  -16.000;  857.680
927.506;  142.772;  -12.260;  903.500
928.064;  144.650;  -11.300;  877.580
928.622;  144.588;  -13.750;  880.100
929.180;  142.538;  -15.290;  814.180
929.737;  142.564;  -14.500;  808.540
930.295;  143.923;  -10.630;  928.480
930.853;  147.519;  -14.590;  849.100
931.410;  148.541;  -14.450;  821.120
931.968;  150.399;  -14.390;  940.660
932.525;  150.067;  -13.050;  909.380
933.082;  149.264;  -15.620;  811.440
933.640;  154.352;  -15.650;  925.900
934.197;  158.812;  -13.610;  886.360
934.754;  163.548;  -13.320;  897.780
935.312;  166.771;  -13.370;  863.340
935.869;  169.081;  -12.780; 1012.980
936.426;  165.949;  -14.480;  872.800
936.983;  167.197;  -13.180;  889.020
937.540;  169.600;  -15.710;  838.280
938.097;  168.886;  -14.980;  940.120
938.654;  170.772;  -13.060;  898.860
939.211;  172.538;  -12.760;  952.480
939.768;  171.336;  -16.230;  915.420
940.324;  169.048;  -10.940;  904.200
940.881;  167.889;  -12.570;  878.500
941.438;  167.869;  -13.650; 1021.200
941.995;  168.413;  -13.300;  992.560
942.551;  168.240;  -15.800;  875.620
943.108;  168.354;  -14.180;  937.920
943.664;  168.394;  -13.890;  869.340
944.221;  173.059;  -12.640; 1088.140
944.777;  172.007;  -14.700;  869.680
945.334;  171.982;  -13.010;  884.840
945.890;  172.392;  -13.480;  946.480
946.446;  171.370;  -14.920;  947.020
947.003;  169.027;  -13.860;  964.940
947.559;  167.862;  -12.000; 1063.040
948.115;  168.080;  -10.510; 1026.540
948.671;  168.320;  -12.760;  967.300
949.227;  163.665;  -15.390;  859.560
949.783;  158.416;  -15.570;  858.900
950.339;  158.428;  -12.800;  991.000
950.895;  157.602;  -13.780; 1023.840
951.451;  157.277;  -13.810;  925.280
952.007;  157.241;  -12.390;  998.540
952.563;  157.055;  -11.980;  937.780
953.118;  156.056;  -14.070;  904.940
953.674;  157.396;  -14.140;  935.780
954.230;  162.140;  -12.680;  949.640
954.785;  163.304;  -12.770;  936.640
955.341;  159.444;  -11.450;  998.160
955.897;  150.800;  -15.350;  834.660
956.452;  146.500;  -14.200;  953.840
957.008;  143.364;  -10.820; 1083.640
957.563;  142.789;  -13.200; 1009.540
958.118;  141.942;  -14.460;  877.700
958.674;  141.938;  -13.840;  946.780
959.229;  142.806;  -10.670; 1013.980
959.784;  141.449;  -17.040;  832.400
960.339;  143.411;  -12.970; 1001.280
960.894;  147.614;  -12.700;  963.760
961.449;  151.270;  -13.790;  859.960
962.004;  155.887;  -11.760; 1212.840
962.559;  150.491;  -14.840;  860.140
963.114;  145.500;  -14.530;  742.480
963.669;  142.932;  -12.780;  915.500
964.224;  139.258;  -14.330;  874.340
964.779;  133.642;  -14.380;  828.420
965.334;  131.788;  -12.460; 1017.860
965.888;  128.744;  -13.490;  875.360
966.443;  128.798;  -14.140;  972.380
966.998;  125.809;  -16.240;  819.460
967.552;  126.597;  -12.730;  908.380
968.107;  124.333;  -14.510;  868.300
968.661;  125.069;  -11.850;  922.440
969.216;  122.295;  -14.370;  856.280
969.770;  118.638;  -13.010;  917.200
970.324;  117.721;  -12.460;  923.140
970.879;  119.503;  -11.580;  947.180
971.433;  119.368;  -13.130;  952.720
971.987;  117.048;  -12.360;  895.340
972.541;  113.352;  -14.330;  917.100
973.095;  111.845;  -13.310; 1009.460
973.649;  107.776;  -15.830;  809.480
974.203;  108.249;  -15.830;  829.040
974.757;  111.574;  -13.480;  855.220
975.311;  114.227;  -13.720;  872.600
975.865;  115.028;  -15.780;  881.820
976.419;  112.282;  -14.290;  857.400
976.973;  109.317;  -13.210;  849.620
977.526;  107.545;  -12.300;  949.920
978.080;  101.213;  -14.840;  796.780
978.634;   99.749;  -13.100;  921.320
979.187;   97.928;  -12.300;  905.400
979.741;   97.502;  -12.020; 1018.380
980.294;   93.388;  -14.590;  789.160
980.848;   91.853;  -14.390;  717.220
981.401;   93.029;  -14.280;  816.540
981.955;   92.780;  -11.920;  844.300
982.508;   88.485;  -15.790;  746.340
983.061;   88.655;  -12.070;  915.260
983.615;   86.109;  -13.260;  798.800
984.168;   83.608;  -15.540;  770.080
984.721;   82.998;  -13.230;  880.760
985.274;   79.944;  -11.820;  867.500
985.827;   79.437;  -13.510;  834.220
986.380;   78.006;  -14.840;  721.340
986.933;   77.136;  -13.970;  864.800
987.486;   76.396;  -12.450;  861.920
988.039;   74.950;  -11.170;  863.100
988.591;   73.229;  -13.070;  893.260
989.144;   69.989;  -15.530;  737.260
989.697;   69.580;  -14.300;  758.740
990.250;   68.798;  -13.310;  858.100
990.802;   66.421;  -14.490;  755.860
991.355;   67.674;  -12.980;  974.880
991.907;   65.168;  -13.715;  864.320
992.460;   62.662;  -14.450;  753.760
993.012;   62.340;  -12.590;  749.540
993.565;   59.028;  -15.180;  711.360
994.117;   61.541;  -11.630;  950.780
994.669;   59.113;  -13.760;  701.320
995.221;   58.739;  -12.710;  791.920
995.774;   57.150;  -14.620;  787.580
996.326;   55.904;  -13.150;  740.220
996.878;   56.178;  -12.880;  838.420
997.430;   54.748;  -14.580;  699.860
997.982;   53.994;  -14.030;  750.140
998.534;   52.853;  -12.190;  739.060
999.086;   51.947;  -12.990;  738.220
999.638;   50.868;  -13.180;  661.380
1000.190;   49.369;  -14.970;  699.320
1000.741;   49.572;  -12.200;  742.700
1001.293;   49.754;  -13.400;  686.020
1001.845;   48.423;  -14.490;  676.640
1002.396;   47.848;  -15.280;  743.400
1002.948;   48.115;  -12.380;  737.400
1003.500;   47.509;  -13.260;  723.780
1004.051;   48.949;  -13.730;  907.580
1004.603;   47.518;  -12.300;  791.820
1005.154;   43.617;  -15.330;  608.980
1005.705;   42.701;  -12.800;  723.960
1006.257;   42.444;  -13.900;  707.220
1006.808;   41.606;  -14.430;  685.460
1007.359;   41.024;  -12.010;  763.240
1007.910;   38.918;  -12.690;  646.640
1008.461;   39.196;  -13.610;  732.940
1009.013;   37.524;  -14.990;  588.340
1009.564;   38.443;  -11.860;  793.520
1010.115;   36.915;  -12.640;  597.040
1010.665;   36.646;  -14.570;  602.160
1011.216;   37.280;  -15.190;  667.920
1011.767;   36.065;  -13.470;  697.920
1012.318;   36.989;  -13.760;  736.980
1012.869;   36.232;  -15.950;  679.000
1013.419;   35.703;  -15.880;  603.120
1013.970;   35.263;  -14.540;  666.640
1014.521;   34.827;  -13.220;  620.620
1015.071;   35.866;  -15.020;  670.380
1015.622;   34.617;  -17.510;  635.460
1016.172;   33.492;  -14.130;  596.820
1016.723;   33.616;  -14.220;  614.380
1017.273;   33.499;  -15.370;  604.160
1017.823;   33.769;  -15.290;  650.340
1018.374;   32.801;  -13.420;  611.760
1018.924;   32.562;  -11.740;  716.880
1019.474;   33.706;  -12.250;  718.880
1020.024;   31.591;  -15.850;  657.580
1020.574;   32.839;  -13.280;  726.160
1021.124;   32.935;  -13.560;  673.580
1021.674;   31.188;  -13.790;  559.120
1022.224;   32.292;  -14.610;  708.940
1022.774;   31.513;  -13.100;  668.820
1023.324;   32.264;  -11.470;  753.520
1023.874;   33.461;  -11.990;  875.760
1024.423;   30.374;  -14.550;  613.700
1024.973;   29.989;  -14.440;  610.760
1025.523;   29.771;  -13.250;  620.960
1026.072;   29.431;  -15.200;  606.420
1026.622;   29.324;  -14.590;  675.740
1027.172;   30.054;  -11.080;  715.660
1027.721;   28.821;  -14.010;  601.220
1028.270;   29.418;  -13.690;  663.400
1028.820;   28.633;  -15.380;  638.080
1029.369;   28.227;  -14.980;  612.700
1029.918;   29.070;  -13.100;  649.840
1030.468;   28.406;  -13.680;  564.780
1031.017;   28.994;  -13.770;  634.800
1031.566;   26.500;  -14.100;  608.900
1032.115;   28.237;  -11.770;  694.500
1032.664;   26.814;  -14.940;  596.480
1033.213;   28.018;  -13.370;  735.420
1033.762;   26.952;  -13.660;  635.620
1034.311;   26.782;  -13.650;  677.220
1034.860;   27.363;  -13.820;  691.000
1035.408;   26.515;  -12.860;  722.720
1035.957;   26.824;  -13.060;  719.540
1036.506;   25.080;  -14.510;  530.800
1037.055;   28.064;  -13.470;  844.320
1037.603;   26.139;  -14.800;  664.000
1038.152;   24.256;  -14.190;  534.760
1038.700;   25.726;  -11.810;  585.740
1039.249;   25.228;  -12.850;  681.220
1039.797;   24.461;  -14.610;  633.360
1040.345;   24.487;  -15.220;  705.420
1040.894;   24.166;  -13.480;  625.300
1041.442;   24.227;  -13.310;  632.200
1041.990;   22.403;  -14.510;  559.160
1042.538;   23.150;  -15.700;  536.180
1043.087;   23.662;  -13.910;  570.860
1043.635;   24.597;  -13.620;  670.500
1044.183;   23.212;  -14.230;  586.400
1044.731;   23.303;  -13.730;  576.000
1045.279;   22.653;  -13.970;  674.920
1045.827;   25.678;  -10.750;  892.400
1046.374;   21.797;  -15.230;  515.420
1046.922;   21.248;  -15.390;  590.580
1047.470;   23.392;  -12.320;  691.300
1048.018;   23.127;  -13.230;  647.960
1048.565;   23.296;  -13.390;  708.600
1049.113;   20.932;  -15.030;  557.000
1049.660;   21.448;  -12.540;  629.660
1050.208;   22.749;  -15.040;  675.640
1050.755;   20.361;  -14.680;  606.580
1051.303;   22.034;  -13.610;  686.820
1051.850;   21.900;  -14.340;  635.120
1052.397;   19.164;  -16.330;  473.960
1052.945;   20.419;  -15.710;  617.760
1053.492;   21.379;  -12.320;  741.840
1054.039;   21.495;  -13.730;  720.180
1054.586;   20.437;  -16.140;  557.240
1055.133;   20.318;  -14.020;  693.140
1055.680;   20.441;  -13.430;  646.620
1056.227;   19.449;  -14.570;  542.780
1056.774;   22.222;  -14.400;  794.980
1057.321;   19.395;  -14.230;  523.260
1057.868;   18.947;  -14.220;  651.320
1058.415;   19.261;  -14.060;  651.980
1058.961;   19.608;  -14.640;  678.940
1059.508;   19.139;  -13.970;  643.820
1060.055;   18.533;  -15.100;  581.780
1060.601;   19.351;  -12.180;  624.300
1061.148;   19.067;  -15.010;  616.820
1061.694;   18.152;  -14.750;  592.580
1062.241;   17.682;  -14.130;  596.320
1062.787;   18.204;  -14.770;  663.140
1063.334;   19.959;  -13.130;  808.560
1063.880;   17.994;  -14.420;  668.360
1064.426;   18.254;  -13.130;  706.820
1064.972;   17.458;  -13.960;  601.340
1065.518;   16.492;  -13.680;  566.640
1066.065;   17.972;  -15.720;  624.460
1066.611;   16.389;  -13.970;  598.800
1067.157;   17.000;  -13.920;  641.860
1067.703;   17.527;  -14.760;  668.480
1068.249;   16.869;  -14.490;  605.220
1068.794;   16.075;  -14.740;  626.880
1069.340;   16.049;  -13.220;  578.960
1069.886;   16.967;  -14.930;  590.700
1070.432;   15.192;  -14.700;  541.720
1070.977;   15.042;  -14.470;  601.080
1071.523;   14.977;  -14.330;  573.060
1072.068;   16.253;  -14.960;  582.000
1072.614;   15.368;  -16.220;  527.760
1073.160;   16.119;  -11.280;  687.040
1073.705;   15.166;  -15.990;  572.520
1074.250;   15.086;  -16.550;  559.900
1074.796;   15.748;  -14.600;  655.160
1075.341;   15.558;  -13.440;  664.100
1075.886;   15.305;  -14.450;  594.240
1076.431;   15.367;  -13.160;  649.880
1076.976;   14.630;  -14.710;  639.220
1077.521;   14.027;  -14.000;  583.080
1078.067;   13.463;  -14.470;  579.400
1078.612;   15.114;  -14.530;  661.620
1079.156;   13.613;  -15.660;  601.540
1079.701;   14.302;  -16.120;  693.260
1080.246;   15.265;  -12.960;  696.300
1080.791;   14.440;  -13.700;  625.020
1081.336;   14.609;  -15.540;  659.320
1081.880;   13.887;  -14.640;  649.680
1082.425;   13.448;  -14.220;  573.480
1082.970;   15.000;  -11.890;  717.040
1083.514;   13.229;  -13.820;  597.000
1084.059;   12.462;  -14.280;  586.720
1084.603;   12.807;  -12.890;  565.840
1085.147;   13.075;  -13.590;  645.220
1085.692;   13.720;  -14.050;  716.800
1086.236;   11.427;  -14.990;  503.140
1086.780;   13.932;  -12.640;  751.440
1087.325;   13.567;  -15.550;  654.620
1087.869;   13.646;  -14.980;  610.700
1088.413;   13.338;  -13.440;  705.040
1088.957;   11.143;  -12.170;  543.400
1089.501;   14.765;  -12.730;  766.640
1090.045;   13.327;  -14.650;  726.480
1090.589;   10.067;  -14.500;  569.920
1091.133;   11.997;  -12.320;  673.340
1091.676;   12.444;  -16.130;  591.940
1092.220;   11.768;  -13.930;  600.920
1092.764;   12.108;  -12.820;  706.960
1093.307;   12.194;  -11.700;  673.780
1093.851;   11.139;  -15.600;  556.540
1094.395;   11.777;  -13.920;  683.140
1094.938;   11.230;  -16.090;  632.520
1095.482;   11.203;  -13.820;  559.800
1096.025;   12.025;  -12.720;  710.880
1096.568;   12.468;  -12.100;  779.280
1097.112;    8.557;  -15.450;  508.180
1097.655;   11.315;  -14.310;  603.000
1098.198;    9.913;  -14.740;  600.180
1098.741;    9.790;  -15.550;  612.860
1099.285;   10.614;  -12.600;  657.300
1099.828;    8.614;  -15.050;  439.400
1100.371;   10.559;  -14.800;  608.160
1100.914;    9.411;  -16.480;  682.660
1101.457;   10.166;  -12.990;  679.900
1101.999;    8.440;  -14.110;  584.680
1102.542;   10.485;  -11.450;  641.440
1103.085;    8.993;  -13.350;  658.500
1103.628;    9.572;  -13.200;  762.060
1104.170;    7.952;  -12.310;  588.280
1104.713;   10.132;  -14.320;  646.700
1105.256;    8.127;  -16.110;  557.440
1105.798;    7.362;  -15.910;  499.980
1106.341;   10.084;  -12.200;  728.900
1106.883;    8.401;  -14.910;  521.340
1107.425;    8.895;  -14.960;  668.180
1107.968;    8.507;  -13.440;  612.380
1108.510;    9.239;  -14.010;  684.960
1109.052;    7.465;  -15.430;  612.620
1109.594;    7.437;  -15.290;  554.440
1110.136;    8.540;  -13.360;  643.220
1110.679;    7.564;  -13.820;  633.080
1111.221;    8.326;  -13.690;  604.460
1111.763;    7.026;  -14.890;  559.220
1112.304;    6.542;  -14.550;  547.140
1112.846;    7.622;  -12.760;  666.240
1113.388;   11.095;  -10.780;  942.180
1113.930;    7.966;  -12.690;  694.200
1114.472;    6.227;  -15.730;  606.540
1115.013;    5.946;  -14.620;  551.280
1115.555;    6.817;  -14.950;  587.100
1116.097;    5.818;  -16.460;  579.480
1116.638;    7.114;  -13.730;  684.600
1117.180;    7.210;  -13.810;  667.740
1117.721;    5.939;  -13.280;  568.580
1118.262;    7.079;  -15.080;  677.960
1118.804;    6.681;  -14.040;  637.340
1119.345;    5.966;  -15.430;  578.400
1119.886;    7.420;  -15.240;  704.040
1120.427;    6.519;  -15.820;  589.020
1120.969;    5.557;  -14.550;  597.920
1121.510;    4.781;  -14.030;  563.060
1122.051;    7.164;  -11.990;  723.580
1122.592;    5.582;  -16.490;  655.420
1123.133;    3.844;  -15.580;  547.940
1123.673;    6.903;  -12.850;  706.480
1124.214;    5.287;  -13.630;  612.460
1124.755;    5.737;  -14.830;  639.460
1125.296;    5.538;  -13.110;  627.320
1125.836;    6.659;  -11.320;  691.500
1126.377;    5.080;  -14.330;  599.660
1126.918;    5.364;  -12.800;  614.980
1127.458;    4.138;  -13.580;  622.220
1127.999;    5.860;  -10.330;  656.980
1128.539;    6.085;  -13.390;  694.240
1129.079;    4.486;  -16.420;  632.720
1129.620;    3.452;  -15.700;  558.100
1130.160;    3.680;  -14.790;  539.480
1130.700;    4.650;  -12.910;  640.840
1131.240;    5.126;  -15.610;  643.700
1131.781;    3.800;  -12.920;  619.680
1132.321;    4.475;  -15.300;  599.120
1132.861;    4.174;  -14.760;  564.200
1133.401;    3.888;  -15.470;  593.940
1133.941;    3.548;  -13.710;  626.280
1134.481;    3.692;  -11.820;  597.580
1135.020;    2.912;  -14.810;  609.160
1135.560;    4.326;  -13.660;  674.940
1136.100;    2.466;  -13.940;  501.160
1136.640;    2.428;  -15.410;  510.480
1137.179;    3.016;  -16.920;  537.960
1137.719;    3.055;  -16.430;  605.400
1138.258;    3.186;  -16.300;  587.360
1138.798;    3.595;  -13.710;  663.780
1139.337;    2.240;  -13.840;  482.840
1139.877;    3.445;  -16.140;  642.360
1140.416;    5.714;  -11.410;  878.060
1140.955;    1.923;  -12.820;  535.380
1141.494;    2.961;  -12.310;  669.280
1142.034;    1.490;  -16.280;  583.520
1142.573;    3.045;  -13.090;  646.280
1143.112;    1.753;  -13.770;  553.480
1143.651;    2.269;  -15.830;  536.480
1144.190;    3.010;  -15.010;  691.640
1144.729;    1.571;  -13.650;  607.420
1145.267;    2.323;  -13.670;  584.900
1145.806;    3.280;  -13.630;  637.040
1146.345;    1.861;  -14.160;  635.020
1146.884;    1.541;  -11.180;  622.500
1147.422;    1.397;  -15.890;  533.060
1147.961;    3.731;  -12.760;  708.460
1148.500;    2.579;  -15.220;  669.720
1149.038;    2.251;  -13.720;  632.500
1149.577;    2.568;  -13.250;  698.640
1150.115;    0.139;  -16.790;  452.280
1150.653;    1.490;  -15.810;  607.340
1151.192;    1.434;  -14.730;  552.920
1151.730;    1.286;  -13.660;  652.560
1152.268;    0.964;  -15.120;  589.520
1152.806;    0.900;  -15.580;  571.180
1153.344;   -0.455;  -16.210;  577.640
1153.882;    0.863;  -12.810;  600.060
1154.421;    0.317;  -14.150;  470.620
1154.958;    0.123;  -15.360;  595.240
1155.496;    1.416;  -14.710;  645.280
1156.034;    1.000;  -13.640;  721.880
1156.572;    1.731;  -13.740;  667.060
1157.110;   -0.239;  -16.960;  473.940
1157.647;    1.179;  -11.940;  676.960
1158.185;    0.117;  -14.090;  564.320
1158.723;   -0.483;  -13.610;  509.200
1159.260;    1.180;  -14.760;  701.700
1159.798;    0.903;  -13.700;  658.160
1160.335;   -0.053;  -13.820;  631.820

