
Integration time [ms]:   3.882
Averaging Nr. [scans]: 1000
Smoothing Nr. [pixels]: 0
Data measured with spectrometer [name]: 7414430SP
Wave   ;Sample   ;Dark     ;Reference
[nm]   ;[counts] ;[counts] ;[counts] 

288.544;  125.766;   10.292;  793.890
289.143;  129.122;    4.564;  681.602
289.742;  129.136;    6.144;  828.814
290.341;  117.107;    4.396;  789.841
290.940;  108.037;    0.938;  730.702
291.538;  108.141;   -0.684;  881.108
292.137;  107.143;   -2.845;  792.581
292.736;  112.535;   -0.144;  975.101
293.335;  107.715;   -6.352;  735.086
293.934;  108.874;   -7.642;  781.677
294.532;  109.097;   -4.992; 1031.958
295.131;   95.760;   -5.478;  834.394
295.730;   95.811;   -6.549;  809.588
296.328;   93.612;   -9.558;  783.442
296.927;   94.054;   -8.118;  779.652
297.525;   95.340;   -6.908;  781.236
298.124;   85.069;   -9.195;  654.009
298.722;   89.561;   -8.198;  761.933
299.321;   88.840;   -8.817;  708.597
299.919;   86.150;   -7.716;  751.918
300.518;   83.373;  -10.745;  689.338
301.116;   83.964;   -9.647;  691.381
301.715;   83.736;  -10.828;  730.222
302.313;   83.636;   -6.087;  704.943
302.911;   78.971;   -6.824;  733.830
303.509;   84.470;   -8.807;  925.627
304.108;   81.403;   -8.198;  760.383
304.706;   81.456;   -6.218;  801.664
305.304;   76.058;   -7.185;  796.707
305.902;   81.907;   -8.568;  784.484
306.500;   78.067;   -7.737;  728.200
307.098;   76.082;   -6.026;  746.560
307.696;   74.348;   -7.176;  780.432
308.294;   75.154;   -8.656;  731.359
308.892;   77.753;   -6.838;  759.769
309.490;   73.183;   -2.596;  712.161
310.088;   70.619;   -4.485;  788.444
310.686;   76.151;   -3.907;  821.749
311.284;   72.500;   -2.806;  766.040
311.882;   69.742;   -2.845;  731.225
312.480;   65.655;   -3.274;  697.167
313.078;   68.581;   -3.645;  808.331
313.675;   69.012;   -4.997;  691.600
314.273;   64.636;   -0.894;  797.837
314.871;   63.286;   -2.854;  589.829
315.468;   61.986;   -3.644;  652.090
316.066;   65.381;   -3.947;  694.427
316.664;   58.487;   -1.824;  656.351
317.261;   62.710;    1.565;  910.128
317.859;   58.525;   -3.955;  768.735
318.456;   60.141;   -2.886;  830.096
319.054;   55.756;   -0.995;  787.828
319.651;   55.367;   -1.765;  759.928
320.249;   54.056;   -3.685;  810.188
320.846;   52.603;   -3.736;  714.286
321.443;   50.649;   -2.065;  832.135
322.041;   47.198;   -5.635;  812.315
322.638;   45.158;   -5.985;  701.456
323.235;   47.356;   -6.677;  665.683
323.833;   46.143;   -3.497;  740.354
324.430;   41.084;   -6.756;  615.900
325.027;   42.598;   -7.647;  876.855
325.624;   43.043;   -7.598;  644.532
326.221;   40.986;   -5.848;  689.717
326.818;   40.133;   -5.777;  818.332
327.415;   42.305;   -8.769;  748.828
328.012;   41.897;   -6.299;  690.585
328.609;   40.985;   -6.639;  731.389
329.206;   37.996;   -6.358;  778.621
329.803;   38.022;   -8.698;  737.841
330.400;   38.846;   -8.379;  704.260
330.997;   40.599;   -6.178;  817.147
331.594;   38.037;   -5.646;  788.185
332.191;   42.812;   -6.928;  728.722
332.787;   45.013;   -6.057;  844.463
333.384;   43.018;   -6.445;  763.093
333.981;   39.121;   -8.002;  815.687
334.578;   41.676;   -8.443;  708.378
335.174;   44.019;   -6.053;  731.469
335.771;   44.022;   -5.791;  836.456
336.367;   39.955;   -6.570;  710.631
336.964;   41.928;   -6.741;  793.266
337.561;   43.618;   -5.710;  731.112
338.157;   40.336;   -3.928;  911.916
338.754;   35.034;   -5.577;  796.589
339.350;   34.587;   -9.667;  722.493
339.946;   38.735;   -5.269;  773.135
340.543;   30.931;   -4.485;  846.136
341.139;   24.560;   -7.584;  720.836
341.735;   22.803;   -8.553;  772.593
342.332;   21.840;   -4.984;  691.472
342.928;   24.357;   -3.475;  795.394
343.524;   18.312;   -6.653;  761.684
344.120;   14.236;   -7.173;  738.562
344.716;   18.160;   -4.385;  723.717
345.313;   16.646;   -3.565;  795.342
345.909;   11.654;   -7.495;  627.336
346.505;   13.996;   -8.276;  740.247
347.101;   14.784;   -5.697;  827.864
347.697;   15.877;   -4.767;  785.398
348.293;    9.393;   -7.226;  627.244
348.889;   10.286;   -7.547;  745.914
349.485;   10.818;   -9.147;  688.205
350.081;   11.212;   -6.568;  772.592
350.676;    7.068;   -6.516;  691.606
351.272;   10.676;   -7.378;  809.530
351.868;   11.287;   -6.759;  780.497
352.464;    8.803;   -4.798;  723.932
353.059;    4.761;   -7.977;  646.017
353.655;    8.407;   -8.769;  777.063
354.251;    9.809;   -5.920;  759.845
354.846;    4.536;   -7.647;  740.646
355.442;    1.885;   -6.956;  753.071
356.038;    4.100;   -9.928;  751.708
356.633;    4.390;   -7.698;  728.594
357.229;    1.930;   -6.307;  724.757
357.824;    0.137;   -7.647;  703.600
358.420;   -0.189;  -10.047;  679.726
359.015;   -0.035;   -7.458;  695.357
359.610;    1.759;   -5.748;  763.920
360.206;   -4.601;   -9.346;  603.240
360.801;   -1.966;  -11.268;  646.503
361.396;    0.352;   -8.789;  725.975
361.992;   -2.675;   -6.347;  668.220
362.587;   -6.564;   -6.476;  670.160
363.182;   -4.092;   -9.457;  689.631
363.777;   -2.930;   -7.147;  738.242
364.372;   -3.205;   -5.507;  737.314
364.967;   -6.929;   -6.386;  680.744
365.563;   -2.793;   -7.858;  815.567
366.158;   -5.272;   -8.517;  685.161
366.753;   -4.124;   -8.728;  649.263
367.348;   -6.217;   -7.677;  746.056
367.942;   -6.501;  -10.387;  697.298
368.537;   -7.338;   -7.187;  754.245
369.132;   -6.634;   -8.587;  703.428
369.727;  -10.825;   -8.606;  638.079
370.322;   -9.986;  -10.426;  580.186
370.917;   -9.587;   -5.776;  710.646
371.511;   -6.275;   -6.007;  861.834
372.106;  -10.537;   -6.686;  776.964
372.701;  -13.661;   -9.335;  585.988
373.296;   -6.994;   -6.777;  863.135
373.890;  -11.440;   -7.546;  647.840
374.485;  -14.898;   -8.755;  691.199
375.079;  -10.577;   -9.797;  738.685
375.674;   -8.485;   -6.327;  812.970
376.268;  -12.652;   -9.046;  691.759
376.863;  -18.625;   -7.993;  580.327
377.457;  -11.800;   -9.206;  662.490
378.052;  -13.677;   -5.345;  764.884
378.646;  -14.336;   -5.605;  741.167
379.240;  -15.016;   -6.825;  721.176
379.835;  -14.046;  -10.476;  636.978
380.429;  -15.956;   -8.676;  562.557
381.023;  -15.559;   -4.945;  779.205
381.617;  -18.804;   -8.094;  680.106
382.212;  -15.277;  -10.646;  685.303
382.806;  -13.270;   -8.136;  760.690
383.400;  -16.965;   -7.855;  672.281
383.994;  -18.906;   -8.125;  664.870
384.588;  -15.003;   -7.637;  697.701
385.182;  -12.992;   -7.458;  726.624
385.776;  -14.384;   -6.277;  706.875
386.370;  -17.994;   -7.485;  681.968
386.964;  -16.369;   -9.416;  684.155
387.558;  -14.789;   -8.518;  598.360
388.152;  -17.934;   -7.096;  681.959
388.745;  -15.952;   -7.656;  814.707
389.339;  -14.706;   -8.927;  747.642
389.933;  -12.934;   -9.538;  695.370
390.527;  -14.452;   -5.857;  859.029
391.120;  -21.375;   -9.455;  595.318
391.714;  -17.843;   -9.746;  711.633
392.308;  -14.150;   -7.857;  780.253
392.901;  -18.435;   -9.106;  642.460
393.495;  -20.322;  -10.365;  595.414
394.089;  -17.809;   -9.696;  760.452
394.682;  -18.025;   -7.016;  697.188
395.275;  -17.988;   -8.466;  719.927
395.869;  -20.718;   -8.985;  667.314
396.462;  -18.358;  -11.496;  616.609
397.056;  -14.161;   -7.838;  776.621
397.649;  -18.820;   -6.895;  731.575
398.242;  -16.217;   -5.017;  712.645
398.836;  -14.798;   -8.787;  766.408
399.429;  -16.168;   -8.967;  631.041
400.022;  -19.822;   -8.815;  665.902
400.615;  -17.170;   -6.276;  805.609
401.208;  -15.553;   -8.407;  691.451
401.802;  -17.772;   -7.296;  699.329
402.395;  -18.327;   -7.585;  683.502
402.988;  -19.092;   -8.015;  696.627
403.581;  -16.758;   -9.577;  646.878
404.174;  -13.499;   -7.588;  686.568
404.767;  -16.952;   -7.906;  638.583
405.360;  -19.418;   -7.875;  621.445
405.953;  -12.800;   -8.127;  759.034
406.545;  -12.122;   -7.198;  725.342
407.138;  -17.168;   -8.916;  618.350
407.731;  -15.056;   -9.767;  613.303
408.324;  -12.009;  -10.659;  660.554
408.917;  -12.610;   -8.068;  681.864
409.509;  -14.237;   -9.837;  740.396
410.102;  -16.696;   -8.146;  643.948
410.695;  -11.093;   -7.969;  665.758
411.287;  -11.561;   -8.579;  599.821
411.880;  -12.508;   -6.968;  585.421
412.472;  -14.956;   -9.487;  613.092
413.065;  -12.341;  -10.338;  629.408
413.657;  -10.115;   -9.169;  576.678
414.250;  -10.206;  -10.119;  646.681
414.842;  -12.103;   -9.938;  676.353
415.434;   -9.162;  -10.409;  570.463
416.027;   -5.551;   -9.591;  652.196
416.619;   -6.928;   -7.379;  713.400
417.211;   -7.694;   -9.159;  599.352
417.804;   -4.372;   -9.191;  628.499
418.396;   -8.463;   -8.159;  607.643
418.988;   -5.932;   -6.960;  659.238
419.580;   -9.622;  -11.389;  568.276
420.172;   -7.177;  -13.460;  536.196
420.764;   -1.941;  -10.701;  672.482
421.356;   -3.800;   -8.961;  636.898
421.948;   -4.683;   -9.770;  677.661
422.540;    0.410;   -8.832;  680.027
423.132;   -0.362;   -8.153;  600.641
423.724;   -2.868;   -8.481;  561.267
424.316;   -1.425;   -9.261;  621.345
424.908;    2.625;   -9.643;  591.517
425.500;    2.670;   -8.663;  647.978
426.092;    4.236;   -8.503;  648.268
426.683;    2.318;  -10.522;  684.836
427.275;    5.375;  -11.734;  641.471
427.867;    7.258;  -10.264;  668.948
428.458;    8.039;   -7.644;  732.344
429.050;    5.963;   -7.853;  680.749
429.642;    7.836;   -8.904;  743.124
430.233;    8.662;  -10.795;  569.356
430.825;   10.490;   -7.665;  724.809
431.416;    8.065;   -8.843;  698.241
432.008;   11.361;   -9.885;  651.723
432.599;   12.144;   -9.966;  656.073
433.190;    9.016;   -9.164;  637.670
433.782;    7.660;   -8.584;  590.395
434.373;   15.403;   -8.296;  884.765
434.964;   14.781;   -9.896;  602.920
435.556;   12.052;   -8.255;  634.537
436.147;   15.076;   -8.075;  758.490
436.738;   15.210;   -9.716;  701.099
437.329;   20.403;   -7.318;  721.723
437.920;   13.976;   -6.694;  666.688
438.511;   13.661;   -9.644;  564.526
439.103;   19.878;   -9.427;  623.998
439.694;   21.368;  -10.748;  681.583
440.285;   23.268;   -7.997;  764.432
440.876;   21.415;  -10.046;  845.738
441.466;   20.389;  -13.467;  575.162
442.057;   25.420;   -9.329;  665.814
442.648;   24.828;   -7.707;  746.255
443.239;   23.292;   -9.017;  620.477
443.830;   27.038;  -10.279;  704.958
444.421;   29.681;  -12.630;  655.474
445.011;   26.190;   -8.697;  693.619
445.602;   26.433;   -7.787;  743.126
446.193;   28.065;  -13.329;  488.117
446.783;   32.994;   -9.171;  640.397
447.374;   28.590;   -7.457;  692.759
447.964;   28.227;   -9.277;  713.770
448.555;   37.742;   -9.041;  822.742
449.145;   33.246;   -8.969;  662.853
449.736;   35.319;   -6.809;  803.179
450.326;   34.105;   -7.229;  713.626
450.917;   39.236;  -11.391;  675.324
451.507;   38.351;   -9.501;  600.661
452.097;   40.013;   -8.460;  746.267
452.688;   40.662;  -10.080;  742.160
453.278;   39.847;  -12.861;  566.840
453.868;   44.998;   -8.372;  793.550
454.458;   43.092;   -8.131;  651.141
455.048;   43.760;   -8.520;  711.783
455.639;   43.870;  -13.632;  567.096
456.229;   48.486;  -10.143;  710.694
456.819;   50.676;   -9.163;  751.158
457.409;   50.398;   -8.652;  773.993
457.999;   53.161;   -9.933;  737.505
458.589;   52.918;  -10.363;  686.606
459.179;   53.361;  -10.633;  717.658
459.769;   51.387;  -12.442;  627.099
460.358;   56.051;   -9.844;  797.262
460.948;   55.696;   -9.924;  689.503
461.538;   57.967;  -10.484;  660.677
462.128;   56.194;  -10.703;  664.934
462.717;   62.212;  -11.486;  710.326
463.307;   65.408;  -10.767;  705.846
463.897;   61.501;   -8.814;  656.942
464.486;   60.731;   -8.182;  837.128
465.076;   65.273;   -9.985;  733.776
465.666;   68.783;  -10.447;  652.900
466.255;   67.157;   -7.754;  785.651
466.845;   65.309;  -10.884;  666.749
467.434;   69.186;  -12.525;  725.873
468.023;   70.085;  -11.456;  658.357
468.613;   67.571;   -9.173;  713.946
469.202;   71.444;   -9.306;  646.507
469.791;   75.956;   -8.917;  737.811
470.381;   78.187;   -9.657;  742.813
470.970;   77.926;   -9.947;  711.099
471.559;   77.387;   -9.256;  733.291
472.148;   80.239;  -13.397;  675.737
472.738;   83.599;   -9.928;  765.466
473.327;   83.184;  -10.897;  637.529
473.916;   82.838;   -8.526;  737.446
474.505;   86.430;  -11.078;  751.703
475.094;   90.546;   -9.559;  806.570
475.683;   90.196;   -8.838;  797.699
476.272;   90.246;  -10.198;  730.632
476.861;   93.266;  -11.489;  706.754
477.449;   99.996;  -10.721;  728.487
478.038;   94.215;   -9.818;  692.513
478.627;   94.936;   -9.887;  714.852
479.216;  102.280;  -10.030;  769.441
479.805;  105.619;   -9.401;  783.375
480.393;  106.342;   -5.739; 1008.945
480.982;  104.105;   -7.838;  874.501
481.571;  110.377;   -9.111;  858.333
482.159;  111.582;  -10.601;  705.386
482.748;  111.927;   -8.500;  821.385
483.336;  116.275;   -9.241;  858.209
483.925;  116.972;  -10.440;  774.373
484.513;  124.363;  -11.063;  758.962
485.102;  120.465;   -9.540;  810.965
485.690;  130.026;   -6.742; 1011.050
486.278;  131.734;   -8.442;  979.329
486.867;  132.177;  -10.472;  809.662
487.455;  135.062;   -8.811;  898.229
488.043;  137.118;  -10.721;  748.361
488.631;  146.935;  -10.393; 1005.079
489.220;  150.669;  -10.843;  908.626
489.808;  151.631;  -10.572;  741.415
490.396;  160.265;  -10.482;  914.645
490.984;  169.121;  -11.542;  830.161
491.572;  181.039;   -8.463;  940.315
492.160;  189.070;   -8.491;  919.081
492.748;  199.848;   -9.681;  884.341
493.336;  223.430;  -10.493; 1019.693
493.924;  257.978;   -9.354;  958.077
494.512;  299.925;   -9.132; 1066.638
495.100;  347.101;   -9.001; 1103.280
495.687;  404.336;  -11.924; 1206.373
496.275;  493.949;  -11.193; 1150.796
496.863;  617.801;   -9.241; 1281.171
497.451;  750.957;  -11.341; 1386.805
498.038;  860.957;  -11.364; 1556.729
498.626;  994.295;   -8.104; 1741.407
499.214; 1212.456;   -8.842; 2016.609
499.801; 1437.646;  -10.112; 2220.633
500.389; 1663.048;  -11.953; 2312.494
500.976; 1942.875;  -10.023; 2744.849
501.564; 2314.422;   -8.662; 3148.565
502.151; 2758.857;  -10.531; 3515.999
502.738; 3214.430;  -13.853; 3971.274
503.326; 3850.323;  -10.794; 4403.796
503.913; 4446.639;   -8.663; 5161.749
504.500; 4850.925;  -10.172; 5986.420
505.088; 5302.669;  -13.472; 6381.201
505.675; 6191.090;  -10.924; 6925.547
506.262; 7070.529;   -8.551; 7619.060
506.849; 8014.054;  -10.523; 8733.969
507.436; 8836.207;  -10.834; 9790.121
508.023; 9102.470;   -9.093; 9985.472
508.610; 9511.850;  -10.073;10434.618
509.197;10120.776;   -9.500;11198.435
509.784;11705.668;  -13.242;12391.194
510.371;12515.130;  -10.964;13603.713
510.958;12354.743;   -9.772;14426.586
511.545;13614.746;   -7.842;15243.775
512.132;13943.188;  -12.184;15945.876
512.719;14096.746;   -9.733;16340.369
513.305;16175.277;   -9.172;18011.766
513.892;17999.311;   -9.581;19754.971
514.479;19958.012;  -10.253;20967.805
515.066;22276.176;   -8.183;22299.793
515.652;23491.039;   -9.253;22908.660
516.239;24477.406;   -9.412;23798.875
516.825;26835.979;  -11.153;25567.275
517.412;26385.025;  -10.263;28154.959
517.998;26345.625;   -8.802;28344.111
518.585;25999.992;  -10.401;27134.219
519.171;25812.926;  -12.744;27268.576
519.758;28519.148;  -11.793;28964.129
520.344;30974.268;   -8.912;30664.494
520.930;30164.025;  -10.901;32550.605
521.516;30944.088;  -12.034;35422.895
522.103;32224.340;  -10.473;38280.004
522.689;34018.492;   -8.311;37835.117
523.275;37375.113;  -10.691;37288.613
523.861;37900.875;  -11.193;37281.395
524.447;38201.711;  -11.484;37846.949
525.033;37843.758;   -7.702;38321.949
525.619;37513.625;  -11.241;38579.285
526.205;38701.063;  -12.152;40622.875
526.791;38162.137;  -11.423;42258.836
527.377;35651.344;   -7.981;42966.902
527.963;35889.469;   -9.450;42018.949
528.549;39420.281;  -11.351;42476.828
529.135;41049.008;  -10.202;41854.852
529.721;39770.617;   -8.672;41237.711
530.306;38370.441;   -9.111;41259.445
530.892;39586.605;  -11.252;41506.047
531.478;41772.148;  -10.432;43559.613
532.063;44097.691;  -10.721;47695.563
532.649;45313.270;   -7.450;50808.324
533.235;45457.813;  -11.811;51787.500
533.820;45896.391;   -9.383;52145.035
534.406;45435.379;   -9.400;51133.488
534.991;44596.223;   -8.861;49996.805
535.576;42602.516;  -10.612;48882.852
536.162;40713.266;   -7.322;46942.285
536.747;42248.598;   -9.360;45711.746
537.333;45123.254;  -10.450;48510.180
537.918;47044.895;  -12.610;50439.891
538.503;48088.832;  -12.132;50863.711
539.088;45486.496;  -10.831;50906.922
539.673;42978.277;  -11.220;52621.965
540.259;44923.844;  -11.481;52368.094
540.844;47431.711;  -11.462;50879.109
541.429;48852.883;   -7.869;52077.777
542.014;49518.059;  -11.859;52716.695
542.599;48906.633;  -11.061;52363.281
543.184;48314.738;  -12.300;53187.137
543.769;47092.723;   -9.369;54697.605
544.354;46871.105;  -12.020;53913.914
544.938;43961.027;  -10.350;49680.164
545.523;41954.469;  -10.841;47386.277
546.108;43690.320;   -8.579;49151.949
546.693;46218.984;   -8.818;51384.637
547.278;47363.117;  -11.331;51853.254
547.862;43991.582;  -10.292;51173.750
548.447;40328.227;   -8.349;51691.395
549.031;41847.672;  -10.838;52456.703
549.616;47418.703;  -11.681;52714.516
550.201;50022.715;  -11.140;52414.598
550.785;48510.852;   -8.649;52355.059
551.370;48936.625;  -11.889;54589.453
551.954;48459.234;  -11.239;58267.348
552.538;48526.109;   -8.850;59062.176
553.123;49101.848;  -10.829;58115.285
553.707;49080.293;   -8.887;56556.285
554.291;48318.285;  -10.430;56201.668
554.876;46597.602;   -9.799;55335.762
555.460;47843.738;  -10.018;54155.703
556.044;48418.957;   -7.307;53721.484
556.628;45348.406;  -12.229;53731.016
557.212;43105.430;   -9.820;54312.531
557.796;42646.645;   -9.109;53797.773
558.380;44427.277;   -9.707;56145.984
558.964;43222.000;  -10.980;57277.930
559.548;43638.805;  -12.010;56459.641
560.132;47446.148;   -7.928;54434.543
560.716;49236.242;  -10.247;54800.617
561.300;49016.047;  -11.250;57606.945
561.884;49818.480;  -10.568;58972.445
562.467;47638.449;   -9.727;57327.570
563.051;46670.148;  -11.847;54962.434
563.635;46009.809;  -10.747;52594.473
564.219;42968.176;  -13.108;50610.410
564.802;40109.766;  -11.417;49551.180
565.386;41074.676;  -10.457;48370.953
565.969;42521.898;   -8.959;48178.871
566.553;42048.598;  -10.328;49957.305
567.136;40975.543;  -10.257;50369.594
567.720;40806.473;  -10.186;49492.004
568.303;41016.203;  -10.027;50616.352
568.887;41891.414;  -10.397;50727.148
569.470;40758.301;   -8.185;51698.379
570.053;40092.809;  -11.596;52122.078
570.637;39714.160;  -11.378;52536.438
571.220;38749.824;   -9.138;51186.098
571.803;37386.723;   -7.675;51032.762
572.386;36004.727;   -8.976;49609.887
572.969;33677.016;  -12.477;48285.926
573.552;33851.832;   -9.767;47624.285
574.135;33226.496;   -8.175;45498.641
574.718;29827.814;  -11.096;41970.434
575.301;29163.055;  -11.966;41447.137
575.884;28498.293;  -12.836;40923.836
576.467;33406.582;   -9.116;45267.723
577.050;34305.938;  -10.536;48175.543
577.633;35100.328;  -11.027;47729.328
578.216;36247.055;   -9.946;47579.793
578.799;37071.164;   -9.645;47820.996
579.381;38233.488;   -9.446;48115.551
579.964;39456.703;  -12.217;47333.766
580.547;40130.102;  -10.586;46668.969
581.129;40278.723;   -8.374;44466.141
581.712;38255.781;  -10.434;44164.922
582.294;36271.367;  -10.896;46477.855
582.877;36314.984;   -8.906;48244.254
583.459;36737.109;   -9.994;47437.895
584.042;37144.371;  -10.084;46943.219
584.624;37145.855;  -13.534;46792.227
585.206;35709.191;  -12.716;46557.250
585.789;36549.770;  -11.614;45793.773
586.371;34490.449;  -10.203;43836.391
586.953;31540.760;  -10.314;42972.492
587.536;31488.500;   -9.776;42487.211
588.118;32762.180;   -9.821;42086.414
588.700;34217.836;  -10.073;43389.930
589.282;33164.246;  -12.395;43646.039
589.864;33188.738;  -11.514;43438.109
590.446;33012.348;  -10.803;43151.926
591.028;31593.781;  -11.043;42781.867
591.610;31255.365;  -13.244;42839.098
592.192;30746.211;  -11.095;42820.402
592.774;28761.260;  -10.823;40724.277
593.356;26795.299;  -11.052;39874.789
593.937;27421.813;  -11.664;39980.648
594.519;32179.340;  -10.454;42069.633
595.101;36992.520;  -10.322;42976.031
595.683;36630.133;  -10.042;44084.441
596.264;33028.488;  -14.334;43478.797
596.846;34169.852;  -10.863;43803.672
597.427;33419.703;   -9.901;42986.934
598.009;31975.172;  -10.911;42832.219
598.591;32849.715;  -10.483;42580.086
599.172;34510.699;   -9.663;43061.805
599.753;35542.098;  -10.631;41691.469
600.335;36101.117;   -9.371;40692.520
600.916;33904.922;  -13.992;39982.422
601.498;33361.449;   -8.352;40318.617
602.079;33778.281;   -8.411;40670.609
602.660;33135.059;  -10.841;41450.898
603.241;33216.004;  -12.963;41137.738
603.823;33909.281;  -11.523;38868.797
604.404;33855.051;  -11.881;38182.785
604.985;34788.672;  -11.721;38078.047
605.566;33754.137;   -9.293;38056.633
606.147;31953.537;  -10.940;37020.418
606.728;33671.125;  -11.840;37883.359
607.309;34637.027;  -11.781;38748.273
607.890;34940.199;  -11.262;38850.230
608.471;33467.551;  -10.111;37457.918
609.051;33096.051;   -7.709;36066.457
609.632;30125.713;  -12.409;35991.074
610.213;30191.537;  -10.811;37402.641
610.794;31794.742;  -11.630;38383.363
611.374;35447.465;   -8.030;40562.387
611.955;35026.305;  -10.809;38533.727
612.536;33977.039;  -10.531;36951.789
613.116;33727.531;  -12.820;37197.891
613.697;35060.359;  -11.419;38411.125
614.277;35734.383;   -9.768;38673.938
614.858;32686.463;  -10.251;37075.863
615.438;29164.633;  -11.981;35092.906
616.019;26940.705;   -8.978;33666.301
616.599;28813.594;  -12.219;34189.023
617.179;31208.082;  -14.170;36952.047
617.760;32209.363;   -9.211;39582.574
618.340;32206.826;   -9.018;38943.977
618.920;32323.910;   -9.249;37594.156
619.500;32346.166;  -12.728;37866.938
620.080;33346.840;  -12.939;37869.043
620.660;34682.020;  -11.586;36868.617
621.241;34109.352;  -11.538;36352.309
621.821;32524.678;  -11.398;35459.520
622.401;30897.707;  -10.179;35207.414
622.980;31023.609;  -11.587;35980.422
623.560;32138.291;  -12.888;37351.328
624.140;30284.674;  -13.149;34388.582
624.720;26162.211;   -9.928;32368.764
625.300;26205.596;  -10.869;32638.629
625.880;28951.746;   -8.617;34599.035
626.459;30097.289;  -12.138;36831.738
627.039;32660.389;  -12.267;38299.098
627.619;35500.648;   -7.476;38289.574
628.198;36646.609;  -11.347;37220.695
628.778;34160.266;  -11.678;37632.563
629.357;31870.691;  -12.438;38003.012
629.937;31467.027;   -9.576;38402.039
630.516;31233.389;  -11.096;37868.801
631.096;32110.666;  -11.828;35760.410
631.675;33151.262;  -11.565;35225.219
632.254;33732.391;  -11.845;35130.289
632.834;35249.883;  -11.545;35794.570
633.413;34734.496;  -10.887;35788.922
633.992;35079.879;  -10.175;34532.863
634.571;35270.184;   -9.704;33590.113
635.151;33288.789;  -10.815;34943.863
635.730;32014.484;  -11.617;35352.523
636.309;32102.566;  -10.836;35366.605
636.888;32699.105;   -9.755;36165.637
637.467;33164.273;  -11.684;37515.902
638.046;33477.637;  -11.987;39288.695
638.625;32999.984;  -10.455;38279.699
639.204;32672.666;  -11.234;37741.598
639.782;33392.473;  -12.023;38364.551
640.361;31560.355;  -11.506;36740.621
640.940;28100.602;  -12.316;34950.082
641.519;25909.398;  -11.616;34137.398
642.097;28859.385;   -9.266;35654.258
642.676;32699.369;  -12.936;35637.957
643.255;33181.141;   -9.966;36567.074
643.833;33132.273;   -8.916;37809.434
644.412;30968.611;  -10.936;37337.293
644.990;30685.865;  -12.176;37018.531
645.569;31918.273;  -12.246;36518.469
646.147;35544.434;  -12.107;36186.430
646.726;38313.797;  -12.937;36267.688
647.304;35220.113;  -12.547;36647.625
647.882;34616.137;  -12.597;39286.742
648.461;34002.910;   -9.427;39157.703
649.039;34079.723;   -8.937;35412.883
649.617;34406.598;  -11.067;34744.918
650.195;32515.469;  -10.657;35403.098
650.773;29961.041;  -10.097;35053.797
651.352;29779.174;  -11.887;33756.816
651.930;29162.578;  -13.557;31868.773
652.508;28814.482;  -11.767;33121.551
653.086;31084.900;  -10.777;33564.793
653.663;34235.570;  -12.067;34054.668
654.241;37861.082;  -14.918;35693.309
654.819;37474.199;  -11.788;36422.906
655.397;35387.480;  -11.268;38213.484
655.975;33722.652;  -11.738;39507.625
656.553;31984.664;  -11.018;39498.223
657.130;30711.090;  -12.848;40395.480
657.708;29593.422;  -10.098;39242.020
658.286;30614.688;  -11.678;38920.020
658.863;32777.879;  -11.498;40202.898
659.441;35491.254;  -11.008;39677.938
660.018;37240.441;  -11.048;40413.355
660.596;38254.305;  -12.058;39931.414
661.173;38794.258;  -14.158;39604.531
661.750;38158.793;  -12.298;39700.070
662.328;37572.102;  -10.699;39292.809
662.905;36958.641;  -12.119;38235.648
663.482;32740.209;  -11.829;36212.305
664.060;28896.475;  -11.009;35944.945
664.637;32526.078;  -10.369;35170.785
665.214;34907.992;  -10.459;34197.523
665.791;33444.160;  -12.599;34549.520
666.368;30692.133;  -12.919;35118.578
666.945;29348.258;  -10.699;36019.418
667.522;30944.711;  -11.359;36048.438
668.099;31456.916;  -13.529;36243.914
668.676;30503.799;  -10.229;35958.875
669.253;30353.271;   -9.279;37384.730
669.830;29939.947;  -11.370;36779.629
670.407;29638.646;  -10.950;35231.289
670.984;30505.777;  -12.850;35544.270
671.560;29539.615;   -8.440;35466.867
672.137;30623.713;  -13.520;34280.863
672.714;31866.248;  -13.620;34632.863
673.290;32131.521;  -10.450;35135.422
673.867;31435.561;  -10.960;36114.480
674.443;32313.514;  -13.300;36152.859
675.020;30235.105;  -12.370;35327.238
675.596;29302.348;  -11.250;35795.176
676.173;29666.697;  -11.080;35430.355
676.749;29432.574;  -13.220;33549.516
677.326;30654.275;  -13.000;32210.012
677.902;30477.617;  -12.701;32068.871
678.478;28850.613;  -12.801;32583.891
679.054;29571.129;   -8.601;32088.928
679.631;30917.680;  -12.631;30978.848
680.207;31821.359;   -9.451;33160.887
680.783;31251.807;  -11.701;35570.363
681.359;31484.439;  -12.701;36125.184
681.935;33154.891;  -13.271;35240.922
682.511;34843.176;  -10.791;34429.961
683.087;32753.590;  -10.791;34463.680
683.663;29467.570;   -8.121;34648.898
684.239;27587.223;  -13.261;34546.457
684.815;28745.625;  -10.581;35586.375
685.390;30320.078;   -9.961;35821.895
685.966;29705.945;  -11.182;35085.871
686.542;29233.367;  -13.512;34198.230
687.118;27313.186;  -11.472;32847.707
687.693;26418.273;  -10.152;32794.027
688.269;26533.963;  -14.442;33072.367
688.844;25265.535;  -11.852;33141.664
689.420;24210.666;  -13.942;33965.742
689.995;25879.322;   -9.702;34655.523
690.571;28030.682;  -11.312;33576.742
691.146;28105.088;  -14.332;32657.219
691.722;27831.484;  -11.192;32526.979
692.297;28490.348;  -10.962;33014.617
692.872;29716.211;  -11.082;34012.254
693.448;30686.797;  -14.732;34237.434
694.023;30134.527;  -12.363;34142.672
694.598;28129.271;  -12.393;34132.031
695.173;28942.385;  -11.023;34205.250
695.748;30227.846;  -12.743;32882.488
696.323;29396.193;  -11.103;32864.906
696.898;28676.373;   -8.123;33170.004
697.473;28665.865;  -12.603;32432.984
698.048;29217.020;  -12.553;31649.303
698.623;30260.645;  -12.573;30778.141
699.198;29728.512;  -12.743;31140.119
699.773;29445.266;  -12.843;31764.299
700.348;29739.816;  -16.683;31780.816
700.922;30641.596;  -11.403;32046.375
701.497;32030.113;  -11.253;32603.574
702.072;31252.518;  -10.044;34799.871
702.646;30560.699;  -13.054;35793.172
703.221;31238.902;  -11.414;35201.590
703.795;30222.471;  -10.644;34764.527
704.370;28115.391;  -13.484;34307.367
704.944;26962.576;  -12.144;33509.887
705.519;26464.500;  -12.024;31388.584
706.093;28496.422;  -11.234;31340.104
706.668;29507.701;   -9.874;32630.281
707.242;28791.344;  -12.404;32728.779
707.816;27360.131;  -10.644;32947.238
708.390;26880.467;  -11.174;33277.855
708.965;26759.182;  -10.324;33834.336
709.539;27603.793;  -12.014;33709.273
710.113;27670.930;  -12.295;33044.313
710.687;29243.949;  -10.965;31953.992
711.261;31202.045;  -13.685;30505.949
711.835;29276.117;  -15.335;30262.369
712.409;27889.670;  -13.785;31254.447
712.983;27945.172;  -10.525;32754.986
713.557;26132.574;  -13.175;34018.824
714.131;26104.863;  -13.245;34579.625
714.704;29129.865;  -13.175;33890.262
715.278;31274.467;  -11.545;33531.102
715.852;29933.541;  -10.975;33601.660
716.425;28633.709;  -10.075;33515.117
716.999;29544.178;  -12.185;33185.555
717.573;32074.061;   -9.685;33905.996
718.146;32537.301;  -10.516;35199.293
718.720;31119.939;  -12.106;35060.551
719.293;29696.459;  -12.386;34973.230
719.867;29780.318;  -12.456;36394.449
720.440;29418.393;  -10.686;36663.008
721.013;29313.504;  -12.596;35102.426
721.587;31003.131;  -13.956;33985.266
722.160;33155.953;   -9.806;33524.965
722.733;33803.445;  -11.676;32987.043
723.306;33286.688;  -14.276;33066.301
723.880;31319.564;  -12.126;33399.500
724.453;28982.609;  -10.156;33468.297
725.026;28729.783;  -12.956;33816.637
725.599;28663.930;  -11.676;32797.996
726.172;28846.527;  -12.337;33187.434
726.745;29039.826;  -11.277;35136.613
727.318;29311.002;  -11.927;35751.730
727.891;28581.090;  -13.607;35890.430
728.463;26203.789;  -11.327;34822.090
729.036;26008.900;  -11.917;32895.086
729.609;27290.328;  -12.697;31823.225
730.182;27798.988;  -11.787;31445.283
730.754;27640.795;  -12.957;32373.223
731.327;27753.980;  -11.017;33676.820
731.900;27560.721;  -12.797;33417.000
732.472;26807.932;  -10.677;31978.498
733.045;26467.006;  -12.797;30368.777
733.617;26798.412;  -13.908;30574.215
734.190;25853.711;  -12.258;31280.975
734.762;26121.574;  -13.438;31674.412
735.334;27441.869;  -11.758;31247.291
735.907;30156.166;  -11.158;29876.211
736.479;32931.895;  -11.258;29808.488
737.051;32670.633;  -10.918;30233.547
737.623;30947.801;  -11.038;31469.086
738.195;32375.820;  -12.188;31784.225
738.768;30363.965;  -11.378;32120.523
739.340;24925.545;  -12.598;32094.342
739.912;23487.838;  -11.568;31312.680
740.484;25074.416;   -9.348;31946.238
741.056;27324.545;  -12.628;32984.059
741.628;28957.666;  -13.349;33897.715
742.199;28025.414;  -11.309;33213.016
742.771;28550.385;  -12.699;31369.113
743.343;29547.322;  -11.919;31865.473
743.915;29320.680;  -11.679;32388.631
744.487;27740.779;  -12.249;31079.568
745.058;25290.752;  -11.119;30570.107
745.630;23966.191;   -9.439;29970.127
746.201;23340.338;  -11.949;29186.766
746.773;23383.961;  -12.639;28805.723
747.344;24656.879;  -11.039;29591.223
747.916;26555.000;  -12.549;31412.201
748.487;25289.572;  -12.659;32194.898
749.059;23757.879;  -13.059;32533.719
749.630;22936.424;  -12.080;32158.518
750.201;21518.254;  -13.100;30855.395
750.773;20959.242;  -15.310;28622.555
751.344;20711.318;  -12.240;28405.732
751.915;20914.580;  -11.960;28461.551
752.486;20312.664;  -13.200;27842.850
753.057;19478.283;  -15.230;27845.008
753.628;20807.670;  -13.130;27728.107
754.199;23015.182;  -12.720;27381.086
754.770;22985.986;  -10.680;25882.203
755.341;21522.150;  -11.010;25886.184
755.912;21029.086;  -12.990;26050.861
756.483;20267.338;  -11.110;26798.779
757.054;19998.129;  -12.190;27048.238
757.625;20007.584;  -13.981;26294.838
758.195;20199.711;  -11.041;26142.076
758.766;21155.670;  -11.861;26392.234
759.337;21417.355;  -11.461;26334.594
759.907;20643.699;  -15.001;27579.652
760.478;19412.066;   -9.681;28352.770
761.048;18482.947;  -12.421;27325.088
761.619;19288.369;  -11.761;26460.428
762.189;19588.990;  -12.391;26029.826
762.760;19141.734;  -10.201;26430.145
763.330;20144.186;  -10.811;26670.902
763.900;20846.031;  -10.261;26603.021
764.471;19633.723;  -13.061;25542.740
765.041;18080.805;  -11.051;24358.459
765.611;18000.104;  -11.032;23991.297
766.181;17993.879;  -10.532;24470.236
766.751;18315.674;  -13.502;24845.975
767.321;19543.182;  -11.392;24533.633
767.891;21462.643;  -11.522;24916.492
768.461;22540.598;  -13.672;24776.771
769.031;19925.709;  -14.652;24757.988
769.601;17214.172;  -10.182;24181.088
770.171;16048.636;  -11.752;23670.387
770.741;15168.837;  -12.272;22960.045
771.311;15129.697;  -13.112;22917.523
771.880;16170.862;  -14.122;23562.941
772.450;16765.301;  -11.782;24216.500
773.020;16612.654;  -12.642;24140.398
773.589;15464.525;  -13.043;24414.857
774.159;14874.216;  -11.783;23858.717
774.729;15853.182;  -13.473;22942.135
775.298;16575.215;  -14.523;22324.033
775.867;16206.882;  -12.013;21140.313
776.437;15526.144;  -12.113;20838.092
777.006;15116.652;  -13.543;20599.510
777.576;15642.340;  -12.523;20508.809
778.145;15795.716;  -12.173;20732.947
778.714;15056.263;  -12.153;21062.465
779.283;14247.465;  -11.833;20949.664
779.853;14326.130;  -13.483;20508.623
780.422;14468.412;  -12.933;20649.082
780.991;14115.003;  -13.173;21527.520
781.560;13930.551;  -10.224;22632.658
782.129;14293.179;  -12.684;23048.277
782.698;14309.087;  -11.284;23438.555
783.267;14308.109;  -11.684;23267.734
783.836;14075.524;  -10.974;22415.133
784.404;13528.151;  -13.534;20443.152
784.973;12779.412;  -16.734;19699.150
785.542;11712.570;  -12.594;19763.828
786.111;11549.670;  -11.644;20341.408
786.679;12620.771;  -11.384;20207.967
787.248;12885.294;  -12.014;19516.465
787.817;11793.006;  -12.804;18900.363
788.385;10638.123;  -11.994;17879.121
788.954;10761.884;  -12.564;17658.301
789.522;11388.463;  -12.225;17788.879
790.090;11314.593;  -13.775;18118.277
790.659;11277.396;  -12.485;18338.736
791.227;11861.734;  -12.295;18508.615
791.795;12317.548;  -13.415;17898.254
792.364;12596.933;  -12.995;17295.133
792.932;12179.065;   -8.365;16822.051
793.500;11188.806;  -11.925;17040.148
794.068;11405.602;  -13.245;17179.787
794.636;11979.603;  -13.815;16664.246
795.204;11960.048;  -13.375;16524.545
795.772;11808.403;  -12.125;17274.564
796.340;11054.207;  -13.855;17891.002
796.908; 9615.206;  -13.456;17648.561
797.476; 8995.213;  -13.116;17064.080
798.044; 9225.698;  -13.226;16672.777
798.612; 9395.531;  -11.236;17023.996
799.180; 9265.256;  -10.476;16561.615
799.747; 9057.075;  -11.746;15962.773
800.315; 8772.848;  -12.366;15296.992
800.883; 8156.182;  -14.616;14801.771
801.450; 8197.803;  -11.996;14534.430
802.018; 8972.405;  -11.206;14173.248
802.585; 9332.640;  -12.466;14029.547
803.153; 8828.822;  -12.846;13836.846
803.720; 8336.776;  -12.136;13567.324
804.287; 8498.284;  -10.966;13360.622
804.855; 8527.979;   -9.797;13681.981
805.422; 7749.334;  -13.037;13536.560
805.989; 7162.378;  -12.697;13355.958
806.556; 7399.815;  -11.737;13747.896
807.124; 7980.760;  -11.997;13987.376
807.691; 7729.271;  -13.997;14038.674
808.258; 7303.619;  -10.927;14120.152
808.825; 7589.649;  -13.727;13860.111
809.392; 7635.277;  -11.847;13268.790
809.959; 7694.909;  -14.217;12680.389
810.526; 7743.487;   -8.277;12427.308
811.093; 7985.976;   -9.647;12030.105
811.659; 8006.890;  -10.987;11653.664
812.226; 7325.103;  -13.447;11637.183
812.793; 6883.833;  -14.418;11611.521
813.360; 7117.655;  -13.908;11885.181
813.926; 7660.973;  -12.918;12770.539
814.493; 7842.578;  -14.888;12677.638
815.060; 7398.679;  -12.758;11974.336
815.626; 7114.714;  -13.478;11594.715
816.193; 7070.386;  -13.898;11579.474
816.759; 7231.861;  -13.588;11666.972
817.325; 7278.738;  -12.018;11325.530
817.892; 7022.724;  -14.068;11105.369
818.458; 7148.673;  -13.458;10843.928
819.024; 7019.402;  -11.968;10714.406
819.591; 6802.544;  -11.028;10469.165
820.157; 6931.298;  -12.088;10235.523
820.723; 7046.931;  -12.599;10847.563
821.289; 6845.488;  -10.419;11040.980
821.855; 6747.706;  -10.939;10357.100
822.421; 6775.115;  -12.539; 9978.918
822.987; 6723.476;  -13.259; 9754.177
823.553; 6539.111;  -15.369;10065.755
824.119; 6502.963;  -10.779;10036.294
824.685; 6503.635;   -9.999;10029.192
825.251; 6302.115;  -11.819;10199.230
825.816; 6267.471;  -13.369; 9820.189
826.382; 6129.637;  -12.679; 9297.248
826.948; 5703.457;  -11.199; 9381.347
827.513; 5589.492;  -11.179; 9450.726
828.079; 5704.159;  -13.489; 9472.444
828.645; 5835.585;  -12.500; 9292.643
829.210; 5864.206;  -15.120; 9065.341
829.776; 5862.729;  -12.590; 9132.620
830.341; 6027.837;  -11.540; 9092.878
830.906; 6430.021;  -12.400; 9078.557
831.472; 6323.744;  -12.720; 8534.535
832.037; 5478.125;  -11.490; 8677.874
832.602; 4816.611;  -14.380; 8628.692
833.167; 4691.189;  -12.780; 8879.031
833.733; 5090.701;  -11.100; 9189.790
834.298; 5473.193;  -12.080; 9052.608
834.863; 5255.960;  -13.910; 8895.087
835.428; 4869.346;  -13.470; 8824.266
835.993; 4689.524;  -11.760; 8845.385
836.558; 4884.603;  -12.731; 8888.563
837.123; 4988.949;  -12.431; 8966.582
837.688; 4783.976;  -11.241; 8617.860
838.253; 4622.734;  -13.681; 8590.699
838.817; 4780.014;  -12.531; 8443.797
839.382; 4900.329;  -12.671; 8799.356
839.947; 4949.894;  -11.541; 8810.595
840.511; 5077.631;  -12.021; 8796.394
841.076; 5164.252;  -13.071; 8347.231
841.641; 5410.889;  -11.411; 8224.330
842.205; 5674.044;  -13.671; 8223.349
842.770; 5518.730;  -11.291; 8622.107
843.334; 5177.408;  -12.951; 8410.386
843.898; 4882.822;  -11.221; 8337.465
844.463; 4913.230;  -11.322; 8506.283
845.027; 4819.612;  -11.412; 8280.962
845.591; 4540.514;  -11.512; 8231.141
846.156; 4412.184;  -14.042; 7969.179
846.720; 4451.790;  -12.152; 7768.278
847.284; 4274.519;  -10.922; 7630.957
847.848; 4082.660;  -10.962; 7472.395
848.412; 3855.611;  -14.612; 7437.394
848.976; 3907.833;  -11.492; 7674.592
849.540; 4261.390;   -9.172; 7836.011
850.104; 4449.023;  -11.232; 7913.669
850.668; 4303.699;  -15.182; 7694.508
851.232; 4122.346;  -15.332; 7756.887
851.796; 4000.190;  -13.703; 7926.545
852.359; 3994.574;  -11.113; 7827.844
852.923; 4059.198;  -11.843; 7641.163
853.487; 4040.100;  -11.173; 7342.501
854.050; 3937.883;  -13.443; 7042.820
854.614; 3920.633;  -13.823; 7151.338
855.177; 3855.353;  -16.393; 7105.077
855.741; 3792.321;  -11.693; 6989.675
856.304; 3756.729;  -10.843; 6596.634
856.868; 3614.717;  -13.783; 6356.272
857.431; 3359.895;  -11.953; 6468.571
857.995; 3102.674;  -13.683; 6373.210
858.558; 3075.442;  -11.433; 6324.448
859.121; 3134.447;  -12.493; 6408.327
859.684; 2982.374;  -12.384; 6347.886
860.247; 2642.824;  -14.774; 6321.264
860.810; 2428.564;  -13.154; 6301.903
861.374; 2438.620;  -11.264; 6607.881
861.937; 2494.142;  -15.424; 6408.200
862.500; 2470.865;  -12.854; 6572.639
863.062; 2466.182;  -12.344; 6387.297
863.625; 2493.552;  -13.314; 6190.836
864.188; 2580.699;  -14.724; 5807.254
864.751; 2783.650;  -13.464; 5682.413
865.314; 3126.446;  -11.684; 5547.492
865.876; 3319.382;  -11.104; 5500.150
866.439; 3262.018;  -12.344; 5415.909
867.002; 3070.871;  -13.494; 5501.567
867.564; 2824.997;  -10.935; 5413.946
868.127; 2680.838;  -12.665; 5160.325
868.689; 2648.373;  -14.515; 5133.183
869.252; 2693.368;  -13.425; 5252.382
869.814; 2871.934;  -11.595; 5297.141
870.377; 2951.964;  -12.175; 5390.919
870.939; 2838.119;  -10.265; 5599.898
871.501; 2709.192;  -12.375; 5248.336
872.063; 2620.035;  -14.355; 4854.235
872.626; 2542.262;  -14.435; 4817.074
873.188; 2463.661;  -12.415; 4987.732
873.750; 2489.507;  -14.555; 4868.651
874.312; 2421.389;  -11.185; 4779.330
874.874; 2244.501;  -12.715; 4866.348
875.436; 2166.842;  -13.196; 4718.887
875.998; 2131.857;  -11.426; 4660.005
876.560; 2044.837;   -9.786; 4462.964
877.122; 2003.792;  -12.796; 4145.042
877.683; 1996.891;  -13.226; 4056.481
878.245; 1969.099;  -12.036; 3950.740
878.807; 1959.304;  -11.536; 4058.958
879.369; 1959.008;  -10.806; 3954.677
879.930; 1869.660;  -13.946; 3941.495
880.492; 1726.560;  -11.876; 4067.014
881.053; 1703.788;  -13.216; 3859.633
881.615; 1772.118;  -12.226; 3776.071
882.176; 1788.368;  -12.946; 3734.750
882.738; 1708.857;  -10.736; 3678.489
883.299; 1633.056;  -12.057; 3405.407
883.860; 1602.445;  -12.677; 3351.106
884.422; 1563.063;  -14.097; 3394.044
884.983; 1454.340;  -13.667; 3166.443
885.544; 1302.550;  -10.717; 3189.802
886.105; 1201.595;  -14.357; 3160.360
886.666; 1189.087;  -14.287; 3093.059
887.227; 1198.563;  -14.297; 2941.957
887.788; 1185.416;  -13.137; 2974.836
888.349; 1094.688;  -14.637; 2721.214
888.910; 1016.091;  -12.247; 2696.493
889.471; 1012.189;  -10.577; 2560.172
890.032; 1005.064;  -12.937; 2558.190
890.593;  940.266;  -12.487; 2567.669
891.153;  864.369;  -11.898; 2460.307
891.714;  857.063;  -14.278; 2372.046
892.275;  858.053;  -13.308; 2309.505
892.835;  790.063;  -12.058; 2382.543
893.396;  707.949;  -15.268; 2295.502
893.956;  655.036;  -13.278; 2162.420
894.517;  625.311;  -11.968; 2125.439
895.077;  614.610;  -12.798; 2086.978
895.638;  588.098;  -11.908; 2126.316
896.198;  557.797;  -13.288; 1838.275
896.758;  533.263;  -12.198; 1892.813
897.319;  503.824;  -13.048; 1792.232
897.879;  456.631;  -13.718; 1762.751
898.439;  414.273;  -14.138; 1661.149
898.999;  403.712;  -13.659; 1781.468
899.559;  390.501;  -14.699; 1703.347
900.119;  367.226;  -14.339; 1537.525
900.679;  341.842;  -11.789; 1638.384
901.239;  315.685;  -13.629; 1527.902
901.799;  297.737;  -13.679; 1456.441
902.359;  283.223;  -13.679; 1357.140
902.919;  272.512;  -14.159; 1331.118
903.479;  261.700;  -13.419; 1317.257
904.038;  249.408;  -14.899; 1262.595
904.598;  234.990;  -14.339; 1152.034
905.158;  229.396;  -13.959; 1240.893
905.717;  226.510;  -12.749; 1233.691
906.277;  216.246;  -11.889; 1217.330
906.836;  207.470;  -12.870; 1222.408
907.396;  204.339;  -11.790; 1193.047
907.955;  201.183;  -13.750; 1182.526
908.515;  193.641;  -14.760; 1099.364
909.074;  187.083;  -12.540; 1092.863
909.633;  181.615;  -12.120; 1069.121
910.192;  178.429;  -12.550; 1196.460
910.752;  175.823;  -12.760; 1029.960
911.311;  172.177;  -14.750; 1009.780
911.870;  168.075;  -13.860;  971.460
912.429;  166.963;  -13.480; 1094.080
912.988;  163.185;  -12.370; 1081.060
913.547;  157.281;  -14.670;  940.380
914.106;  155.034;  -12.800;  999.420
914.665;  152.274;  -11.370;  984.020
915.224;  150.509;  -11.430; 1035.760
915.782;  149.680;  -12.260;  922.560
916.341;  150.721;  -12.540; 1049.840
916.900;  147.591;  -12.540;  925.260
917.458;  146.233;  -13.480;  884.220
918.017;  145.957;  -12.470;  942.600
918.576;  144.675;  -13.450;  904.440
919.134;  142.578;  -12.890;  837.980
919.693;  141.760;  -15.480;  893.060
920.251;  139.040;  -14.420;  876.500
920.809;  139.592;  -12.170;  839.580
921.368;  138.597;  -13.650;  885.360
921.926;  137.466;  -12.750;  842.940
922.484;  138.049;  -14.150;  903.360
923.042;  139.226;  -15.100;  880.340
923.601;  143.122;  -10.990;  998.680
924.159;  143.987;  -12.470;  935.560
924.717;  143.597;  -15.640;  841.080
925.275;  143.589;  -12.380;  903.240
925.833;  143.689;  -12.710;  779.320
926.391;  145.584;  -11.200;  938.380
926.949;  146.440;  -16.000;  857.680
927.506;  147.915;  -12.260;  903.500
928.064;  148.575;  -11.300;  877.580
928.622;  148.822;  -13.750;  880.100
929.180;  148.001;  -15.290;  814.180
929.737;  147.210;  -14.500;  808.540
930.295;  149.389;  -10.630;  928.480
930.853;  152.689;  -14.590;  849.100
931.410;  154.500;  -14.450;  821.120
931.968;  157.658;  -14.390;  940.660
932.525;  157.084;  -13.050;  909.380
933.082;  156.421;  -15.620;  811.440
933.640;  159.080;  -15.650;  925.900
934.197;  162.725;  -13.610;  886.360
934.754;  167.786;  -13.320;  897.780
935.312;  171.584;  -13.370;  863.340
935.869;  173.665;  -12.780; 1012.980
936.426;  171.821;  -14.480;  872.800
936.983;  173.070;  -13.180;  889.020
937.540;  173.564;  -15.710;  838.280
938.097;  173.851;  -14.980;  940.120
938.654;  176.930;  -13.060;  898.860
939.211;  179.326;  -12.760;  952.480
939.768;  178.693;  -16.230;  915.420
940.324;  177.930;  -10.940;  904.200
940.881;  176.753;  -12.570;  878.500
941.438;  176.607;  -13.650; 1021.200
941.995;  177.302;  -13.300;  992.560
942.551;  177.748;  -15.800;  875.620
943.108;  177.367;  -14.180;  937.920
943.664;  177.519;  -13.890;  869.340
944.221;  181.014;  -12.640; 1088.140
944.777;  178.940;  -14.700;  869.680
945.334;  177.580;  -13.010;  884.840
945.890;  179.357;  -13.480;  946.480
946.446;  177.912;  -14.920;  947.020
947.003;  176.236;  -13.860;  964.940
947.559;  175.995;  -12.000; 1063.040
948.115;  176.207;  -10.510; 1026.540
948.671;  176.010;  -12.760;  967.300
949.227;  171.863;  -15.390;  859.560
949.783;  167.870;  -15.570;  858.900
950.339;  167.715;  -12.800;  991.000
950.895;  167.251;  -13.780; 1023.840
951.451;  165.973;  -13.810;  925.280
952.007;  167.285;  -12.390;  998.540
952.563;  166.833;  -11.980;  937.780
953.118;  165.002;  -14.070;  904.940
953.674;  165.737;  -14.140;  935.780
954.230;  171.019;  -12.680;  949.640
954.785;  173.520;  -12.770;  936.640
955.341;  170.189;  -11.450;  998.160
955.897;  160.312;  -15.350;  834.660
956.452;  157.457;  -14.200;  953.840
957.008;  153.748;  -10.820; 1083.640
957.563;  151.810;  -13.200; 1009.540
958.118;  151.588;  -14.460;  877.700
958.674;  153.733;  -13.840;  946.780
959.229;  153.817;  -10.670; 1013.980
959.784;  153.133;  -17.040;  832.400
960.339;  157.102;  -12.970; 1001.280
960.894;  161.265;  -12.700;  963.760
961.449;  166.913;  -13.790;  859.960
962.004;  173.302;  -11.760; 1212.840
962.559;  172.572;  -14.840;  860.140
963.114;  167.631;  -14.530;  742.480
963.669;  164.196;  -12.780;  915.500
964.224;  157.785;  -14.330;  874.340
964.779;  145.429;  -14.380;  828.420
965.334;  131.638;  -12.460; 1017.860
965.888;  118.355;  -13.490;  875.360
966.443;  108.161;  -14.140;  972.380
966.998;  102.473;  -16.240;  819.460
967.552;  104.485;  -12.730;  908.380
968.107;  106.856;  -14.510;  868.300
968.661;  112.292;  -11.850;  922.440
969.216;  110.964;  -14.370;  856.280
969.770;  111.233;  -13.010;  917.200
970.324;  111.516;  -12.460;  923.140
970.879;  112.576;  -11.580;  947.180
971.433;  115.806;  -13.130;  952.720
971.987;  114.448;  -12.360;  895.340
972.541;  112.188;  -14.330;  917.100
973.095;  110.245;  -13.310; 1009.460
973.649;  106.685;  -15.830;  809.480
974.203;  107.465;  -15.830;  829.040
974.757;  110.064;  -13.480;  855.220
975.311;  112.587;  -13.720;  872.600
975.865;  113.929;  -15.780;  881.820
976.419;  112.492;  -14.290;  857.400
976.973;  110.267;  -13.210;  849.620
977.526;  109.517;  -12.300;  949.920
978.080;  102.941;  -14.840;  796.780
978.634;  103.033;  -13.100;  921.320
979.187;  100.014;  -12.300;  905.400
979.741;  100.079;  -12.020; 1018.380
980.294;   96.246;  -14.590;  789.160
980.848;   94.940;  -14.390;  717.220
981.401;   95.992;  -14.280;  816.540
981.955;   95.958;  -11.920;  844.300
982.508;   92.423;  -15.790;  746.340
983.061;   91.767;  -12.070;  915.260
983.615;   89.436;  -13.260;  798.800
984.168;   86.777;  -15.540;  770.080
984.721;   86.163;  -13.230;  880.760
985.274;   84.020;  -11.820;  867.500
985.827;   81.936;  -13.510;  834.220
986.380;   79.820;  -14.840;  721.340
986.933;   81.342;  -13.970;  864.800
987.486;   80.205;  -12.450;  861.920
988.039;   77.805;  -11.170;  863.100
988.591;   75.685;  -13.070;  893.260
989.144;   73.061;  -15.530;  737.260
989.697;   72.183;  -14.300;  758.740
990.250;   71.714;  -13.310;  858.100
990.802;   69.793;  -14.490;  755.860
991.355;   70.720;  -12.980;  974.880
991.907;   68.619;  -13.715;  864.320
992.460;   66.518;  -14.450;  753.760
993.012;   64.303;  -12.590;  749.540
993.565;   62.756;  -15.180;  711.360
994.117;   63.845;  -11.630;  950.780
994.669;   61.000;  -13.760;  701.320
995.221;   60.714;  -12.710;  791.920
995.774;   60.187;  -14.620;  787.580
996.326;   59.265;  -13.150;  740.220
996.878;   60.341;  -12.880;  838.420
997.430;   56.809;  -14.580;  699.860
997.982;   56.000;  -14.030;  750.140
998.534;   56.322;  -12.190;  739.060
999.086;   54.665;  -12.990;  738.220
999.638;   53.518;  -13.180;  661.380
1000.190;   52.034;  -14.970;  699.320
1000.741;   52.102;  -12.200;  742.700
1001.293;   52.255;  -13.400;  686.020
1001.845;   50.841;  -14.490;  676.640
1002.396;   51.902;  -15.280;  743.400
1002.948;   51.769;  -12.380;  737.400
1003.500;   50.846;  -13.260;  723.780
1004.051;   52.194;  -13.730;  907.580
1004.603;   50.544;  -12.300;  791.820
1005.154;   47.046;  -15.330;  608.980
1005.705;   45.928;  -12.800;  723.960
1006.257;   44.984;  -13.900;  707.220
1006.808;   42.748;  -14.430;  685.460
1007.359;   42.019;  -12.010;  763.240
1007.910;   41.251;  -12.690;  646.640
1008.461;   41.532;  -13.610;  732.940
1009.013;   39.490;  -14.990;  588.340
1009.564;   40.785;  -11.860;  793.520
1010.115;   38.862;  -12.640;  597.040
1010.665;   39.018;  -14.570;  602.160
1011.216;   38.839;  -15.190;  667.920
1011.767;   38.675;  -13.470;  697.920
1012.318;   38.833;  -13.760;  736.980
1012.869;   36.826;  -15.950;  679.000
1013.419;   36.944;  -15.880;  603.120
1013.970;   37.132;  -14.540;  666.640
1014.521;   36.913;  -13.220;  620.620
1015.071;   36.931;  -15.020;  670.380
1015.622;   36.086;  -17.510;  635.460
1016.172;   35.125;  -14.130;  596.820
1016.723;   35.596;  -14.220;  614.380
1017.273;   34.935;  -15.370;  604.160
1017.823;   35.013;  -15.290;  650.340
1018.374;   34.959;  -13.420;  611.760
1018.924;   34.873;  -11.740;  716.880
1019.474;   34.842;  -12.250;  718.880
1020.024;   34.386;  -15.850;  657.580
1020.574;   34.725;  -13.280;  726.160
1021.124;   34.392;  -13.560;  673.580
1021.674;   32.779;  -13.790;  559.120
1022.224;   33.983;  -14.610;  708.940
1022.774;   32.791;  -13.100;  668.820
1023.324;   33.771;  -11.470;  753.520
1023.874;   34.792;  -11.990;  875.760
1024.423;   31.650;  -14.550;  613.700
1024.973;   32.018;  -14.440;  610.760
1025.523;   32.282;  -13.250;  620.960
1026.072;   31.534;  -15.200;  606.420
1026.622;   30.770;  -14.590;  675.740
1027.172;   32.020;  -11.080;  715.660
1027.721;   31.233;  -14.010;  601.220
1028.270;   31.387;  -13.690;  663.400
1028.820;   30.460;  -15.380;  638.080
1029.369;   30.240;  -14.980;  612.700
1029.918;   30.363;  -13.100;  649.840
1030.468;   29.238;  -13.680;  564.780
1031.017;   30.237;  -13.770;  634.800
1031.566;   29.014;  -14.100;  608.900
1032.115;   29.932;  -11.770;  694.500
1032.664;   28.543;  -14.940;  596.480
1033.213;   30.153;  -13.370;  735.420
1033.762;   27.930;  -13.660;  635.620
1034.311;   28.963;  -13.650;  677.220
1034.860;   28.476;  -13.820;  691.000
1035.408;   28.673;  -12.860;  722.720
1035.957;   28.774;  -13.060;  719.540
1036.506;   26.670;  -14.510;  530.800
1037.055;   30.226;  -13.470;  844.320
1037.603;   27.821;  -14.800;  664.000
1038.152;   25.641;  -14.190;  534.760
1038.700;   27.605;  -11.810;  585.740
1039.249;   27.129;  -12.850;  681.220
1039.797;   26.782;  -14.610;  633.360
1040.345;   25.834;  -15.220;  705.420
1040.894;   26.331;  -13.480;  625.300
1041.442;   25.590;  -13.310;  632.200
1041.990;   24.185;  -14.510;  559.160
1042.538;   24.383;  -15.700;  536.180
1043.087;   25.424;  -13.910;  570.860
1043.635;   26.410;  -13.620;  670.500
1044.183;   24.611;  -14.230;  586.400
1044.731;   24.627;  -13.730;  576.000
1045.279;   24.648;  -13.970;  674.920
1045.827;   27.615;  -10.750;  892.400
1046.374;   23.203;  -15.230;  515.420
1046.922;   22.858;  -15.390;  590.580
1047.470;   25.594;  -12.320;  691.300
1048.018;   23.996;  -13.230;  647.960
1048.565;   24.837;  -13.390;  708.600
1049.113;   22.672;  -15.030;  557.000
1049.660;   22.838;  -12.540;  629.660
1050.208;   23.356;  -15.040;  675.640
1050.755;   22.224;  -14.680;  606.580
1051.303;   23.489;  -13.610;  686.820
1051.850;   23.242;  -14.340;  635.120
1052.397;   20.968;  -16.330;  473.960
1052.945;   21.257;  -15.710;  617.760
1053.492;   22.801;  -12.320;  741.840
1054.039;   23.486;  -13.730;  720.180
1054.586;   21.847;  -16.140;  557.240
1055.133;   22.553;  -14.020;  693.140
1055.680;   21.492;  -13.430;  646.620
1056.227;   20.747;  -14.570;  542.780
1056.774;   23.320;  -14.400;  794.980
1057.321;   20.351;  -14.230;  523.260
1057.868;   21.167;  -14.220;  651.320
1058.415;   20.969;  -14.060;  651.980
1058.961;   21.523;  -14.640;  678.940
1059.508;   19.914;  -13.970;  643.820
1060.055;   19.980;  -15.100;  581.780
1060.601;   21.464;  -12.180;  624.300
1061.148;   20.289;  -15.010;  616.820
1061.694;   19.025;  -14.750;  592.580
1062.241;   20.356;  -14.130;  596.320
1062.787;   20.249;  -14.770;  663.140
1063.334;   21.778;  -13.130;  808.560
1063.880;   19.939;  -14.420;  668.360
1064.426;   20.137;  -13.130;  706.820
1064.972;   19.153;  -13.960;  601.340
1065.518;   18.042;  -13.680;  566.640
1066.065;   18.749;  -15.720;  624.460
1066.611;   18.331;  -13.970;  598.800
1067.157;   18.649;  -13.920;  641.860
1067.703;   18.847;  -14.760;  668.480
1068.249;   17.961;  -14.490;  605.220
1068.794;   18.176;  -14.740;  626.880
1069.340;   18.172;  -13.220;  578.960
1069.886;   17.675;  -14.930;  590.700
1070.432;   17.192;  -14.700;  541.720
1070.977;   16.591;  -14.470;  601.080
1071.523;   17.474;  -14.330;  573.060
1072.068;   17.116;  -14.960;  582.000
1072.614;   16.440;  -16.220;  527.760
1073.160;   17.172;  -11.280;  687.040
1073.705;   16.518;  -15.990;  572.520
1074.250;   16.917;  -16.550;  559.900
1074.796;   17.395;  -14.600;  655.160
1075.341;   17.014;  -13.440;  664.100
1075.886;   16.416;  -14.450;  594.240
1076.431;   16.555;  -13.160;  649.880
1076.976;   15.712;  -14.710;  639.220
1077.521;   15.340;  -14.000;  583.080
1078.067;   15.503;  -14.470;  579.400
1078.612;   15.259;  -14.530;  661.620
1079.156;   15.196;  -15.660;  601.540
1079.701;   14.859;  -16.120;  693.260
1080.246;   16.217;  -12.960;  696.300
1080.791;   15.996;  -13.700;  625.020
1081.336;   15.874;  -15.540;  659.320
1081.880;   15.049;  -14.640;  649.680
1082.425;   14.343;  -14.220;  573.480
1082.970;   16.480;  -11.890;  717.040
1083.514;   14.830;  -13.820;  597.000
1084.059;   12.761;  -14.280;  586.720
1084.603;   13.690;  -12.890;  565.840
1085.147;   14.431;  -13.590;  645.220
1085.692;   15.811;  -14.050;  716.800
1086.236;   12.374;  -14.990;  503.140
1086.780;   14.788;  -12.640;  751.440
1087.325;   14.907;  -15.550;  654.620
1087.869;   13.818;  -14.980;  610.700
1088.413;   14.787;  -13.440;  705.040
1088.957;   12.593;  -12.170;  543.400
1089.501;   14.309;  -12.730;  766.640
1090.045;   13.997;  -14.650;  726.480
1090.589;   11.388;  -14.500;  569.920
1091.133;   13.081;  -12.320;  673.340
1091.676;   12.999;  -16.130;  591.940
1092.220;   12.513;  -13.930;  600.920
1092.764;   13.341;  -12.820;  706.960
1093.307;   13.230;  -11.700;  673.780
1093.851;   10.989;  -15.600;  556.540
1094.395;   12.456;  -13.920;  683.140
1094.938;   11.271;  -16.090;  632.520
1095.482;   11.728;  -13.820;  559.800
1096.025;   13.009;  -12.720;  710.880
1096.568;   13.313;  -12.100;  779.280
1097.112;    9.254;  -15.450;  508.180
1097.655;   12.373;  -14.310;  603.000
1098.198;    9.909;  -14.740;  600.180
1098.741;    9.754;  -15.550;  612.860
1099.285;   10.915;  -12.600;  657.300
1099.828;    9.689;  -15.050;  439.400
1100.371;   11.296;  -14.800;  608.160
1100.914;   10.853;  -16.480;  682.660
1101.457;   10.748;  -12.990;  679.900
1101.999;    9.763;  -14.110;  584.680
1102.542;   11.022;  -11.450;  641.440
1103.085;   10.309;  -13.350;  658.500
1103.628;   11.301;  -13.200;  762.060
1104.170;    9.712;  -12.310;  588.280
1104.713;   10.231;  -14.320;  646.700
1105.256;    9.236;  -16.110;  557.440
1105.798;    8.499;  -15.910;  499.980
1106.341;   11.060;  -12.200;  728.900
1106.883;    9.474;  -14.910;  521.340
1107.425;    9.640;  -14.960;  668.180
1107.968;    9.154;  -13.440;  612.380
1108.510;   10.867;  -14.010;  684.960
1109.052;    8.909;  -15.430;  612.620
1109.594;    8.417;  -15.290;  554.440
1110.136;    9.311;  -13.360;  643.220
1110.679;    8.363;  -13.820;  633.080
1111.221;    9.679;  -13.690;  604.460
1111.763;    8.141;  -14.890;  559.220
1112.304;    7.797;  -14.550;  547.140
1112.846;    9.041;  -12.760;  666.240
1113.388;   12.814;  -10.780;  942.180
1113.930;    8.314;  -12.690;  694.200
1114.472;    7.288;  -15.730;  606.540
1115.013;    6.846;  -14.620;  551.280
1115.555;    7.827;  -14.950;  587.100
1116.097;    6.431;  -16.460;  579.480
1116.638;    7.787;  -13.730;  684.600
1117.180;    8.476;  -13.810;  667.740
1117.721;    7.116;  -13.280;  568.580
1118.262;    7.478;  -15.080;  677.960
1118.804;    7.747;  -14.040;  637.340
1119.345;    6.710;  -15.430;  578.400
1119.886;    8.227;  -15.240;  704.040
1120.427;    6.414;  -15.820;  589.020
1120.969;    5.584;  -14.550;  597.920
1121.510;    6.360;  -14.030;  563.060
1122.051;    6.447;  -11.990;  723.580
1122.592;    6.181;  -16.490;  655.420
1123.133;    4.883;  -15.580;  547.940
1123.673;    7.755;  -12.850;  706.480
1124.214;    6.285;  -13.630;  612.460
1124.755;    7.147;  -14.830;  639.460
1125.296;    5.284;  -13.110;  627.320
1125.836;    7.344;  -11.320;  691.500
1126.377;    5.490;  -14.330;  599.660
1126.918;    6.639;  -12.800;  614.980
1127.458;    4.916;  -13.580;  622.220
1127.999;    6.294;  -10.330;  656.980
1128.539;    5.996;  -13.390;  694.240
1129.079;    4.762;  -16.420;  632.720
1129.620;    4.288;  -15.700;  558.100
1130.160;    4.674;  -14.790;  539.480
1130.700;    5.154;  -12.910;  640.840
1131.240;    5.607;  -15.610;  643.700
1131.781;    4.584;  -12.920;  619.680
1132.321;    5.112;  -15.300;  599.120
1132.861;    3.987;  -14.760;  564.200
1133.401;    3.422;  -15.470;  593.940
1133.941;    4.780;  -13.710;  626.280
1134.481;    4.544;  -11.820;  597.580
1135.020;    4.280;  -14.810;  609.160
1135.560;    4.001;  -13.660;  674.940
1136.100;    2.489;  -13.940;  501.160
1136.640;    3.283;  -15.410;  510.480
1137.179;    3.558;  -16.920;  537.960
1137.719;    3.904;  -16.430;  605.400
1138.258;    3.726;  -16.300;  587.360
1138.798;    4.358;  -13.710;  663.780
1139.337;    2.575;  -13.840;  482.840
1139.877;    3.719;  -16.140;  642.360
1140.416;    6.208;  -11.410;  878.060
1140.955;    2.715;  -12.820;  535.380
1141.494;    3.675;  -12.310;  669.280
1142.034;    2.735;  -16.280;  583.520
1142.573;    4.197;  -13.090;  646.280
1143.112;    2.530;  -13.770;  553.480
1143.651;    3.165;  -15.830;  536.480
1144.190;    3.791;  -15.010;  691.640
1144.729;    3.223;  -13.650;  607.420
1145.267;    2.851;  -13.670;  584.900
1145.806;    3.913;  -13.630;  637.040
1146.345;    2.178;  -14.160;  635.020
1146.884;    1.709;  -11.180;  622.500
1147.422;    2.224;  -15.890;  533.060
1147.961;    4.044;  -12.760;  708.460
1148.500;    2.406;  -15.220;  669.720
1149.038;    3.038;  -13.720;  632.500
1149.577;    3.136;  -13.250;  698.640
1150.115;    0.190;  -16.790;  452.280
1150.653;    2.099;  -15.810;  607.340
1151.192;    2.290;  -14.730;  552.920
1151.730;    2.300;  -13.660;  652.560
1152.268;    1.639;  -15.120;  589.520
1152.806;    1.721;  -15.580;  571.180
1153.344;    0.307;  -16.210;  577.640
1153.882;    1.506;  -12.810;  600.060
1154.421;    0.307;  -14.150;  470.620
1154.958;    0.790;  -15.360;  595.240
1155.496;    2.259;  -14.710;  645.280
1156.034;    1.377;  -13.640;  721.880
1156.572;    2.986;  -13.740;  667.060
1157.110;   -0.223;  -16.960;  473.940
1157.647;    2.215;  -11.940;  676.960
1158.185;    0.456;  -14.090;  564.320
1158.723;   -0.641;  -13.610;  509.200
1159.260;    1.118;  -14.760;  701.700
1159.798;    1.913;  -13.700;  658.160
1160.335;    0.908;  -13.820;  631.820

