
Integration time [ms]:   3.276
Averaging Nr. [scans]: 1000
Smoothing Nr. [pixels]: 0
Data measured with spectrometer [name]: 7414430SP
Wave   ;Sample   ;Dark     ;Reference
[nm]   ;[counts] ;[counts] ;[counts] 

288.544;  160.801;    7.793;  793.890
289.143;  163.372;    7.462;  681.602
289.742;  163.527;    8.602;  828.814
290.341;  150.141;    1.321;  789.841
290.940;  141.698;   -0.709;  730.702
291.538;  142.758;    0.881;  881.108
292.137;  142.594;    0.122;  792.581
292.736;  145.994;   -1.929;  975.101
293.335;  141.354;   -8.229;  735.086
293.934;  141.113;   -5.279;  781.677
294.532;  142.706;   -1.369; 1031.958
295.131;  130.709;   -7.641;  834.394
295.730;  129.674;   -8.420;  809.588
296.328;  126.046;   -5.611;  783.442
296.927;  125.268;   -5.781;  779.652
297.525;  127.217;   -6.361;  781.236
298.124;  119.254;  -11.382;  654.009
298.722;  123.021;   -7.641;  761.933
299.321;  120.309;   -6.811;  708.597
299.919;  116.889;   -6.991;  751.918
300.518;  112.404;  -10.362;  689.338
301.116;  115.066;   -9.581;  691.381
301.715;  116.532;   -4.891;  730.222
302.313;  115.761;   -8.801;  704.943
302.911;  109.730;   -8.522;  733.830
303.509;  114.418;   -6.171;  925.627
304.108;  112.554;   -7.311;  760.383
304.706;  112.368;   -8.321;  801.664
305.304;  106.290;  -10.222;  796.707
305.902;  110.051;   -6.021;  784.484
306.500;  105.765;   -4.971;  728.200
307.098;  105.887;   -7.061;  746.560
307.696;  104.143;   -8.801;  780.432
308.294;  103.062;   -6.411;  731.359
308.892;  105.570;   -2.901;  759.769
309.490;  103.088;   -5.041;  712.161
310.088;   99.849;   -5.002;  788.444
310.686;  103.256;   -2.041;  821.749
311.284;   99.729;   -2.351;  766.040
311.882;   97.719;   -4.422;  731.225
312.480;   94.430;   -4.192;  697.167
313.078;   95.231;   -1.172;  808.331
313.675;   95.809;   -2.601;  691.600
314.273;   91.936;   -1.312;  797.837
314.871;   90.861;   -3.942;  589.829
315.468;   87.696;   -2.802;  652.090
316.066;   91.024;   -0.701;  694.427
316.664;   84.966;   -4.362;  656.351
317.261;   88.564;   -2.872;  910.128
317.859;   82.951;   -2.022;  768.735
318.456;   83.628;   -0.531;  830.096
319.054;   80.088;   -3.912;  787.828
319.651;   78.692;   -4.752;  759.928
320.249;   76.394;   -2.602;  810.188
320.846;   74.590;   -0.821;  714.286
321.443;   73.245;   -4.642;  832.135
322.041;   69.437;   -5.002;  812.315
322.638;   66.027;   -3.982;  701.456
323.235;   68.121;   -3.411;  665.683
323.833;   65.281;   -7.361;  740.354
324.430;   59.677;   -8.611;  615.900
325.027;   60.475;   -4.061;  876.855
325.624;   61.650;   -4.031;  644.532
326.221;   59.011;   -7.481;  689.717
326.818;   58.327;   -5.281;  818.332
327.415;   58.923;   -7.460;  748.828
328.012;   60.301;   -5.510;  690.585
328.609;   58.228;   -7.880;  731.389
329.206;   57.017;   -8.331;  778.621
329.803;   56.111;   -5.121;  737.841
330.400;   59.148;   -4.510;  704.260
330.997;   60.426;   -6.441;  817.147
331.594;   58.128;   -8.831;  788.185
332.191;   62.496;   -7.621;  728.722
332.787;   66.177;   -4.591;  844.463
333.384;   67.384;   -7.412;  763.093
333.981;   64.600;   -8.293;  815.687
334.578;   66.762;   -7.052;  708.378
335.174;   70.698;   -3.102;  731.469
335.771;   70.995;   -5.943;  836.456
336.367;   67.287;   -7.393;  710.631
336.964;   71.112;   -4.063;  793.266
337.561;   70.438;   -3.813;  731.112
338.157;   66.251;   -4.654;  911.916
338.754;   63.544;   -7.934;  796.589
339.350;   62.423;   -4.414;  722.493
339.946;   64.691;   -4.664;  773.135
340.543;   56.212;   -6.375;  846.136
341.139;   49.789;   -9.815;  720.836
341.735;   47.564;   -4.526;  772.593
342.332;   46.556;   -4.895;  691.472
342.928;   46.106;   -4.295;  795.394
343.524;   38.654;   -5.476;  761.684
344.120;   35.887;   -5.856;  738.562
344.716;   38.246;   -2.155;  723.717
345.313;   37.014;   -6.275;  795.342
345.909;   31.532;   -8.815;  627.336
346.505;   32.470;   -5.305;  740.247
347.101;   33.274;   -2.674;  827.864
347.697;   34.235;   -4.344;  785.398
348.293;   27.936;   -9.975;  627.244
348.889;   27.621;   -5.774;  745.914
349.485;   28.267;   -5.004;  688.205
350.081;   29.042;   -4.704;  772.592
350.676;   23.832;   -6.635;  691.606
351.272;   27.285;   -4.504;  809.530
351.868;   27.067;   -3.914;  780.497
352.464;   25.107;   -9.044;  723.932
353.059;   21.798;   -8.314;  646.017
353.655;   24.089;   -7.024;  777.063
354.251;   25.397;   -5.343;  759.845
354.846;   19.916;   -8.604;  740.646
355.442;   17.110;   -6.945;  753.071
356.038;   18.785;   -7.564;  751.708
356.633;   18.916;   -5.814;  728.594
357.229;   17.788;   -7.364;  724.757
357.824;   15.904;   -8.024;  703.600
358.420;   13.722;   -9.384;  679.726
359.015;   15.237;   -5.104;  695.357
359.610;   16.151;   -6.854;  763.920
360.206;    9.876;  -10.185;  603.240
360.801;   11.925;   -7.054;  646.503
361.396;   14.164;   -5.034;  725.975
361.992;   11.218;   -8.284;  668.220
362.587;    7.503;   -8.625;  670.160
363.182;    8.933;   -7.674;  689.631
363.777;   10.400;   -5.164;  738.242
364.372;   10.802;   -8.604;  737.314
364.967;    5.700;   -9.055;  680.744
365.563;   10.041;   -6.114;  815.567
366.158;    7.113;   -5.814;  685.161
366.753;    8.322;   -7.854;  649.263
367.348;    6.871;   -7.804;  746.056
367.942;    5.290;   -7.954;  697.298
368.537;    4.736;   -4.984;  754.245
369.132;    5.617;   -8.564;  703.428
369.727;    1.230;   -8.855;  638.079
370.322;    1.445;   -6.245;  580.186
370.917;    1.931;   -6.425;  710.646
371.511;    4.715;   -6.294;  861.834
372.106;    0.867;   -7.685;  776.964
372.701;   -2.480;   -7.335;  585.988
373.296;    3.094;   -4.564;  863.135
373.890;   -0.778;  -10.235;  647.840
374.485;   -3.513;   -7.885;  691.199
375.079;   -0.229;   -7.324;  738.685
375.674;    2.099;   -3.494;  812.970
376.268;   -2.424;   -8.525;  691.759
376.863;   -8.589;  -10.086;  580.327
377.457;   -2.310;   -7.025;  662.490
378.052;   -3.544;   -3.585;  764.884
378.646;   -4.741;   -7.595;  741.167
379.240;   -4.081;   -8.335;  721.176
379.835;   -4.707;   -5.785;  636.978
380.429;   -6.193;   -4.335;  562.557
381.023;   -6.318;   -6.805;  779.205
381.617;   -8.825;   -9.195;  680.106
382.212;   -6.216;   -6.905;  685.303
382.806;   -4.668;   -3.745;  760.690
383.400;   -8.126;   -7.745;  672.281
383.994;  -10.087;   -9.765;  664.870
384.588;   -5.901;   -6.564;  697.701
385.182;   -5.487;   -5.344;  726.624
385.776;   -5.924;   -8.514;  706.875
386.370;   -9.775;   -9.555;  681.968
386.964;   -8.399;   -8.715;  684.155
387.558;   -7.121;   -6.174;  598.360
388.152;   -9.359;   -8.725;  681.959
388.745;   -8.335;   -7.965;  814.707
389.339;   -7.234;   -5.924;  747.642
389.933;   -6.059;   -5.524;  695.370
390.527;   -7.009;   -7.114;  859.029
391.120;  -13.312;  -10.725;  595.318
391.714;  -10.765;   -8.035;  711.633
392.308;   -8.007;   -3.574;  780.253
392.901;  -10.430;   -7.245;  642.460
393.495;  -12.746;   -9.285;  595.414
394.089;  -11.207;   -5.895;  760.452
394.682;  -11.537;   -4.295;  697.188
395.275;  -12.245;   -9.875;  719.927
395.869;  -12.395;   -8.485;  667.314
396.462;  -12.343;   -7.455;  616.609
397.056;   -7.981;   -5.424;  776.621
397.649;  -11.648;   -6.605;  731.575
398.242;  -10.208;   -8.224;  712.645
398.836;   -9.359;   -7.474;  766.408
399.429;  -10.265;   -7.094;  631.041
400.022;  -13.445;   -9.475;  665.902
400.615;  -10.568;   -7.145;  805.609
401.208;  -10.517;   -7.174;  691.451
401.802;  -11.947;   -5.515;  699.329
402.395;  -11.457;   -9.875;  683.502
402.988;  -14.020;   -8.845;  696.627
403.581;  -11.098;   -8.874;  646.878
404.174;   -8.130;   -5.324;  686.568
404.767;  -10.602;   -9.575;  638.583
405.360;  -13.057;  -10.965;  621.445
405.953;   -8.258;   -8.764;  759.034
406.545;   -7.637;   -7.514;  725.342
407.138;  -11.739;  -10.025;  618.350
407.731;  -10.787;  -10.034;  613.303
408.324;   -7.349;   -9.374;  660.554
408.917;   -8.477;   -6.534;  681.864
409.509;   -8.367;   -8.004;  740.396
410.102;  -11.348;   -9.875;  643.948
410.695;   -5.601;   -8.604;  665.758
411.287;   -6.794;   -6.794;  599.821
411.880;   -7.435;   -9.334;  585.421
412.472;  -10.590;  -10.254;  613.092
413.065;   -7.866;   -6.714;  629.408
413.657;   -6.072;   -7.234;  576.678
414.250;   -5.211;  -10.544;  646.681
414.842;   -7.183;   -9.744;  676.353
415.434;   -5.699;   -6.994;  570.463
416.027;   -1.464;   -5.893;  652.196
416.619;   -2.620;   -7.264;  713.400
417.211;   -3.623;  -10.374;  599.352
417.804;   -0.794;   -7.993;  628.499
418.396;   -4.523;   -7.234;  607.643
418.988;   -1.420;   -9.443;  659.238
419.580;   -4.945;  -10.724;  568.276
420.172;   -4.290;  -10.323;  536.196
420.764;    0.442;   -8.793;  672.482
421.356;    0.312;  -11.143;  636.898
421.948;   -0.927;   -8.293;  677.661
422.540;    3.477;   -7.893;  680.027
423.132;    2.977;   -7.082;  600.641
423.724;    0.238;   -8.653;  561.267
424.316;    1.855;  -10.213;  621.345
424.908;    4.916;   -9.762;  591.517
425.500;    5.620;   -5.572;  647.978
426.092;    6.673;   -8.422;  648.268
426.683;    5.735;   -9.283;  684.836
427.275;    7.593;   -7.852;  641.471
427.867;    9.490;   -5.272;  668.948
428.458;   10.658;   -7.682;  732.344
429.050;    8.532;  -10.612;  680.749
429.642;   10.686;   -9.882;  743.124
430.233;   11.369;   -6.962;  569.356
430.825;   12.972;   -6.842;  724.809
431.416;   10.290;   -9.672;  698.241
432.008;   13.287;   -6.552;  651.723
432.599;   13.919;   -6.891;  656.073
433.190;   11.595;  -10.912;  637.670
433.782;   10.825;  -11.172;  590.395
434.373;   17.671;   -6.061;  884.765
434.964;   16.443;   -8.251;  602.920
435.556;   14.936;   -9.722;  634.537
436.147;   17.536;   -9.082;  758.490
436.738;   17.146;   -8.041;  701.099
437.329;   22.065;   -7.341;  721.723
437.920;   16.237;   -8.162;  666.688
438.511;   15.737;  -11.802;  564.526
439.103;   21.615;  -10.191;  623.998
439.694;   24.014;   -7.601;  681.583
440.285;   25.136;   -8.541;  764.432
440.876;   22.949;   -9.751;  845.738
441.466;   22.015;   -9.401;  575.162
442.057;   27.294;   -7.760;  665.814
442.648;   26.286;   -9.971;  746.255
443.239;   24.485;  -11.001;  620.477
443.830;   29.138;   -7.990;  704.958
444.421;   31.748;   -7.910;  655.474
445.011;   28.191;   -8.131;  693.619
445.602;   27.032;   -7.111;  743.126
446.193;   28.716;  -10.920;  488.117
446.783;   33.195;   -6.500;  640.397
447.374;   29.849;   -8.671;  692.759
447.964;   29.280;  -10.781;  713.770
448.555;   38.033;   -9.650;  822.742
449.145;   34.400;   -8.660;  662.853
449.736;   35.938;   -8.990;  803.179
450.326;   35.662;   -9.500;  713.626
450.917;   39.469;   -8.680;  675.324
451.507;   39.508;   -7.520;  600.661
452.097;   40.551;   -8.590;  746.267
452.688;   41.915;  -11.340;  742.160
453.278;   40.712;  -10.100;  566.840
453.868;   45.067;   -6.019;  793.550
454.458;   43.446;   -9.440;  651.141
455.048;   43.995;  -10.560;  711.783
455.639;   43.855;  -11.799;  567.096
456.229;   48.571;   -6.899;  710.694
456.819;   51.678;   -7.389;  751.158
457.409;   50.723;  -11.119;  773.993
457.999;   53.296;   -9.289;  737.505
458.589;   53.746;   -6.139;  686.606
459.179;   54.135;   -8.729;  717.658
459.769;   51.822;   -9.789;  627.099
460.358;   56.088;  -10.259;  797.262
460.948;   56.310;   -7.299;  689.503
461.538;   58.483;  -10.289;  660.677
462.128;   56.681;  -11.269;  664.934
462.717;   62.394;   -9.368;  710.326
463.307;   65.483;   -7.908;  705.846
463.897;   62.738;   -9.599;  656.942
464.486;   60.758;   -9.769;  837.128
465.076;   64.971;   -8.048;  733.776
465.666;   68.278;   -9.358;  652.900
466.255;   66.774;   -7.919;  785.651
466.845;   65.999;  -11.689;  666.749
467.434;   68.301;   -7.818;  725.873
468.023;   69.738;   -7.678;  658.357
468.613;   67.614;  -10.939;  713.946
469.202;   71.934;  -10.118;  646.507
469.791;   75.660;   -9.108;  737.811
470.381;   77.880;   -6.058;  742.813
470.970;   77.515;  -10.428;  711.099
471.559;   77.778;  -10.268;  733.291
472.148;   79.965;   -8.448;  675.737
472.738;   82.443;   -6.917;  765.466
473.327;   83.201;  -11.978;  637.529
473.916;   82.773;  -11.888;  737.446
474.505;   86.699;   -9.437;  751.703
475.094;   89.889;   -6.747;  806.570
475.683;   89.189;   -9.367;  797.699
476.272;   89.920;  -12.637;  730.632
476.861;   91.873;  -10.027;  706.754
477.449;   98.335;   -8.716;  728.487
478.038;   93.906;   -9.577;  692.513
478.627;   94.905;   -9.718;  714.852
479.216;  100.909;   -8.947;  769.441
479.805;  104.638;   -6.256;  783.375
480.393;  104.894;   -7.937; 1008.945
480.982;  104.385;   -7.717;  874.501
481.571;  109.123;   -9.266;  858.333
482.159;  109.785;   -7.636;  705.386
482.748;  109.899;   -9.667;  821.385
483.336;  115.103;  -10.376;  858.209
483.925;  114.980;   -7.147;  774.373
484.513;  120.869;   -7.996;  758.962
485.102;  119.218;  -10.027;  810.965
485.690;  128.818;  -10.446; 1011.050
486.278;  128.552;   -8.446;  979.329
486.867;  130.795;   -6.356;  809.662
487.455;  132.025;   -9.136;  898.229
488.043;  134.616;  -10.646;  748.361
488.631;  141.856;   -7.456; 1005.079
489.220;  146.995;   -6.636;  908.626
489.808;  147.211;  -11.036;  741.415
490.396;  155.191;  -10.246;  914.645
490.984;  160.637;   -8.556;  830.161
491.572;  172.189;   -5.886;  940.315
492.160;  179.412;   -9.486;  919.081
492.748;  191.515;  -10.976;  884.341
493.336;  213.833;   -8.776; 1019.693
493.924;  238.550;   -5.465;  958.077
494.512;  272.994;   -9.986; 1066.638
495.100;  313.870;  -10.636; 1103.280
495.687;  368.775;  -10.885; 1206.373
496.275;  434.516;   -8.126; 1150.796
496.863;  519.848;  -10.586; 1281.171
497.451;  626.728;  -11.926; 1386.805
498.038;  742.705;  -10.885; 1556.729
498.626;  872.336;   -6.315; 1741.407
499.214; 1014.145;   -7.326; 2016.609
499.801; 1196.128;  -11.906; 2220.633
500.389; 1393.407;  -10.466; 2312.494
500.976; 1635.421;   -5.236; 2744.849
501.564; 2025.855;   -8.936; 3148.565
502.151; 2590.858;  -13.176; 3515.999
502.738; 3154.575;  -10.646; 3971.274
503.326; 3630.680;   -9.525; 4403.796
503.913; 3931.150;  -10.856; 5161.749
504.500; 4423.905;  -11.586; 5986.420
505.088; 5068.794;  -10.336; 6381.201
505.675; 5245.480;   -6.355; 6925.547
506.262; 5672.888;   -9.046; 7619.060
506.849; 6141.383;  -10.416; 8733.969
507.436; 6478.831;  -10.305; 9790.121
508.023; 7245.879;   -5.496; 9985.472
508.610; 7912.250;   -7.856;10434.618
509.197; 9381.708;  -10.097;11198.435
509.784;10785.745;  -10.886;12391.194
510.371;11724.369;   -9.315;13603.713
510.958;12454.283;   -9.936;14426.586
511.545;12636.915;   -9.326;15243.775
512.132;13307.099;  -10.075;15945.876
512.719;14581.727;   -7.796;16340.369
513.305;16969.967;  -10.606;18011.766
513.892;17941.082;  -11.486;19754.971
514.479;18979.670;   -9.126;20967.805
515.066;19941.930;   -6.026;22299.793
515.652;19798.371;   -8.466;22908.660
516.239;20378.297;  -10.886;23798.875
516.825;22142.949;  -11.496;25567.275
517.412;23696.043;   -5.796;28154.959
517.998;23989.445;  -10.506;28344.111
518.585;23668.184;  -10.076;27134.219
519.171;23750.357;   -8.315;27268.576
519.758;24212.125;   -8.596;28964.129
520.344;25041.484;   -8.466;30664.494
520.930;27372.258;  -11.006;32550.605
521.516;28935.785;  -10.495;35422.895
522.103;29314.689;   -5.526;38280.004
522.689;29805.289;   -8.746;37835.117
523.275;29282.359;  -11.376;37288.613
523.861;28179.473;  -11.156;37281.395
524.447;27370.135;   -8.135;37846.949
525.033;29710.920;   -7.896;38321.949
525.619;35536.246;  -12.476;38579.285
526.205;38501.629;   -9.516;40622.875
526.791;38475.777;   -6.926;42258.836
527.377;39842.566;   -8.346;42966.902
527.963;41492.668;   -8.717;42018.949
528.549;41123.914;  -11.016;42476.828
529.135;40318.242;   -8.536;41854.852
529.721;38962.391;   -9.666;41237.711
530.306;38122.293;  -10.066;41259.445
530.892;36705.293;  -11.356;41506.047
531.478;37871.922;   -6.596;43559.613
532.063;40416.043;   -8.836;47695.563
532.649;42545.133;  -10.047;50808.324
533.235;43708.996;   -9.746;51787.500
533.820;45722.348;   -6.566;52145.035
534.406;47617.516;  -10.817;51133.488
534.991;48801.293;   -9.416;49996.805
535.576;44272.078;   -9.036;48882.852
536.162;42745.988;   -6.156;46942.285
536.747;43365.566;  -11.607;45711.746
537.333;44975.469;  -11.787;48510.180
537.918;45070.137;  -12.437;50439.891
538.503;43883.629;   -7.196;50863.711
539.088;44913.535;  -10.556;50906.922
539.673;46499.766;   -8.767;52621.965
540.259;44290.301;  -10.026;52368.094
540.844;42696.141;   -7.416;50879.109
541.429;42759.383;   -9.467;52077.777
542.014;42232.816;   -9.527;52716.695
542.599;40939.598;   -9.946;52363.281
543.184;37962.227;   -7.927;53187.137
543.769;38149.809;   -9.297;54697.605
544.354;40608.559;  -10.127;53913.914
544.938;42427.285;   -9.267;49680.164
545.523;45064.320;   -6.506;47386.277
546.108;48020.090;   -9.787;49151.949
546.693;49372.398;  -11.587;51384.637
547.278;48589.191;  -10.986;51853.254
547.862;45789.633;   -8.206;51173.750
548.447;45208.602;  -10.067;51691.395
549.031;48729.594;   -9.637;52456.703
549.616;50579.801;   -9.926;52714.516
550.201;49063.715;   -6.347;52414.598
550.785;46934.750;   -7.917;52355.059
551.370;41962.102;  -10.867;54589.453
551.954;44328.879;   -9.047;58267.348
552.538;47481.699;   -7.827;59062.176
553.123;47034.480;  -10.287;58115.285
553.707;45454.160;  -12.178;56556.285
554.291;46762.508;   -8.717;56201.668
554.876;47683.199;   -7.457;55335.762
555.460;48516.828;  -10.387;54155.703
556.044;47713.652;   -9.618;53721.484
556.628;46173.914;  -11.567;53731.016
557.212;47867.082;   -8.097;54312.531
557.796;47342.637;  -11.077;53797.773
558.380;45063.695;  -11.108;56145.984
558.964;42155.164;   -9.057;57277.930
559.548;40807.719;   -6.977;56459.641
560.132;41367.016;  -11.457;54434.543
560.716;41475.723;  -11.378;54800.617
561.300;42772.406;   -9.577;57606.945
561.884;44821.969;   -7.127;58972.445
562.467;46697.336;   -7.118;57327.570
563.051;45322.613;  -13.358;54962.434
563.635;45128.789;  -10.178;52594.473
564.219;46281.555;   -7.837;50610.410
564.802;45307.723;  -11.398;49551.180
565.386;44607.527;  -12.788;48370.953
565.969;43173.258;   -9.077;48178.871
566.553;43228.742;   -6.207;49957.305
567.136;43364.516;   -8.568;50369.594
567.720;43722.441;  -11.868;49492.004
568.303;43958.410;   -8.268;50616.352
568.887;42493.141;   -8.698;50727.148
569.470;42153.367;   -6.808;51698.379
570.053;40027.555;  -13.188;52122.078
570.637;38338.488;  -12.037;52536.438
571.220;38469.332;   -8.577;51186.098
571.803;39306.586;   -8.498;51032.762
572.386;38298.641;  -10.498;49609.887
572.969;38381.742;   -9.388;48285.926
573.552;37682.098;   -8.338;47624.285
574.135;37556.699;   -8.518;45498.641
574.718;37832.805;  -13.628;41970.434
575.301;35390.621;  -10.893;41447.137
575.884;32948.438;   -8.158;40923.836
576.467;36189.004;  -10.328;45267.723
577.050;36639.336;  -13.058;48175.543
577.633;37029.891;   -9.458;47729.328
578.216;36189.449;   -8.928;47579.793
578.799;34916.230;   -9.358;47820.996
579.381;34470.082;  -11.388;48115.551
579.964;33528.996;  -11.718;47333.766
580.547;34880.793;   -8.588;46668.969
581.129;36380.398;   -8.859;44466.141
581.712;34737.004;  -10.729;44164.922
582.294;34843.168;  -11.118;46477.855
582.877;35517.578;   -5.218;48244.254
583.459;35769.707;   -8.679;47437.895
584.042;34756.320;  -10.709;46943.219
584.624;34412.484;  -11.669;46792.227
585.206;37790.422;   -8.218;46557.250
585.789;36354.707;  -10.569;45793.773
586.371;34606.383;  -11.859;43836.391
586.953;32353.369;  -10.719;42972.492
587.536;30874.654;   -7.198;42487.211
588.118;32904.930;   -8.720;42086.414
588.700;34540.480;  -10.439;43389.930
589.282;34306.582;   -9.198;43646.039
589.864;33861.637;   -9.199;43438.109
590.446;33194.910;  -11.319;43151.926
591.028;33767.855;  -11.159;42781.867
591.610;33442.004;  -11.779;42839.098
592.192;30329.783;   -7.668;42820.402
592.774;29575.988;  -11.949;40724.277
593.356;29231.480;  -12.129;39874.789
593.937;30246.625;  -10.669;39980.648
594.519;30597.992;   -6.509;42069.633
595.101;33258.863;  -10.849;42976.031
595.683;35412.324;  -11.679;44084.441
596.264;33616.340;   -9.049;43478.797
596.846;34669.355;   -8.849;43803.672
597.427;36503.605;   -9.570;42986.934
598.009;33855.824;  -12.620;42832.219
598.591;30827.932;  -10.039;42580.086
599.172;30557.104;  -10.369;43061.805
599.753;32123.875;   -9.140;41691.469
600.335;32390.473;  -11.430;40692.520
600.916;31347.895;   -9.939;39982.422
601.498;32793.027;   -8.479;40318.617
602.079;32763.523;  -10.920;40670.609
602.660;32343.287;  -11.480;41450.898
603.241;32645.787;  -11.699;41137.738
603.823;32777.797;   -9.579;38868.797
604.404;32143.570;  -10.620;38182.785
604.985;31036.525;  -10.450;38078.047
605.566;30509.379;   -9.129;38056.633
606.147;31848.045;   -7.510;37020.418
606.728;32032.477;  -10.660;37883.359
607.309;31282.674;  -11.740;38748.273
607.890;29990.613;   -9.759;38850.230
608.471;28102.512;   -8.250;37457.918
609.051;29093.391;   -9.240;36066.457
609.632;29293.570;  -12.120;35991.074
610.213;28203.291;   -9.110;37402.641
610.794;29214.020;   -8.030;38383.363
611.374;30509.332;   -8.110;40562.387
611.955;31707.795;  -13.560;38533.727
612.536;30759.875;  -11.400;36951.789
613.116;31174.572;   -8.070;37197.891
613.697;31546.947;  -10.830;38411.125
614.277;29682.533;  -11.641;38673.938
614.858;28306.406;  -13.310;37075.863
615.438;28613.881;   -7.460;35092.906
616.019;28270.633;   -7.601;33666.301
616.599;28817.449;  -12.020;34189.023
617.179;29164.490;  -11.780;36952.047
617.760;31113.891;   -8.570;39582.574
618.340;32720.568;  -11.471;38943.977
618.920;31410.982;  -11.170;37594.156
619.500;29892.861;  -11.071;37866.938
620.080;30724.871;   -7.750;37869.043
620.660;31552.859;  -12.711;36868.617
621.241;29521.828;  -10.211;36352.309
621.821;28529.428;  -10.961;35459.520
622.401;29449.945;   -7.720;35207.414
622.980;30535.602;   -8.981;35980.422
623.560;31706.604;   -9.331;37351.328
624.140;28536.004;   -9.850;34388.582
624.720;24580.924;   -7.451;32368.764
625.300;22805.561;   -9.070;32638.629
625.880;25885.473;  -12.601;34599.035
626.459;30579.852;  -11.751;36831.738
627.039;31942.686;   -9.281;38299.098
627.619;32168.186;   -8.801;38289.574
628.198;32909.598;  -12.071;37220.695
628.778;33562.258;   -9.461;37632.563
629.357;33858.215;   -8.491;38003.012
629.937;32782.082;   -9.721;38402.039
630.516;32734.432;   -9.951;37868.801
631.096;31675.439;  -11.731;35760.410
631.675;31686.729;   -8.572;35225.219
632.254;32681.496;  -11.282;35130.289
632.834;32883.012;  -13.322;35794.570
633.413;33989.734;  -10.301;35788.922
633.992;34636.789;   -8.582;34532.863
634.571;32867.594;   -8.352;33590.113
635.151;32208.404;  -11.912;34943.863
635.730;31010.668;  -10.511;35352.523
636.309;31118.953;   -7.731;35366.605
636.888;31473.031;   -9.952;36165.637
637.467;31619.906;  -11.672;37515.902
638.046;32953.344;   -8.901;39288.695
638.625;31615.172;   -7.912;38279.699
639.204;32268.865;  -10.022;37741.598
639.782;32097.795;  -12.252;38364.551
640.361;29660.068;  -10.041;36740.621
640.940;28074.119;  -11.161;34950.082
641.519;28777.031;   -9.701;34137.398
642.097;31160.875;  -11.271;35654.258
642.676;30859.814;   -8.651;35637.957
643.255;33039.031;   -8.711;36567.074
643.833;34771.605;   -9.581;37809.434
644.412;33205.035;  -13.711;37337.293
644.990;30501.262;  -11.811;37018.531
645.569;30575.104;   -9.411;36518.469
646.147;31484.666;  -10.291;36186.430
646.726;30962.914;  -12.401;36267.688
647.304;30070.439;  -10.411;36647.625
647.882;31388.775;   -9.651;39286.742
648.461;33477.211;   -9.631;39157.703
649.039;33640.742;  -11.881;35412.883
649.617;33610.910;   -9.661;34744.918
650.195;33867.270;   -9.301;35403.098
650.773;32524.363;  -10.511;35053.797
651.352;31959.955;  -11.521;33756.816
651.930;29929.879;  -12.211;31868.773
652.508;24836.898;   -9.171;33121.551
653.086;24025.004;   -9.371;33564.793
653.663;28768.889;  -13.161;34054.668
654.241;30280.152;  -13.031;35693.309
654.819;32463.459;   -9.371;36422.906
655.397;32249.768;  -10.511;38213.484
655.975;31677.613;  -10.371;39507.625
656.553;32558.451;  -10.051;39498.223
657.130;31925.658;  -10.061;40395.480
657.708;30634.314;   -9.561;39242.020
658.286;30343.543;  -11.511;38920.020
658.863;28739.830;  -10.261;40202.898
659.441;30255.043;   -7.531;39677.938
660.018;31731.055;   -9.501;40413.355
660.596;31342.779;  -13.301;39931.414
661.173;29358.473;  -11.211;39604.531
661.750;29137.055;   -9.951;39700.070
662.328;31056.396;   -9.390;39292.809
662.905;30259.877;  -11.330;38235.648
663.482;26416.750;   -9.050;36212.305
664.060;23978.631;   -8.240;35944.945
664.637;27641.691;  -10.050;35170.785
665.214;30713.381;  -11.760;34197.523
665.791;31643.412;  -10.530;34549.520
666.368;32067.807;   -9.690;35118.578
666.945;32447.588;   -9.320;36019.418
667.522;30500.059;  -11.860;36048.438
668.099;30533.020;  -10.770;36243.914
668.676;32912.676;   -6.260;35958.875
669.253;34171.020;   -7.000;37384.730
669.830;34786.027;  -10.190;36779.629
670.407;33916.078;   -9.550;35231.289
670.984;32643.865;   -9.260;35544.270
671.560;29849.979;   -9.280;35466.867
672.137;26142.500;  -11.810;34280.863
672.714;25248.646;  -11.490;34632.863
673.290;29774.291;   -7.740;35135.422
673.867;33184.629;  -10.660;36114.480
674.443;32321.602;  -12.230;36152.859
675.020;30864.398;  -10.450;35327.238
675.596;29963.672;   -9.260;35795.176
676.173;30909.516;  -10.780;35430.355
676.749;31223.891;  -13.690;33549.516
677.326;29523.080;  -11.980;32210.012
677.902;27933.273;   -8.630;32068.871
678.478;27876.631;  -10.730;32583.891
679.054;29411.510;  -10.520;32088.928
679.631;31081.068;  -11.920;30978.848
680.207;31466.311;   -7.490;33160.887
680.783;31365.418;   -9.860;35570.363
681.359;33012.281;  -13.380;36125.184
681.935;32822.852;  -12.480;35240.922
682.511;30244.146;   -7.900;34429.961
683.087;29356.918;   -7.710;34463.680
683.663;30336.125;  -11.480;34648.898
684.239;30861.813;  -14.090;34546.457
684.815;30250.580;   -7.560;35586.375
685.390;28513.857;   -9.910;35821.895
685.966;28534.721;  -11.159;35085.871
686.542;27677.586;  -11.169;34198.230
687.118;28371.172;   -5.959;32847.707
687.693;31592.332;  -10.329;32794.027
688.269;32102.354;  -12.059;33072.367
688.844;32406.900;  -10.909;33141.664
689.420;34475.488;   -8.019;33965.742
689.995;32575.307;   -8.399;34655.523
690.571;30721.768;  -10.949;33576.742
691.146;30008.645;   -9.619;32657.219
691.722;30646.738;   -8.999;32526.979
692.297;30371.604;  -11.589;33014.617
692.872;29127.615;  -11.739;34012.254
693.448;29643.945;  -11.059;34237.434
694.023;29594.037;  -10.139;34142.672
694.598;27012.475;   -9.029;34132.031
695.173;27151.332;  -13.319;34205.250
695.748;29573.629;  -10.169;32882.488
696.323;28631.994;   -8.339;32864.906
696.898;27108.855;   -8.169;33170.004
697.473;27691.363;  -12.309;32432.984
698.048;28134.541;  -10.989;31649.303
698.623;27771.861;   -9.329;30778.141
699.198;27983.971;   -9.849;31140.119
699.773;28788.498;  -12.329;31764.299
700.348;31320.990;  -10.389;31780.816
700.922;30796.707;   -9.269;32046.375
701.497;28523.564;   -9.329;32603.574
702.072;29577.828;  -10.789;34799.871
702.646;29007.287;  -10.839;35793.172
703.221;30198.355;   -9.099;35201.590
703.795;31474.271;  -10.939;34764.527
704.370;31274.361;  -12.859;34307.367
704.944;30875.051;  -11.559;33509.887
705.519;30033.277;   -7.939;31388.584
706.093;31649.883;  -10.499;31340.104
706.668;31411.258;  -11.289;32630.281
707.242;30936.492;  -11.509;32728.779
707.816;29271.756;   -9.639;32947.238
708.390;27628.252;  -11.429;33277.855
708.965;27582.199;  -11.869;33834.336
709.539;28576.764;  -11.689;33709.273
710.113;28432.789;  -10.478;33044.313
710.687;28407.627;  -10.228;31953.992
711.261;28400.467;  -13.698;30505.949
711.835;28413.926;  -13.378;30262.369
712.409;28723.816;   -9.698;31254.447
712.983;27634.512;  -11.898;32754.986
713.557;27484.035;  -15.138;34018.824
714.131;25863.314;  -14.098;34579.625
714.704;24506.594;   -9.958;33890.262
715.278;24757.063;  -10.028;33531.102
715.852;24670.188;  -11.148;33601.660
716.425;25452.326;   -9.068;33515.117
716.999;24860.057;  -10.038;33185.555
717.573;24221.225;   -9.798;33905.996
718.146;25002.873;  -12.378;35199.293
718.720;26122.492;  -11.918;35060.551
719.293;27664.830;   -8.088;34973.230
719.867;28963.365;  -10.888;36394.449
720.440;29137.111;  -11.938;36663.008
721.013;29910.268;  -12.818;35102.426
721.587;28706.949;  -10.298;33985.266
722.160;27392.141;  -10.048;33524.965
722.733;26640.871;  -12.108;32987.043
723.306;26383.750;  -10.818;33066.301
723.880;27438.076;   -8.908;33399.500
724.453;26908.725;   -9.878;33468.297
725.026;26000.242;  -11.188;33816.637
725.599;27134.432;  -11.678;32797.996
726.172;28781.725;   -9.618;33187.434
726.745;27752.020;   -8.258;35136.613
727.318;26979.936;  -12.978;35751.730
727.891;25841.535;  -12.148;35890.430
728.463;25099.666;   -8.968;34822.090
729.036;25213.395;  -10.188;32895.086
729.609;26645.715;  -11.788;31823.225
730.182;26653.373;  -11.788;31445.283
730.754;24712.334;  -10.268;32373.223
731.327;23087.125;   -9.998;33676.820
731.900;22735.410;  -12.228;33417.000
732.472;23996.043;  -13.848;31978.498
733.045;25462.840;   -8.698;30368.777
733.617;24516.631;  -10.607;30574.215
734.190;25703.848;  -11.507;31280.975
734.762;27446.033;  -13.647;31674.412
735.334;25092.891;   -9.767;31247.291
735.907;23978.768;   -9.897;29876.211
736.479;24739.205;  -11.637;29808.488
737.051;26029.084;   -9.567;30233.547
737.623;26215.027;   -8.187;31469.086
738.195;26055.342;  -11.187;31784.225
738.768;26395.775;  -12.337;32120.523
739.340;24875.168;  -12.227;32094.342
739.912;23445.328;  -11.057;31312.680
740.484;22613.332;  -10.207;31946.238
741.056;20788.668;  -10.047;32984.059
741.628;20372.734;  -13.627;33897.715
742.199;21580.748;   -7.177;33213.016
742.771;24475.973;  -10.797;31369.113
743.343;26804.727;  -11.997;31865.473
743.915;27046.924;  -12.867;32388.631
744.487;25202.096;   -7.617;31079.568
745.058;23531.148;   -9.557;30570.107
745.630;23622.639;   -9.877;29970.127
746.201;23377.832;  -14.177;29186.766
746.773;22198.477;   -9.237;28805.723
747.344;22415.225;   -9.847;29591.223
747.916;22720.904;  -11.657;31412.201
748.487;22209.301;  -10.587;32194.898
749.059;22147.150;   -8.707;32533.719
749.630;22264.064;  -10.537;32158.518
750.201;23254.252;  -11.687;30855.395
750.773;23403.715;  -11.647;28622.555
751.344;22583.857;   -7.147;28405.732
751.915;21688.842;   -9.757;28461.551
752.486;21706.256;  -12.427;27842.850
753.057;21286.986;  -12.227;27845.008
753.628;20559.189;  -10.417;27728.107
754.199;19465.588;  -11.767;27381.086
754.770;19285.957;  -11.187;25882.203
755.341;20163.795;  -10.507;25886.184
755.912;20096.570;   -9.387;26050.861
756.483;18509.330;  -10.647;26798.779
757.054;18156.635;  -11.837;27048.238
757.625;18801.537;  -12.716;26294.838
758.195;19518.717;   -9.666;26142.076
758.766;20962.885;   -8.656;26392.234
759.337;20811.934;  -12.856;26334.594
759.907;20300.756;  -13.366;27579.652
760.478;20886.064;   -8.576;28352.770
761.048;20702.236;  -10.526;27325.088
761.619;20765.068;  -11.116;26460.428
762.189;20495.031;  -12.136;26029.826
762.760;19504.871;   -9.456;26430.145
763.330;18941.271;   -7.136;26670.902
763.900;19636.684;  -11.786;26603.021
764.471;19154.455;  -11.546;25542.740
765.041;17534.598;   -8.096;24358.459
765.611;16525.248;   -8.876;23991.297
766.181;15994.539;  -12.196;24470.236
766.751;16233.138;  -11.636;24845.975
767.321;17236.477;  -10.156;24533.633
767.891;17935.668;  -11.766;24916.492
768.461;17584.162;  -14.936;24776.771
769.031;17383.381;  -12.356;24757.988
769.601;17408.725;   -7.526;24181.088
770.171;17697.494;  -10.766;23670.387
770.741;17161.240;  -13.176;22960.045
771.311;16491.893;  -10.616;22917.523
771.880;16279.571;   -9.576;23562.941
772.450;15805.316;  -10.336;24216.500
773.020;16297.438;  -13.516;24140.398
773.589;16731.162;  -13.466;24414.857
774.159;16419.807;   -8.686;23858.717
774.729;16519.061;   -9.476;22942.135
775.298;16080.229;  -13.666;22324.033
775.867;15029.688;  -11.716;21140.313
776.437;14276.527;   -9.906;20838.092
777.006;14450.033;  -12.166;20599.510
777.576;13707.627;  -12.356;20508.809
778.145;13517.248;  -11.646;20732.947
778.714;13505.067;   -8.226;21062.465
779.283;13598.409;   -9.556;20949.664
779.853;14063.508;  -14.116;20508.623
780.422;13808.075;  -11.506;20649.082
780.991;13658.498;   -9.556;21527.520
781.560;13402.655;   -9.095;22632.658
782.129;12169.314;  -12.135;23048.277
782.698;11657.465;  -10.865;23438.555
783.267;11770.259;   -9.335;23267.734
783.836;12266.067;  -11.045;22415.133
784.404;13137.065;  -13.865;20443.152
784.973;13047.088;  -13.095;19699.150
785.542;12442.589;  -11.575;19763.828
786.111;12144.741;   -9.705;20341.408
786.679;12021.884;  -12.105;20207.967
787.248;11920.818;  -12.455;19516.465
787.817;11203.577;  -11.535;18900.363
788.385;11490.731;   -9.765;17879.121
788.954;12454.837;  -14.005;17658.301
789.522;12735.289;  -11.955;17788.879
790.090;12310.752;  -10.135;18118.277
790.659;12460.542;  -10.975;18338.736
791.227;12680.682;  -13.375;18508.615
791.795;12494.145;  -12.375;17898.254
792.364;12307.988;  -10.725;17295.133
792.932;12337.900;   -9.715;16822.051
793.500;12326.146;  -12.675;17040.148
794.068;12102.488;  -13.495;17179.787
794.636;10696.143;  -10.885;16664.246
795.204; 9695.668;  -11.045;16524.545
795.772; 9545.593;  -13.175;17274.564
796.340;10584.844;  -12.445;17891.002
796.908;10803.983;   -9.735;17648.561
797.476;10774.910;   -9.815;17064.080
798.044;10884.815;  -13.985;16672.777
798.612;10699.237;  -13.115;17023.996
799.180;10149.528;  -10.185;16561.615
799.747; 9281.315;   -9.055;15962.773
800.315; 8260.499;  -12.385;15296.992
800.883; 8042.136;  -15.035;14801.771
801.450; 8655.115;  -10.365;14534.430
802.018; 9533.042;   -9.855;14173.248
802.585;10284.981;  -11.905;14029.547
803.153;10096.778;  -11.585;13836.846
803.720; 9289.468;   -9.095;13567.324
804.287; 8806.514;   -9.135;13360.622
804.855; 9152.040;  -11.604;13681.981
805.422; 9609.559;  -11.794;13536.560
805.989; 8905.088;  -10.734;13355.958
806.556; 8717.947;  -10.444;13747.896
807.124; 8797.189;  -12.764;13987.376
807.691; 8891.478;  -12.964;14038.674
808.258; 9166.187;  -11.134;14120.152
808.825; 9250.680;   -9.854;13860.111
809.392; 8667.344;  -10.504;13268.790
809.959; 8213.141;  -13.054;12680.389
810.526; 8034.338;   -8.294;12427.308
811.093; 8157.893;   -8.394;12030.105
811.659; 7885.604;  -12.304;11653.664
812.226; 7223.792;  -13.944;11637.183
812.793; 7117.653;  -10.484;11611.521
813.360; 7339.429;  -10.144;11885.181
813.926; 7238.517;  -11.684;12770.539
814.493; 6967.571;  -13.644;12677.638
815.060; 6660.582;   -9.724;11974.336
815.626; 6389.382;   -9.854;11594.715
816.193; 6498.414;  -13.254;11579.474
816.759; 6506.413;  -13.204;11666.972
817.325; 6782.440;   -9.434;11325.530
817.892; 6770.267;  -10.134;11105.369
818.458; 6453.293;  -13.474;10843.928
819.024; 6111.783;  -11.854;10714.406
819.591; 5858.200;  -10.244;10469.165
820.157; 5655.065;  -10.704;10235.523
820.723; 5810.191;  -12.324;10847.563
821.289; 6300.274;   -9.444;11040.980
821.855; 6634.604;   -8.374;10357.100
822.421; 6603.082;  -10.234; 9978.918
822.987; 6554.347;  -13.294; 9754.177
823.553; 6734.821;  -10.884;10065.755
824.119; 6684.832;   -8.884;10036.294
824.685; 6453.992;   -6.784;10029.192
825.251; 6038.971;  -12.004;10199.230
825.816; 6019.170;  -11.474; 9820.189
826.382; 6143.945;   -9.174; 9297.248
826.948; 6064.406;   -9.214; 9381.347
827.513; 5757.862;  -10.774; 9450.726
828.079; 5478.554;  -11.924; 9472.444
828.645; 5336.720;  -10.543; 9292.643
829.210; 5304.872;  -10.533; 9065.341
829.776; 5179.042;  -10.753; 9132.620
830.341; 5081.000;  -10.173; 9092.878
830.906; 4975.549;  -10.743; 9078.557
831.472; 5056.563;  -11.113; 8534.535
832.037; 5092.708;  -10.603; 8677.874
832.602; 5148.262;  -13.323; 8628.692
833.167; 5274.286;  -10.823; 8879.031
833.733; 4986.542;  -10.113; 9189.790
834.298; 4833.401;  -13.583; 9052.608
834.863; 4966.202;  -12.703; 8895.087
835.428; 4988.142;  -10.523; 8824.266
835.993; 4818.034;   -6.963; 8845.385
836.558; 4560.576;  -10.763; 8888.563
837.123; 4509.383;   -9.903; 8966.582
837.688; 4458.546;   -9.913; 8617.860
838.253; 4505.049;  -10.283; 8590.699
838.817; 4749.889;  -12.963; 8443.797
839.382; 4798.897;  -14.243; 8799.356
839.947; 4696.620;  -10.733; 8810.595
840.511; 4458.210;   -9.383; 8796.394
841.076; 4446.688;  -12.563; 8347.231
841.641; 4482.329;  -12.953; 8224.330
842.205; 4083.112;   -7.043; 8223.349
842.770; 3885.110;   -8.163; 8622.107
843.334; 4028.197;  -12.503; 8410.386
843.898; 4265.696;  -11.693; 8337.465
844.463; 4270.221;  -10.203; 8506.283
845.027; 4131.815;   -9.533; 8280.962
845.591; 4054.529;  -13.443; 8231.141
846.156; 4038.382;  -13.143; 7969.179
846.720; 3904.755;   -9.433; 7768.278
847.284; 3442.743;  -11.033; 7630.957
847.848; 3100.949;  -10.403; 7472.395
848.412; 3221.120;  -11.553; 7437.394
848.976; 3615.108;   -8.393; 7674.592
849.540; 3866.473;   -8.713; 7836.011
850.104; 3823.002;  -12.463; 7913.669
850.668; 3741.280;  -12.973; 7694.508
851.232; 3547.031;  -10.793; 7756.887
851.796; 3428.602;  -10.662; 7926.545
852.359; 3568.542;  -13.082; 7827.844
852.923; 3541.824;  -12.192; 7641.163
853.487; 3454.575;  -11.912; 7342.501
854.050; 3563.035;  -10.892; 7042.820
854.614; 3573.764;  -13.992; 7151.338
855.177; 3408.435;  -11.732; 7105.077
855.741; 3254.445;   -8.962; 6989.675
856.304; 3218.242;   -9.442; 6596.634
856.868; 3180.679;  -14.192; 6356.272
857.431; 3157.424;  -12.702; 6468.571
857.995; 3402.500;   -9.942; 6373.210
858.558; 3539.018;   -9.112; 6324.448
859.121; 3133.259;  -12.932; 6408.327
859.684; 2762.422;  -13.442; 6347.886
860.247; 2692.882;  -10.632; 6321.264
860.810; 2876.280;  -11.272; 6301.903
861.374; 3059.211;   -9.832; 6607.881
861.937; 3089.582;  -11.762; 6408.200
862.500; 3119.114;   -9.722; 6572.639
863.062; 3047.188;  -10.512; 6387.297
863.625; 2893.553;  -11.232; 6190.836
864.188; 2728.062;  -14.112; 5807.254
864.751; 2534.825;  -11.302; 5682.413
865.314; 2454.230;  -10.112; 5547.492
865.876; 2600.014;  -12.182; 5500.150
866.439; 2839.103;  -10.722; 5415.909
867.002; 2902.452;   -9.252; 5501.567
867.564; 2774.049;   -9.572; 5413.946
868.127; 2542.897;  -13.142; 5160.325
868.689; 2387.292;  -12.902; 5133.183
869.252; 2259.090;   -9.732; 5252.382
869.814; 2166.115;   -9.432; 5297.141
870.377; 2254.077;  -11.552; 5390.919
870.939; 2341.509;   -9.052; 5599.898
871.501; 2299.041;  -10.982; 5248.336
872.063; 2357.384;  -12.292; 4854.235
872.626; 2428.945;  -14.912; 4817.074
873.188; 2512.586;  -13.112; 4987.732
873.750; 2574.606;  -13.442; 4868.651
874.312; 2471.380;   -9.402; 4779.330
874.874; 2206.695;  -11.062; 4866.348
875.436; 1868.241;  -13.931; 4718.887
875.998; 1426.910;   -9.561; 4660.005
876.560; 1079.846;  -11.321; 4462.964
877.122;  971.098;  -12.221; 4145.042
877.683; 1022.103;  -12.191; 4056.481
878.245; 1165.647;  -12.101; 3950.740
878.807; 1328.914;   -8.971; 4058.958
879.369; 1407.330;  -12.071; 3954.677
879.930; 1377.082;  -14.621; 3941.495
880.492; 1377.489;  -10.311; 4067.014
881.053; 1361.105;  -10.901; 3859.633
881.615; 1340.127;  -14.411; 3776.071
882.176; 1328.230;  -13.761; 3734.750
882.738; 1353.494;   -9.181; 3678.489
883.299; 1336.295;  -11.791; 3405.407
883.860; 1276.590;  -13.121; 3351.106
884.422; 1193.137;  -11.211; 3394.044
884.983; 1130.741;  -10.091; 3166.443
885.544; 1107.022;   -8.461; 3189.802
886.105; 1079.446;  -12.361; 3160.360
886.666; 1028.495;  -14.141; 3093.059
887.227; 1003.902;  -11.361; 2941.957
887.788;  994.702;  -11.401; 2974.836
888.349;  936.953;  -13.791; 2721.214
888.910;  868.467;  -13.191; 2696.493
889.471;  812.905;   -9.881; 2560.172
890.032;  754.574;   -9.881; 2558.190
890.593;  718.132;  -10.371; 2567.669
891.153;  703.256;  -13.301; 2460.307
891.714;  682.599;  -11.431; 2372.046
892.275;  639.659;  -11.291; 2309.505
892.835;  631.398;  -11.471; 2382.543
893.396;  629.678;  -11.541; 2295.502
893.956;  598.279;  -11.181; 2162.420
894.517;  542.039;  -11.741; 2125.439
895.077;  478.328;  -11.671; 2086.978
895.638;  434.445;  -11.311; 2126.316
896.198;  422.617;   -9.831; 1838.275
896.758;  419.437;   -8.421; 1892.813
897.319;  404.719;  -12.351; 1792.232
897.879;  374.957;  -13.511; 1762.751
898.439;  356.965;  -12.001; 1661.149
898.999;  345.646;  -10.180; 1781.468
899.559;  334.908;  -12.030; 1703.347
900.119;  328.151;  -15.710; 1537.525
900.679;  323.463;   -8.900; 1638.384
901.239;  306.915;   -8.340; 1527.902
901.799;  283.165;  -13.910; 1456.441
902.359;  267.024;  -13.460; 1357.140
902.919;  258.358;  -11.490; 1331.118
903.479;  254.510;  -12.110; 1317.257
904.038;  248.631;  -11.720; 1262.595
904.598;  236.335;  -13.610; 1152.034
905.158;  224.821;  -11.040; 1240.893
905.717;  216.722;  -10.900; 1233.691
906.277;  211.784;  -15.080; 1217.330
906.836;  207.053;  -13.380; 1222.408
907.396;  203.312;  -10.780; 1193.047
907.955;  200.231;   -8.500; 1182.526
908.515;  193.566;  -12.760; 1099.364
909.074;  188.359;  -11.900; 1092.863
909.633;  183.639;   -8.950; 1069.121
910.192;  180.899;   -8.770; 1196.460
910.752;  177.011;  -12.390; 1029.960
911.311;  173.365;  -13.680; 1009.780
911.870;  170.269;  -12.370;  971.460
912.429;  168.312;  -10.900; 1094.080
912.988;  165.667;  -11.690; 1081.060
913.547;  160.180;  -13.240;  940.380
914.106;  159.031;  -11.990;  999.420
914.665;  158.758;   -9.990;  984.020
915.224;  155.661;  -12.880; 1035.760
915.782;  155.035;  -12.350;  922.560
916.341;  155.243;   -9.110; 1049.840
916.900;  153.803;   -9.270;  925.260
917.458;  149.664;  -13.240;  884.220
918.017;  145.290;  -13.550;  942.600
918.576;  141.290;  -12.320;  904.440
919.134;  140.542;  -11.490;  837.980
919.693;  140.186;  -13.670;  893.060
920.251;  139.663;  -15.470;  876.500
920.809;  139.696;  -11.290;  839.580
921.368;  140.082;  -10.210;  885.360
921.926;  138.959;  -12.140;  842.940
922.484;  137.463;  -13.080;  903.360
923.042;  136.828;  -11.720;  880.340
923.601;  139.070;   -7.480;  998.680
924.159;  138.270;  -11.570;  935.560
924.717;  135.595;  -13.840;  841.080
925.275;  137.046;  -10.640;  903.240
925.833;  137.155;  -11.540;  779.320
926.391;  139.259;  -12.960;  938.380
926.949;  138.789;  -14.130;  857.680
927.506;  139.137;  -11.750;  903.500
928.064;  139.936;  -10.250;  877.580
928.622;  137.575;  -13.030;  880.100
929.180;  138.292;  -13.400;  814.180
929.737;  138.683;  -10.700;  808.540
930.295;  139.073;  -10.070;  928.480
930.853;  140.441;  -11.960;  849.100
931.410;  141.602;  -13.120;  821.120
931.968;  142.420;  -10.770;  940.660
932.525;  142.373;  -10.680;  909.380
933.082;  145.012;  -13.130;  811.440
933.640;  150.558;  -13.210;  925.900
934.197;  153.894;  -11.060;  886.360
934.754;  157.387;   -9.580;  897.780
935.312;  156.738;  -14.000;  863.340
935.869;  156.083;  -10.710; 1012.980
936.426;  152.865;   -9.860;  872.800
936.983;  154.527;   -9.710;  889.020
937.540;  154.926;  -13.990;  838.280
938.097;  155.173;  -14.040;  940.120
938.654;  156.348;  -10.310;  898.860
939.211;  156.253;  -10.560;  952.480
939.768;  153.370;  -13.900;  915.420
940.324;  154.521;  -14.760;  904.200
940.881;  156.874;  -10.370;  878.500
941.438;  162.185;   -8.260; 1021.200
941.995;  163.301;  -12.540;  992.560
942.551;  161.542;  -14.670;  875.620
943.108;  160.001;  -10.450;  937.920
943.664;  161.925;  -10.750;  869.340
944.221;  165.769;  -11.550; 1088.140
944.777;  167.334;  -14.770;  869.680
945.334;  171.182;  -12.820;  884.840
945.890;  174.856;  -10.130;  946.480
946.446;  174.673;  -13.470;  947.020
947.003;  174.221;  -12.120;  964.940
947.559;  176.098;   -9.980; 1063.040
948.115;  177.445;   -9.080; 1026.540
948.671;  180.368;  -10.830;  967.300
949.227;  177.567;  -12.440;  859.560
949.783;  169.591;  -12.910;  858.900
950.339;  166.482;  -10.270;  991.000
950.895;  164.919;  -13.630; 1023.840
951.451;  163.487;  -15.100;  925.280
952.007;  163.887;  -11.330;  998.540
952.563;  164.009;  -10.580;  937.780
953.118;  163.665;  -13.440;  904.940
953.674;  161.321;  -12.710;  935.780
954.230;  159.402;  -10.350;  949.640
954.785;  161.436;   -9.190;  936.640
955.341;  161.176;  -11.200;  998.160
955.897;  154.326;  -16.560;  834.660
956.452;  148.977;  -12.570;  953.840
957.008;  146.671;   -7.970; 1083.640
957.563;  144.177;  -11.940; 1009.540
958.118;  143.897;  -13.450;  877.700
958.674;  146.227;  -12.030;  946.780
959.229;  146.991;   -9.410; 1013.980
959.784;  146.278;  -12.000;  832.400
960.339;  144.720;  -14.780; 1001.280
960.894;  136.401;   -9.860;  963.760
961.449;  130.579;   -9.970;  859.960
962.004;  131.860;  -10.900; 1212.840
962.559;  126.114;  -13.150;  860.140
963.114;  123.426;  -13.740;  742.480
963.669;  126.350;   -9.820;  915.500
964.224;  129.307;  -13.890;  874.340
964.779;  129.772;  -12.600;  828.420
965.334;  128.110;  -10.950; 1017.860
965.888;  121.262;  -11.170;  875.360
966.443;  118.025;  -12.540;  972.380
966.998;  117.297;  -15.780;  819.460
967.552;  119.005;   -9.760;  908.380
968.107;  117.488;   -9.060;  868.300
968.661;  116.107;  -11.950;  922.440
969.216;  113.949;  -12.800;  856.280
969.770;  111.031;  -11.210;  917.200
970.324;  110.996;  -11.610;  923.140
970.879;  109.260;  -11.370;  947.180
971.433;  108.038;  -12.540;  952.720
971.987;  106.467;  -11.320;  895.340
972.541;  105.833;  -10.720;  917.100
973.095;  108.456;   -9.680; 1009.460
973.649;  107.855;  -11.440;  809.480
974.203;  107.784;  -11.210;  829.040
974.757;  106.177;  -10.240;  855.220
975.311;  105.239;  -13.720;  872.600
975.865;  105.036;  -13.770;  881.820
976.419;  105.939;  -11.690;  857.400
976.973;  107.176;   -9.510;  849.620
977.526;  106.104;  -12.620;  949.920
978.080;  101.285;  -12.010;  796.780
978.634;   99.251;  -10.170;  921.320
979.187;   95.413;   -9.020;  905.400
979.741;   95.689;   -9.820; 1018.380
980.294;   93.905;  -14.870;  789.160
980.848;   91.352;  -12.380;  717.220
981.401;   92.080;  -10.350;  816.540
981.955;   93.153;  -13.720;  844.300
982.508;   91.219;  -11.490;  746.340
983.061;   89.393;  -10.000;  915.260
983.615;   88.543;  -11.480;  798.800
984.168;   86.313;  -13.220;  770.080
984.721;   85.497;  -13.960;  880.760
985.274;   81.842;  -10.870;  867.500
985.827;   79.936;   -9.790;  834.220
986.380;   78.327;  -13.120;  721.340
986.933;   78.153;  -12.450;  864.800
987.486;   77.056;  -10.210;  861.920
988.039;   77.110;   -8.430;  863.100
988.591;   76.496;  -10.520;  893.260
989.144;   75.077;  -14.860;  737.260
989.697;   72.314;  -13.080;  758.740
990.250;   72.820;  -10.150;  858.100
990.802;   71.199;  -13.430;  755.860
991.355;   70.719;  -12.750;  974.880
991.907;   67.424;  -12.040;  864.320
992.460;   64.128;  -11.330;  753.760
993.012;   63.019;  -13.610;  749.540
993.565;   60.885;  -13.460;  711.360
994.117;   61.426;   -9.360;  950.780
994.669;   59.505;  -11.300;  701.320
995.221;   58.717;  -13.540;  791.920
995.774;   58.502;  -13.430;  787.580
996.326;   57.434;  -12.520;  740.220
996.878;   58.488;  -10.950;  838.420
997.430;   56.265;  -14.300;  699.860
997.982;   55.525;  -13.760;  750.140
998.534;   54.822;  -11.530;  739.060
999.086;   53.025;  -10.310;  738.220
999.638;   53.100;  -12.530;  661.380
1000.190;   51.711;  -11.840;  699.320
1000.741;   50.605;  -10.260;  742.700
1001.293;   50.191;   -8.860;  686.020
1001.845;   49.570;  -13.700;  676.640
1002.396;   49.944;  -12.100;  743.400
1002.948;   48.526;  -12.760;  737.400
1003.500;   47.953;  -10.380;  723.780
1004.051;   49.302;  -11.900;  907.580
1004.603;   47.285;  -12.250;  791.820
1005.154;   43.078;  -13.210;  608.980
1005.705;   42.377;  -10.950;  723.960
1006.257;   42.864;  -13.880;  707.220
1006.808;   41.816;  -12.840;  685.460
1007.359;   41.196;  -10.570;  763.240
1007.910;   39.994;   -9.620;  646.640
1008.461;   39.965;  -13.630;  732.940
1009.013;   38.581;  -17.200;  588.340
1009.564;   39.131;  -10.200;  793.520
1010.115;   37.731;  -12.570;  597.040
1010.665;   38.200;  -15.150;  602.160
1011.216;   38.078;  -14.480;  667.920
1011.767;   37.043;  -11.340;  697.920
1012.318;   37.459;   -9.780;  736.980
1012.869;   36.804;  -12.380;  679.000
1013.419;   36.027;  -15.560;  603.120
1013.970;   35.551;  -11.010;  666.640
1014.521;   34.753;  -11.610;  620.620
1015.071;   35.673;  -13.450;  670.380
1015.622;   35.541;  -13.870;  635.460
1016.172;   34.160;  -11.610;  596.820
1016.723;   34.937;  -12.120;  614.380
1017.273;   34.683;  -13.620;  604.160
1017.823;   34.147;  -14.140;  650.340
1018.374;   33.007;  -12.800;  611.760
1018.924;   33.310;  -12.340;  716.880
1019.474;   34.927;  -11.410;  718.880
1020.024;   32.914;  -14.770;  657.580
1020.574;   33.295;   -9.780;  726.160
1021.124;   33.221;   -8.560;  673.580
1021.674;   32.173;  -15.190;  559.120
1022.224;   33.388;  -13.530;  708.940
1022.774;   32.229;  -13.280;  668.820
1023.324;   32.461;  -10.690;  753.520
1023.874;   33.598;  -10.240;  875.760
1024.423;   31.541;  -12.540;  613.700
1024.973;   30.276;  -10.010;  610.760
1025.523;   29.850;  -10.550;  620.960
1026.072;   29.684;  -13.560;  606.420
1026.622;   30.085;  -15.120;  675.740
1027.172;   30.484;  -11.260;  715.660
1027.721;   29.420;  -11.410;  601.220
1028.270;   29.581;  -13.530;  663.400
1028.820;   29.650;  -13.680;  638.080
1029.369;   29.044;  -13.520;  612.700
1029.918;   28.629;  -10.980;  649.840
1030.468;   29.326;  -13.530;  564.780
1031.017;   29.903;  -13.170;  634.800
1031.566;   28.700;  -12.200;  608.900
1032.115;   29.021;   -9.960;  694.500
1032.664;   27.621;  -13.210;  596.480
1033.213;   27.914;  -12.500;  735.420
1033.762;   27.005;  -11.910;  635.620
1034.311;   26.705;   -9.640;  677.220
1034.860;   27.978;  -13.310;  691.000
1035.408;   28.038;  -11.830;  722.720
1035.957;   27.764;  -12.000;  719.540
1036.506;   25.230;  -11.690;  530.800
1037.055;   28.873;  -10.990;  844.320
1037.603;   26.374;  -15.120;  664.000
1038.152;   24.763;  -12.450;  534.760
1038.700;   25.173;  -10.560;  585.740
1039.249;   25.714;  -11.080;  681.220
1039.797;   26.204;  -12.540;  633.360
1040.345;   25.466;  -11.920;  705.420
1040.894;   25.612;  -11.410;  625.300
1041.442;   24.640;  -14.320;  632.200
1041.990;   24.070;  -16.240;  559.160
1042.538;   23.934;  -11.680;  536.180
1043.087;   24.011;  -10.760;  570.860
1043.635;   25.527;  -11.850;  670.500
1044.183;   24.233;  -15.480;  586.400
1044.731;   23.046;  -11.770;  576.000
1045.279;   23.226;  -13.090;  674.920
1045.827;   25.500;  -12.440;  892.400
1046.374;   22.670;  -13.840;  515.420
1046.922;   22.022;  -13.220;  590.580
1047.470;   23.841;  -10.230;  691.300
1048.018;   23.945;  -14.590;  647.960
1048.565;   24.710;  -12.050;  708.600
1049.113;   21.623;  -11.650;  557.000
1049.660;   21.844;  -10.510;  629.660
1050.208;   22.637;  -13.310;  675.640
1050.755;   21.930;  -15.900;  606.580
1051.303;   21.888;  -11.430;  686.820
1051.850;   22.195;   -8.480;  635.120
1052.397;   20.245;  -15.010;  473.960
1052.945;   21.398;  -13.960;  617.760
1053.492;   21.606;  -13.150;  741.840
1054.039;   22.280;   -9.630;  720.180
1054.586;   21.544;  -13.680;  557.240
1055.133;   22.157;  -14.570;  693.140
1055.680;   21.531;  -13.820;  646.620
1056.227;   20.161;  -11.730;  542.780
1056.774;   22.585;  -12.480;  794.980
1057.321;   20.177;  -13.930;  523.260
1057.868;   19.867;  -11.690;  651.320
1058.415;   20.274;   -9.520;  651.980
1058.961;   20.854;  -13.160;  678.940
1059.508;   19.989;  -12.920;  643.820
1060.055;   19.589;  -11.920;  581.780
1060.601;   21.302;  -11.500;  624.300
1061.148;   20.286;  -14.330;  616.820
1061.694;   19.211;  -16.870;  592.580
1062.241;   18.635;  -10.330;  596.320
1062.787;   19.697;  -10.620;  663.140
1063.334;   21.378;  -10.110;  808.560
1063.880;   19.214;  -13.400;  668.360
1064.426;   18.835;  -10.680;  706.820
1064.972;   17.884;   -9.920;  601.340
1065.518;   17.539;  -10.980;  566.640
1066.065;   18.893;  -14.890;  624.460
1066.611;   17.082;  -12.870;  598.800
1067.157;   17.827;  -12.950;  641.860
1067.703;   18.653;  -13.540;  668.480
1068.249;   18.309;  -13.540;  605.220
1068.794;   17.774;  -12.600;  626.880
1069.340;   16.290;  -10.620;  578.960
1069.886;   17.938;  -12.830;  590.700
1070.432;   16.927;  -14.870;  541.720
1070.977;   15.649;  -11.980;  601.080
1071.523;   16.702;   -8.200;  573.060
1072.068;   17.127;  -12.330;  582.000
1072.614;   16.258;  -16.370;  527.760
1073.160;   16.873;  -11.100;  687.040
1073.705;   16.074;  -10.480;  572.520
1074.250;   16.825;  -14.520;  559.900
1074.796;   17.737;  -11.460;  655.160
1075.341;   16.553;  -11.950;  664.100
1075.886;   15.999;  -11.460;  594.240
1076.431;   16.332;  -13.770;  649.880
1076.976;   16.430;  -12.680;  639.220
1077.521;   14.577;  -13.170;  583.080
1078.067;   14.770;  -10.860;  579.400
1078.612;   15.714;  -13.920;  661.620
1079.156;   15.472;  -13.880;  601.540
1079.701;   15.386;  -13.120;  693.260
1080.246;   15.423;   -9.940;  696.300
1080.791;   16.167;  -14.740;  625.020
1081.336;   15.943;  -13.750;  659.320
1081.880;   14.595;  -13.400;  649.680
1082.425;   13.581;  -12.220;  573.480
1082.970;   17.187;  -11.610;  717.040
1083.514;   14.912;  -13.580;  597.000
1084.059;   12.888;  -12.810;  586.720
1084.603;   12.821;  -12.320;  565.840
1085.147;   14.551;  -13.190;  645.220
1085.692;   15.113;  -12.480;  716.800
1086.236;   12.637;  -13.020;  503.140
1086.780;   14.946;   -9.190;  751.440
1087.325;   14.465;  -12.480;  654.620
1087.869;   14.274;  -12.450;  610.700
1088.413;   13.577;  -12.240;  705.040
1088.957;   12.307;   -9.020;  543.400
1089.501;   14.888;  -10.320;  766.640
1090.045;   13.786;  -12.720;  726.480
1090.589;   10.856;  -13.690;  569.920
1091.133;   13.091;  -10.020;  673.340
1091.676;   13.778;  -12.330;  591.940
1092.220;   12.237;  -14.970;  600.920
1092.764;   12.559;  -12.430;  706.960
1093.307;   13.075;   -9.800;  673.780
1093.851;   12.292;  -14.970;  556.540
1094.395;   12.874;  -15.310;  683.140
1094.938;   11.460;  -10.370;  632.520
1095.482;   11.335;  -11.050;  559.800
1096.025;   12.509;  -11.840;  710.880
1096.568;   13.204;  -12.840;  779.280
1097.112;    9.337;  -14.700;  508.180
1097.655;   11.773;   -8.720;  603.000
1098.198;   11.310;  -13.610;  600.180
1098.741;   10.631;  -13.350;  612.860
1099.285;   11.052;  -11.230;  657.300
1099.828;    9.503;  -11.840;  439.400
1100.371;   10.955;  -10.840;  608.160
1100.914;   11.880;  -14.190;  682.660
1101.457;   10.670;  -11.240;  679.900
1101.999;    9.063;  -11.270;  584.680
1102.542;   11.531;  -11.480;  641.440
1103.085;    9.857;  -11.750;  658.500
1103.628;   11.090;  -11.400;  762.060
1104.170;    9.417;  -10.490;  588.280
1104.713;   10.548;  -10.600;  646.700
1105.256;    9.427;  -14.360;  557.440
1105.798;    8.331;  -13.210;  499.980
1106.341;   10.421;  -10.270;  728.900
1106.883;    9.901;  -12.200;  521.340
1107.425;    9.759;  -13.110;  668.180
1107.968;    8.759;  -12.840;  612.380
1108.510;    9.840;   -6.480;  684.960
1109.052;    8.384;  -13.940;  612.620
1109.594;    8.616;  -13.690;  554.440
1110.136;    9.136;  -11.880;  643.220
1110.679;    7.506;   -9.500;  633.080
1111.221;    9.121;  -14.160;  604.460
1111.763;    7.963;  -13.980;  559.220
1112.304;    7.800;  -13.880;  547.140
1112.846;    8.586;  -12.210;  666.240
1113.388;   11.623;  -11.390;  942.180
1113.930;    8.894;  -14.540;  694.200
1114.472;    7.549;  -12.640;  606.540
1115.013;    6.223;  -11.620;  551.280
1115.555;    7.327;  -13.640;  587.100
1116.097;    6.460;  -15.380;  579.480
1116.638;    7.225;  -12.640;  684.600
1117.180;    7.421;   -9.850;  667.740
1117.721;    7.408;  -13.690;  568.580
1118.262;    8.499;  -12.680;  677.960
1118.804;    7.810;  -12.530;  637.340
1119.345;    6.726;  -11.690;  578.400
1119.886;    8.224;  -13.380;  704.040
1120.427;    6.871;  -14.070;  589.020
1120.969;    5.731;  -13.500;  597.920
1121.510;    5.011;  -11.480;  563.060
1122.051;    6.742;  -12.830;  723.580
1122.592;    5.838;  -14.290;  655.420
1123.133;    4.761;  -12.400;  547.940
1123.673;    6.713;  -10.130;  706.480
1124.214;    6.814;  -12.930;  612.460
1124.755;    7.343;  -14.380;  639.460
1125.296;    6.284;  -14.000;  627.320
1125.836;    6.552;  -10.070;  691.500
1126.377;    6.219;  -12.640;  599.660
1126.918;    6.358;  -12.960;  614.980
1127.458;    5.173;  -13.350;  622.220
1127.999;    5.229;  -10.750;  656.980
1128.539;    6.410;  -12.350;  694.240
1129.079;    5.364;  -14.860;  632.720
1129.620;    4.292;  -13.840;  558.100
1130.160;    4.642;  -12.330;  539.480
1130.700;    5.891;  -14.530;  640.840
1131.240;    5.820;  -12.530;  643.700
1131.781;    5.019;  -14.450;  619.680
1132.321;    4.991;   -9.790;  599.120
1132.861;    4.475;  -14.860;  564.200
1133.401;    3.819;  -14.290;  593.940
1133.941;    4.283;  -11.750;  626.280
1134.481;    4.067;   -9.920;  597.580
1135.020;    4.558;  -12.290;  609.160
1135.560;    4.607;  -11.650;  674.940
1136.100;    2.360;  -16.270;  501.160
1136.640;    3.202;  -10.890;  510.480
1137.179;    4.137;  -14.180;  537.960
1137.719;    4.386;  -16.250;  605.400
1138.258;    3.204;  -14.230;  587.360
1138.798;    3.646;   -9.090;  663.780
1139.337;    2.761;  -15.130;  482.840
1139.877;    4.648;  -13.680;  642.360
1140.416;    5.122;  -11.320;  878.060
1140.955;    2.723;  -10.860;  535.380
1141.494;    3.661;  -12.920;  669.280
1142.034;    2.314;  -13.930;  583.520
1142.573;    3.545;  -11.440;  646.280
1143.112;    2.790;  -12.000;  553.480
1143.651;    3.311;  -13.670;  536.480
1144.190;    4.370;  -12.730;  691.640
1144.729;    2.305;  -14.560;  607.420
1145.267;    2.506;  -11.830;  584.900
1145.806;    3.750;  -12.230;  637.040
1146.345;    2.954;  -14.130;  635.020
1146.884;    2.099;  -11.590;  622.500
1147.422;    1.416;  -12.550;  533.060
1147.961;    4.401;  -11.180;  708.460
1148.500;    3.034;  -11.510;  669.720
1149.038;    2.412;  -11.640;  632.500
1149.577;    1.966;  -10.130;  698.640
1150.115;    1.402;  -13.970;  452.280
1150.653;    2.311;  -14.520;  607.340
1151.192;    1.517;  -12.810;  552.920
1151.730;    1.740;   -9.100;  652.560
1152.268;    1.448;  -12.220;  589.520
1152.806;    1.920;  -14.140;  571.180
1153.344;    0.073;  -12.350;  577.640
1153.882;    1.166;   -8.980;  600.060
1154.421;    0.114;  -15.190;  470.620
1154.958;    1.295;  -15.210;  595.240
1155.496;    1.199;  -12.850;  645.280
1156.034;    1.627;   -9.940;  721.880
1156.572;    3.293;  -13.570;  667.060
1157.110;    0.507;  -14.590;  473.940
1157.647;    1.116;  -13.030;  676.960
1158.185;    0.909;  -12.140;  564.320
1158.723;    0.075;  -14.390;  509.200
1159.260;    0.958;  -14.090;  701.700
1159.798;    0.099;  -11.920;  658.160
1160.335;   -0.693;  -11.110;  631.820

