
Integration time [ms]:   3.276
Averaging Nr. [scans]: 1000
Smoothing Nr. [pixels]: 0
Data measured with spectrometer [name]: 7414430SP
Wave   ;Sample   ;Dark     ;Reference
[nm]   ;[counts] ;[counts] ;[counts] 

288.544;  152.294;    7.793;  793.890
289.143;  155.367;    7.462;  681.602
289.742;  155.106;    8.602;  828.814
290.341;  141.743;    1.321;  789.841
290.940;  131.041;   -0.709;  730.702
291.538;  131.363;    0.881;  881.108
292.137;  132.025;    0.122;  792.581
292.736;  136.180;   -1.929;  975.101
293.335;  132.648;   -8.229;  735.086
293.934;  131.714;   -5.279;  781.677
294.532;  130.083;   -1.369; 1031.958
295.131;  116.739;   -7.641;  834.394
295.730;  117.566;   -8.420;  809.588
296.328;  116.603;   -5.611;  783.442
296.927;  116.595;   -5.781;  779.652
297.525;  118.703;   -6.361;  781.236
298.124;  108.463;  -11.382;  654.009
298.722;  112.079;   -7.641;  761.933
299.321;  109.413;   -6.811;  708.597
299.919;  108.667;   -6.991;  751.918
300.518;  105.143;  -10.362;  689.338
301.116;  105.806;   -9.581;  691.381
301.715;  105.104;   -4.891;  730.222
302.313;  104.857;   -8.801;  704.943
302.911;  100.450;   -8.522;  733.830
303.509;  106.765;   -6.171;  925.627
304.108;  103.148;   -7.311;  760.383
304.706;  103.422;   -8.321;  801.664
305.304;   97.994;  -10.222;  796.707
305.902;  103.036;   -6.021;  784.484
306.500;   98.094;   -4.971;  728.200
307.098;   96.771;   -7.061;  746.560
307.696;   95.033;   -8.801;  780.432
308.294;   95.954;   -6.411;  731.359
308.892;   97.784;   -2.901;  759.769
309.490;   93.571;   -5.041;  712.161
310.088;   91.560;   -5.002;  788.444
310.686;   95.290;   -2.041;  821.749
311.284;   91.951;   -2.351;  766.040
311.882;   90.000;   -4.422;  731.225
312.480;   86.658;   -4.192;  697.167
313.078;   88.142;   -1.172;  808.331
313.675;   87.944;   -2.601;  691.600
314.273;   84.003;   -1.312;  797.837
314.871;   83.740;   -3.942;  589.829
315.468;   80.961;   -2.802;  652.090
316.066;   84.824;   -0.701;  694.427
316.664;   77.531;   -4.362;  656.351
317.261;   81.631;   -2.872;  910.128
317.859;   75.427;   -2.022;  768.735
318.456;   76.267;   -0.531;  830.096
319.054;   73.108;   -3.912;  787.828
319.651;   72.419;   -4.752;  759.928
320.249;   70.500;   -2.602;  810.188
320.846;   67.521;   -0.821;  714.286
321.443;   66.621;   -4.642;  832.135
322.041;   63.596;   -5.002;  812.315
322.638;   61.405;   -3.982;  701.456
323.235;   62.279;   -3.411;  665.683
323.833;   59.907;   -7.361;  740.354
324.430;   54.405;   -8.611;  615.900
325.027;   55.638;   -4.061;  876.855
325.624;   54.874;   -4.031;  644.532
326.221;   52.360;   -7.481;  689.717
326.818;   52.304;   -5.281;  818.332
327.415;   55.368;   -7.460;  748.828
328.012;   54.750;   -5.510;  690.585
328.609;   54.292;   -7.880;  731.389
329.206;   51.429;   -8.331;  778.621
329.803;   51.678;   -5.121;  737.841
330.400;   54.323;   -4.510;  704.260
330.997;   56.391;   -6.441;  817.147
331.594;   55.128;   -8.831;  788.185
332.191;   60.263;   -7.621;  728.722
332.787;   62.091;   -4.591;  844.463
333.384;   61.013;   -7.412;  763.093
333.981;   59.198;   -8.293;  815.687
334.578;   62.565;   -7.052;  708.378
335.174;   65.784;   -3.102;  731.469
335.771;   64.605;   -5.943;  836.456
336.367;   61.982;   -7.393;  710.631
336.964;   65.025;   -4.063;  793.266
337.561;   63.367;   -3.813;  731.112
338.157;   58.728;   -4.654;  911.916
338.754;   56.683;   -7.934;  796.589
339.350;   54.809;   -4.414;  722.493
339.946;   56.396;   -4.664;  773.135
340.543;   48.385;   -6.375;  846.136
341.139;   44.139;   -9.815;  720.836
341.735;   40.854;   -4.526;  772.593
342.332;   39.423;   -4.895;  691.472
342.928;   39.858;   -4.295;  795.394
343.524;   33.928;   -5.476;  761.684
344.120;   31.001;   -5.856;  738.562
344.716;   33.946;   -2.155;  723.717
345.313;   31.782;   -6.275;  795.342
345.909;   26.696;   -8.815;  627.336
346.505;   28.012;   -5.305;  740.247
347.101;   29.128;   -2.674;  827.864
347.697;   29.541;   -4.344;  785.398
348.293;   24.533;   -9.975;  627.244
348.889;   24.688;   -5.774;  745.914
349.485;   24.357;   -5.004;  688.205
350.081;   24.747;   -4.704;  772.592
350.676;   20.431;   -6.635;  691.606
351.272;   24.019;   -4.504;  809.530
351.868;   23.576;   -3.914;  780.497
352.464;   21.171;   -9.044;  723.932
353.059;   17.244;   -8.314;  646.017
353.655;   20.723;   -7.024;  777.063
354.251;   22.161;   -5.343;  759.845
354.846;   17.291;   -8.604;  740.646
355.442;   14.108;   -6.945;  753.071
356.038;   16.128;   -7.564;  751.708
356.633;   16.206;   -5.814;  728.594
357.229;   14.700;   -7.364;  724.757
357.824;   12.201;   -8.024;  703.600
358.420;   11.073;   -9.384;  679.726
359.015;   12.310;   -5.104;  695.357
359.610;   13.089;   -6.854;  763.920
360.206;    7.842;  -10.185;  603.240
360.801;   10.008;   -7.054;  646.503
361.396;   11.492;   -5.034;  725.975
361.992;    8.235;   -8.284;  668.220
362.587;    5.702;   -8.625;  670.160
363.182;    6.886;   -7.674;  689.631
363.777;    7.973;   -5.164;  738.242
364.372;    7.748;   -8.604;  737.314
364.967;    3.995;   -9.055;  680.744
365.563;    8.700;   -6.114;  815.567
366.158;    5.303;   -5.814;  685.161
366.753;    5.334;   -7.854;  649.263
367.348;    4.811;   -7.804;  746.056
367.942;    4.335;   -7.954;  697.298
368.537;    3.614;   -4.984;  754.245
369.132;    3.089;   -8.564;  703.428
369.727;   -0.242;   -8.855;  638.079
370.322;    0.707;   -6.245;  580.186
370.917;    0.254;   -6.425;  710.646
371.511;    3.688;   -6.294;  861.834
372.106;   -0.253;   -7.685;  776.964
372.701;   -3.104;   -7.335;  585.988
373.296;    1.699;   -4.564;  863.135
373.890;   -2.698;  -10.235;  647.840
374.485;   -4.507;   -7.885;  691.199
375.079;   -0.635;   -7.324;  738.685
375.674;    0.609;   -3.494;  812.970
376.268;   -3.477;   -8.525;  691.759
376.863;   -8.365;  -10.086;  580.327
377.457;   -3.594;   -7.025;  662.490
378.052;   -5.234;   -3.585;  764.884
378.646;   -6.296;   -7.595;  741.167
379.240;   -6.104;   -8.335;  721.176
379.835;   -5.822;   -5.785;  636.978
380.429;   -7.105;   -4.335;  562.557
381.023;   -7.071;   -6.805;  779.205
381.617;   -9.481;   -9.195;  680.106
382.212;   -6.780;   -6.905;  685.303
382.806;   -5.863;   -3.745;  760.690
383.400;   -9.580;   -7.745;  672.281
383.994;   -9.831;   -9.765;  664.870
384.588;   -7.055;   -6.564;  697.701
385.182;   -5.087;   -5.344;  726.624
385.776;   -6.784;   -8.514;  706.875
386.370;   -9.779;   -9.555;  681.968
386.964;   -8.860;   -8.715;  684.155
387.558;   -7.544;   -6.174;  598.360
388.152;  -10.328;   -8.725;  681.959
388.745;   -8.004;   -7.965;  814.707
389.339;   -6.609;   -5.924;  747.642
389.933;   -6.434;   -5.524;  695.370
390.527;   -7.164;   -7.114;  859.029
391.120;  -13.616;  -10.725;  595.318
391.714;  -10.499;   -8.035;  711.633
392.308;   -7.327;   -3.574;  780.253
392.901;  -10.410;   -7.245;  642.460
393.495;  -11.921;   -9.285;  595.414
394.089;  -10.440;   -5.895;  760.452
394.682;  -11.249;   -4.295;  697.188
395.275;  -11.545;   -9.875;  719.927
395.869;  -12.459;   -8.485;  667.314
396.462;  -10.909;   -7.455;  616.609
397.056;   -7.347;   -5.424;  776.621
397.649;  -11.754;   -6.605;  731.575
398.242;   -8.814;   -8.224;  712.645
398.836;   -9.045;   -7.474;  766.408
399.429;  -10.077;   -7.094;  631.041
400.022;  -12.682;   -9.475;  665.902
400.615;  -10.565;   -7.145;  805.609
401.208;   -9.358;   -7.174;  691.451
401.802;  -11.076;   -5.515;  699.329
402.395;  -11.568;   -9.875;  683.502
402.988;  -13.402;   -8.845;  696.627
403.581;   -9.303;   -8.874;  646.878
404.174;   -8.000;   -5.324;  686.568
404.767;  -10.730;   -9.575;  638.583
405.360;  -13.042;  -10.965;  621.445
405.953;   -7.264;   -8.764;  759.034
406.545;   -7.360;   -7.514;  725.342
407.138;  -10.472;  -10.025;  618.350
407.731;   -9.856;  -10.034;  613.303
408.324;   -5.928;   -9.374;  660.554
408.917;   -7.112;   -6.534;  681.864
409.509;   -8.534;   -8.004;  740.396
410.102;  -10.384;   -9.875;  643.948
410.695;   -5.189;   -8.604;  665.758
411.287;   -6.004;   -6.794;  599.821
411.880;   -6.203;   -9.334;  585.421
412.472;   -9.150;  -10.254;  613.092
413.065;   -6.240;   -6.714;  629.408
413.657;   -4.040;   -7.234;  576.678
414.250;   -4.547;  -10.544;  646.681
414.842;   -6.839;   -9.744;  676.353
415.434;   -3.851;   -6.994;  570.463
416.027;   -0.385;   -5.893;  652.196
416.619;   -1.864;   -7.264;  713.400
417.211;   -2.141;  -10.374;  599.352
417.804;    1.081;   -7.993;  628.499
418.396;   -2.988;   -7.234;  607.643
418.988;   -0.361;   -9.443;  659.238
419.580;   -3.289;  -10.724;  568.276
420.172;   -1.848;  -10.323;  536.196
420.764;    2.623;   -8.793;  672.482
421.356;    1.385;  -11.143;  636.898
421.948;    0.776;   -8.293;  677.661
422.540;    5.068;   -7.893;  680.027
423.132;    4.629;   -7.082;  600.641
423.724;    1.972;   -8.653;  561.267
424.316;    3.687;  -10.213;  621.345
424.908;    6.568;   -9.762;  591.517
425.500;    7.690;   -5.572;  647.978
426.092;    7.950;   -8.422;  648.268
426.683;    7.398;   -9.283;  684.836
427.275;   10.178;   -7.852;  641.471
427.867;   11.369;   -5.272;  668.948
428.458;   11.517;   -7.682;  732.344
429.050;   10.900;  -10.612;  680.749
429.642;   12.984;   -9.882;  743.124
430.233;   13.033;   -6.962;  569.356
430.825;   14.608;   -6.842;  724.809
431.416;   12.825;   -9.672;  698.241
432.008;   15.513;   -6.552;  651.723
432.599;   16.594;   -6.891;  656.073
433.190;   13.793;  -10.912;  637.670
433.782;   12.624;  -11.172;  590.395
434.373;   19.811;   -6.061;  884.765
434.964;   18.641;   -8.251;  602.920
435.556;   17.016;   -9.722;  634.537
436.147;   20.275;   -9.082;  758.490
436.738;   19.134;   -8.041;  701.099
437.329;   25.065;   -7.341;  721.723
437.920;   18.255;   -8.162;  666.688
438.511;   18.473;  -11.802;  564.526
439.103;   24.543;  -10.191;  623.998
439.694;   25.876;   -7.601;  681.583
440.285;   27.050;   -8.541;  764.432
440.876;   25.952;   -9.751;  845.738
441.466;   24.317;   -9.401;  575.162
442.057;   30.625;   -7.760;  665.814
442.648;   29.650;   -9.971;  746.255
443.239;   27.511;  -11.001;  620.477
443.830;   33.048;   -7.990;  704.958
444.421;   33.899;   -7.910;  655.474
445.011;   30.676;   -8.131;  693.619
445.602;   30.865;   -7.111;  743.126
446.193;   31.722;  -10.920;  488.117
446.783;   36.183;   -6.500;  640.397
447.374;   32.355;   -8.671;  692.759
447.964;   33.566;  -10.781;  713.770
448.555;   41.061;   -9.650;  822.742
449.145;   37.549;   -8.660;  662.853
449.736;   38.897;   -8.990;  803.179
450.326;   39.209;   -9.500;  713.626
450.917;   43.022;   -8.680;  675.324
451.507;   43.127;   -7.520;  600.661
452.097;   43.655;   -8.590;  746.267
452.688;   45.113;  -11.340;  742.160
453.278;   44.305;  -10.100;  566.840
453.868;   48.914;   -6.019;  793.550
454.458;   46.663;   -9.440;  651.141
455.048;   47.503;  -10.560;  711.783
455.639;   48.658;  -11.799;  567.096
456.229;   51.796;   -6.899;  710.694
456.819;   53.822;   -7.389;  751.158
457.409;   54.937;  -11.119;  773.993
457.999;   56.673;   -9.289;  737.505
458.589;   56.853;   -6.139;  686.606
459.179;   57.587;   -8.729;  717.658
459.769;   55.103;   -9.789;  627.099
460.358;   60.931;  -10.259;  797.262
460.948;   59.600;   -7.299;  689.503
461.538;   61.428;  -10.289;  660.677
462.128;   59.686;  -11.269;  664.934
462.717;   66.624;   -9.368;  710.326
463.307;   69.666;   -7.908;  705.846
463.897;   65.516;   -9.599;  656.942
464.486;   64.448;   -9.769;  837.128
465.076;   69.664;   -8.048;  733.776
465.666;   73.133;   -9.358;  652.900
466.255;   71.186;   -7.919;  785.651
466.845;   70.156;  -11.689;  666.749
467.434;   73.504;   -7.818;  725.873
468.023;   74.053;   -7.678;  658.357
468.613;   72.247;  -10.939;  713.946
469.202;   76.488;  -10.118;  646.507
469.791;   80.184;   -9.108;  737.811
470.381;   82.347;   -6.058;  742.813
470.970;   82.124;  -10.428;  711.099
471.559;   82.468;  -10.268;  733.291
472.148;   85.006;   -8.448;  675.737
472.738;   88.232;   -6.917;  765.466
473.327;   88.159;  -11.978;  637.529
473.916;   87.959;  -11.888;  737.446
474.505;   91.581;   -9.437;  751.703
475.094;   94.197;   -6.747;  806.570
475.683;   94.024;   -9.367;  797.699
476.272;   95.534;  -12.637;  730.632
476.861;   97.724;  -10.027;  706.754
477.449;  103.664;   -8.716;  728.487
478.038;   99.481;   -9.577;  692.513
478.627;  100.336;   -9.718;  714.852
479.216;  106.990;   -8.947;  769.441
479.805;  109.646;   -6.256;  783.375
480.393;  110.223;   -7.937; 1008.945
480.982;  109.268;   -7.717;  874.501
481.571;  115.564;   -9.266;  858.333
482.159;  115.736;   -7.636;  705.386
482.748;  115.813;   -9.667;  821.385
483.336;  120.199;  -10.376;  858.209
483.925;  121.150;   -7.147;  774.373
484.513;  128.135;   -7.996;  758.962
485.102;  125.556;  -10.027;  810.965
485.690;  133.849;  -10.446; 1011.050
486.278;  135.744;   -8.446;  979.329
486.867;  137.046;   -6.356;  809.662
487.455;  139.198;   -9.136;  898.229
488.043;  140.129;  -10.646;  748.361
488.631;  149.423;   -7.456; 1005.079
489.220;  153.573;   -6.636;  908.626
489.808;  153.489;  -11.036;  741.415
490.396;  162.481;  -10.246;  914.645
490.984;  168.193;   -8.556;  830.161
491.572;  179.121;   -5.886;  940.315
492.160;  185.590;   -9.486;  919.081
492.748;  198.477;  -10.976;  884.341
493.336;  221.227;   -8.776; 1019.693
493.924;  250.767;   -5.465;  958.077
494.512;  281.658;   -9.986; 1066.638
495.100;  322.996;  -10.636; 1103.280
495.687;  380.166;  -10.885; 1206.373
496.275;  449.821;   -8.126; 1150.796
496.863;  523.089;  -10.586; 1281.171
497.451;  628.799;  -11.926; 1386.805
498.038;  774.569;  -10.885; 1556.729
498.626;  889.918;   -6.315; 1741.407
499.214; 1056.169;   -7.326; 2016.609
499.801; 1273.368;  -11.906; 2220.633
500.389; 1524.846;  -10.466; 2312.494
500.976; 1851.014;   -5.236; 2744.849
501.564; 2324.520;   -8.936; 3148.565
502.151; 2720.986;  -13.176; 3515.999
502.738; 3173.704;  -10.646; 3971.274
503.326; 3601.202;   -9.525; 4403.796
503.913; 4049.631;  -10.856; 5161.749
504.500; 4474.090;  -11.586; 5986.420
505.088; 4876.975;  -10.336; 6381.201
505.675; 5476.367;   -6.355; 6925.547
506.262; 6213.561;   -9.046; 7619.060
506.849; 6987.246;  -10.416; 8733.969
507.436; 7577.533;  -10.305; 9790.121
508.023; 8216.896;   -5.496; 9985.472
508.610; 8468.159;   -7.856;10434.618
509.197; 9115.462;  -10.097;11198.435
509.784;10571.633;  -10.886;12391.194
510.371;11845.750;   -9.315;13603.713
510.958;12624.266;   -9.936;14426.586
511.545;13336.576;   -9.326;15243.775
512.132;14281.362;  -10.075;15945.876
512.719;14879.944;   -7.796;16340.369
513.305;16156.182;  -10.606;18011.766
513.892;16997.701;  -11.486;19754.971
514.479;18224.023;   -9.126;20967.805
515.066;19688.609;   -6.026;22299.793
515.652;21375.438;   -8.466;22908.660
516.239;22836.654;  -10.886;23798.875
516.825;23812.949;  -11.496;25567.275
517.412;24965.010;   -5.796;28154.959
517.998;25841.900;  -10.506;28344.111
518.585;25725.803;  -10.076;27134.219
519.171;26262.701;   -8.315;27268.576
519.758;28361.482;   -8.596;28964.129
520.344;30568.139;   -8.466;30664.494
520.930;30120.189;  -11.006;32550.605
521.516;31247.863;  -10.495;35422.895
522.103;33245.535;   -5.526;38280.004
522.689;33999.063;   -8.746;37835.117
523.275;33435.508;  -11.376;37288.613
523.861;34913.551;  -11.156;37281.395
524.447;36874.832;   -8.135;37846.949
525.033;36721.973;   -7.896;38321.949
525.619;36885.406;  -12.476;38579.285
526.205;38259.871;   -9.516;40622.875
526.791;41520.266;   -6.926;42258.836
527.377;41356.535;   -8.346;42966.902
527.963;42338.000;   -8.717;42018.949
528.549;41602.102;  -11.016;42476.828
529.135;40282.770;   -8.536;41854.852
529.721;39194.750;   -9.666;41237.711
530.306;38583.844;  -10.066;41259.445
530.892;38245.316;  -11.356;41506.047
531.478;39376.766;   -6.596;43559.613
532.063;43047.480;   -8.836;47695.563
532.649;44286.609;  -10.047;50808.324
533.235;44736.516;   -9.746;51787.500
533.820;44948.816;   -6.566;52145.035
534.406;46271.797;  -10.817;51133.488
534.991;46324.703;   -9.416;49996.805
535.576;44530.609;   -9.036;48882.852
536.162;45270.711;   -6.156;46942.285
536.747;46641.840;  -11.607;45711.746
537.333;49479.793;  -11.787;48510.180
537.918;52326.973;  -12.437;50439.891
538.503;51761.047;   -7.196;50863.711
539.088;48473.012;  -10.556;50906.922
539.673;48630.016;   -8.767;52621.965
540.259;49195.566;  -10.026;52368.094
540.844;46373.523;   -7.416;50879.109
541.429;48098.176;   -9.467;52077.777
542.014;50362.387;   -9.527;52716.695
542.599;49412.918;   -9.946;52363.281
543.184;46147.711;   -7.927;53187.137
543.769;47406.469;   -9.297;54697.605
544.354;47659.754;  -10.127;53913.914
544.938;46117.574;   -9.267;49680.164
545.523;47806.762;   -6.506;47386.277
546.108;50556.836;   -9.787;49151.949
546.693;52657.613;  -11.587;51384.637
547.278;53174.613;  -10.986;51853.254
547.862;50094.391;   -8.206;51173.750
548.447;45258.734;  -10.067;51691.395
549.031;44224.063;   -9.637;52456.703
549.616;49017.117;   -9.926;52714.516
550.201;48758.102;   -6.347;52414.598
550.785;50073.180;   -7.917;52355.059
551.370;49315.891;  -10.867;54589.453
551.954;48916.152;   -9.047;58267.348
552.538;49847.574;   -7.827;59062.176
553.123;48187.324;  -10.287;58115.285
553.707;45965.848;  -12.178;56556.285
554.291;47568.016;   -8.717;56201.668
554.876;50874.184;   -7.457;55335.762
555.460;51141.719;  -10.387;54155.703
556.044;51218.188;   -9.618;53721.484
556.628;48669.199;  -11.567;53731.016
557.212;47267.887;   -8.097;54312.531
557.796;46256.922;  -11.077;53797.773
558.380;46427.145;  -11.108;56145.984
558.964;46646.469;   -9.057;57277.930
559.548;47431.859;   -6.977;56459.641
560.132;45226.664;  -11.457;54434.543
560.716;43724.375;  -11.378;54800.617
561.300;45195.324;   -9.577;57606.945
561.884;46401.090;   -7.127;58972.445
562.467;44264.059;   -7.118;57327.570
563.051;43392.344;  -13.358;54962.434
563.635;45019.816;  -10.178;52594.473
564.219;45931.105;   -7.837;50610.410
564.802;46666.723;  -11.398;49551.180
565.386;46048.254;  -12.788;48370.953
565.969;45375.988;   -9.077;48178.871
566.553;44096.344;   -6.207;49957.305
567.136;45019.430;   -8.568;50369.594
567.720;41661.125;  -11.868;49492.004
568.303;39506.918;   -8.268;50616.352
568.887;39470.582;   -8.698;50727.148
569.470;40036.738;   -6.808;51698.379
570.053;39222.652;  -13.188;52122.078
570.637;36549.488;  -12.037;52536.438
571.220;36114.840;   -8.577;51186.098
571.803;37220.465;   -8.498;51032.762
572.386;39720.582;  -10.498;49609.887
572.969;42348.508;   -9.388;48285.926
573.552;40495.352;   -8.338;47624.285
574.135;38649.297;   -8.518;45498.641
574.718;36101.988;  -13.628;41970.434
575.301;35411.160;  -10.893;41447.137
575.884;34720.332;   -8.158;40923.836
576.467;35951.203;  -10.328;45267.723
577.050;37548.789;  -13.058;48175.543
577.633;38514.836;   -9.458;47729.328
578.216;37612.777;   -8.928;47579.793
578.799;36773.859;   -9.358;47820.996
579.381;35830.254;  -11.388;48115.551
579.964;33864.383;  -11.718;47333.766
580.547;36022.820;   -8.588;46668.969
581.129;36685.938;   -8.859;44466.141
581.712;37299.348;  -10.729;44164.922
582.294;37578.863;  -11.118;46477.855
582.877;37814.340;   -5.218;48244.254
583.459;36149.859;   -8.679;47437.895
584.042;33889.461;  -10.709;46943.219
584.624;33739.137;  -11.669;46792.227
585.206;33665.035;   -8.218;46557.250
585.789;34159.637;  -10.569;45793.773
586.371;36546.492;  -11.859;43836.391
586.953;37199.438;  -10.719;42972.492
587.536;38041.215;   -7.198;42487.211
588.118;38413.887;   -8.720;42086.414
588.700;34452.598;  -10.439;43389.930
589.282;33502.512;   -9.198;43646.039
589.864;34524.535;   -9.199;43438.109
590.446;35643.215;  -11.319;43151.926
591.028;35435.785;  -11.159;42781.867
591.610;34236.602;  -11.779;42839.098
592.192;31532.473;   -7.668;42820.402
592.774;30211.928;  -11.949;40724.277
593.356;29240.596;  -12.129;39874.789
593.937;28272.758;  -10.669;39980.648
594.519;30624.859;   -6.509;42069.633
595.101;32738.078;  -10.849;42976.031
595.683;32734.406;  -11.679;44084.441
596.264;33545.008;   -9.049;43478.797
596.846;33376.590;   -8.849;43803.672
597.427;33084.266;   -9.570;42986.934
598.009;34304.770;  -12.620;42832.219
598.591;34543.055;  -10.039;42580.086
599.172;34026.453;  -10.369;43061.805
599.753;34074.211;   -9.140;41691.469
600.335;35249.016;  -11.430;40692.520
600.916;33509.559;   -9.939;39982.422
601.498;31623.279;   -8.479;40318.617
602.079;30109.285;  -10.920;40670.609
602.660;29808.150;  -11.480;41450.898
603.241;31649.975;  -11.699;41137.738
603.823;30358.607;   -9.579;38868.797
604.404;29615.637;  -10.620;38182.785
604.985;31326.320;  -10.450;38078.047
605.566;31322.813;   -9.129;38056.633
606.147;31287.582;   -7.510;37020.418
606.728;32887.664;  -10.660;37883.359
607.309;31577.033;  -11.740;38748.273
607.890;31385.180;   -9.759;38850.230
608.471;30942.213;   -8.250;37457.918
609.051;30170.486;   -9.240;36066.457
609.632;28773.482;  -12.120;35991.074
610.213;28965.729;   -9.110;37402.641
610.794;29873.943;   -8.030;38383.363
611.374;29971.949;   -8.110;40562.387
611.955;30814.457;  -13.560;38533.727
612.536;32078.033;  -11.400;36951.789
613.116;31640.783;   -8.070;37197.891
613.697;31866.824;  -10.830;38411.125
614.277;30029.934;  -11.641;38673.938
614.858;30904.553;  -13.310;37075.863
615.438;30634.410;   -7.460;35092.906
616.019;28374.797;   -7.601;33666.301
616.599;28506.855;  -12.020;34189.023
617.179;30142.314;  -11.780;36952.047
617.760;31269.473;   -8.570;39582.574
618.340;31956.822;  -11.471;38943.977
618.920;32808.277;  -11.170;37594.156
619.500;32956.156;  -11.071;37866.938
620.080;32103.334;   -7.750;37869.043
620.660;33101.281;  -12.711;36868.617
621.241;34987.961;  -10.211;36352.309
621.821;35462.855;  -10.961;35459.520
622.401;34145.402;   -7.720;35207.414
622.980;32968.621;   -8.981;35980.422
623.560;31506.848;   -9.331;37351.328
624.140;30190.947;   -9.850;34388.582
624.720;25289.594;   -7.451;32368.764
625.300;21812.020;   -9.070;32638.629
625.880;25299.732;  -12.601;34599.035
626.459;29678.852;  -11.751;36831.738
627.039;32636.623;   -9.281;38299.098
627.619;32457.027;   -8.801;38289.574
628.198;30843.244;  -12.071;37220.695
628.778;29674.863;   -9.461;37632.563
629.357;30173.725;   -8.491;38003.012
629.937;30461.201;   -9.721;38402.039
630.516;29979.303;   -9.951;37868.801
631.096;29663.475;  -11.731;35760.410
631.675;32026.930;   -8.572;35225.219
632.254;37365.586;  -11.282;35130.289
632.834;37024.242;  -13.322;35794.570
633.413;35325.434;  -10.301;35788.922
633.992;32567.520;   -8.582;34532.863
634.571;32882.703;   -8.352;33590.113
635.151;35331.164;  -11.912;34943.863
635.730;34052.492;  -10.511;35352.523
636.309;31040.139;   -7.731;35366.605
636.888;28561.520;   -9.952;36165.637
637.467;29040.014;  -11.672;37515.902
638.046;30365.615;   -8.901;39288.695
638.625;33222.879;   -7.912;38279.699
639.204;33170.840;  -10.022;37741.598
639.782;32153.025;  -12.252;38364.551
640.361;28148.805;  -10.041;36740.621
640.940;25364.254;  -11.161;34950.082
641.519;26038.953;   -9.701;34137.398
642.097;29067.324;  -11.271;35654.258
642.676;31885.689;   -8.651;35637.957
643.255;33104.246;   -8.711;36567.074
643.833;32473.523;   -9.581;37809.434
644.412;32634.314;  -13.711;37337.293
644.990;31657.230;  -11.811;37018.531
645.569;31596.430;   -9.411;36518.469
646.147;31220.063;  -10.291;36186.430
646.726;31118.250;  -12.401;36267.688
647.304;31847.273;  -10.411;36647.625
647.882;33236.641;   -9.651;39286.742
648.461;35098.297;   -9.631;39157.703
649.039;33522.926;  -11.881;35412.883
649.617;32313.209;   -9.661;34744.918
650.195;31300.418;   -9.301;35403.098
650.773;29914.861;  -10.511;35053.797
651.352;27862.488;  -11.521;33756.816
651.930;25639.551;  -12.211;31868.773
652.508;23937.195;   -9.171;33121.551
653.086;27842.471;   -9.371;33564.793
653.663;30972.553;  -13.161;34054.668
654.241;29589.510;  -13.031;35693.309
654.819;30839.803;   -9.371;36422.906
655.397;30640.639;  -10.511;38213.484
655.975;30202.793;  -10.371;39507.625
656.553;29781.523;  -10.051;39498.223
657.130;28371.041;  -10.061;40395.480
657.708;27690.139;   -9.561;39242.020
658.286;27802.705;  -11.511;38920.020
658.863;28851.473;  -10.261;40202.898
659.441;32246.887;   -7.531;39677.938
660.018;32397.262;   -9.501;40413.355
660.596;30959.957;  -13.301;39931.414
661.173;32455.941;  -11.211;39604.531
661.750;32951.305;   -9.951;39700.070
662.328;32021.438;   -9.390;39292.809
662.905;31045.973;  -11.330;38235.648
663.482;26654.242;   -9.050;36212.305
664.060;24777.725;   -8.240;35944.945
664.637;27740.432;  -10.050;35170.785
665.214;29099.641;  -11.760;34197.523
665.791;30603.613;  -10.530;34549.520
666.368;29766.641;   -9.690;35118.578
666.945;30275.805;   -9.320;36019.418
667.522;31851.521;  -11.860;36048.438
668.099;31621.211;  -10.770;36243.914
668.676;30220.682;   -6.260;35958.875
669.253;28861.309;   -7.000;37384.730
669.830;29005.203;  -10.190;36779.629
670.407;29005.383;   -9.550;35231.289
670.984;29183.055;   -9.260;35544.270
671.560;30094.516;   -9.280;35466.867
672.137;29186.283;  -11.810;34280.863
672.714;29993.791;  -11.490;34632.863
673.290;31283.482;   -7.740;35135.422
673.867;31345.715;  -10.660;36114.480
674.443;31027.287;  -12.230;36152.859
675.020;28981.105;  -10.450;35327.238
675.596;29899.740;   -9.260;35795.176
676.173;30721.293;  -10.780;35430.355
676.749;30483.357;  -13.690;33549.516
677.326;30138.203;  -11.980;32210.012
677.902;29965.895;   -8.630;32068.871
678.478;29366.250;  -10.730;32583.891
679.054;28450.004;  -10.520;32088.928
679.631;28832.453;  -11.920;30978.848
680.207;30123.348;   -7.490;33160.887
680.783;31521.508;   -9.860;35570.363
681.359;30679.180;  -13.380;36125.184
681.935;30519.613;  -12.480;35240.922
682.511;30474.154;   -7.900;34429.961
683.087;30876.145;   -7.710;34463.680
683.663;30086.590;  -11.480;34648.898
684.239;28629.246;  -14.090;34546.457
684.815;28017.709;   -7.560;35586.375
685.390;28080.881;   -9.910;35821.895
685.966;28556.113;  -11.159;35085.871
686.542;31051.621;  -11.169;34198.230
687.118;33371.512;   -5.959;32847.707
687.693;33747.699;  -10.329;32794.027
688.269;33338.477;  -12.059;33072.367
688.844;31599.564;  -10.909;33141.664
689.420;29749.705;   -8.019;33965.742
689.995;28053.473;   -8.399;34655.523
690.571;26682.400;  -10.949;33576.742
691.146;26641.391;   -9.619;32657.219
691.722;26442.445;   -8.999;32526.979
692.297;26060.271;  -11.589;33014.617
692.872;27328.549;  -11.739;34012.254
693.448;27147.826;  -11.059;34237.434
694.023;26172.078;  -10.139;34142.672
694.598;28134.395;   -9.029;34132.031
695.173;28929.109;  -13.319;34205.250
695.748;27975.105;  -10.169;32882.488
696.323;27667.527;   -8.339;32864.906
696.898;27765.660;   -8.169;33170.004
697.473;28023.367;  -12.309;32432.984
698.048;27362.055;  -10.989;31649.303
698.623;27071.227;   -9.329;30778.141
699.198;28435.102;   -9.849;31140.119
699.773;29836.514;  -12.329;31764.299
700.348;28748.139;  -10.389;31780.816
700.922;28678.846;   -9.269;32046.375
701.497;29616.404;   -9.329;32603.574
702.072;29775.447;  -10.789;34799.871
702.646;28451.713;  -10.839;35793.172
703.221;26456.266;   -9.099;35201.590
703.795;28131.805;  -10.939;34764.527
704.370;28495.602;  -12.859;34307.367
704.944;28739.111;  -11.559;33509.887
705.519;29385.719;   -7.939;31388.584
706.093;30593.303;  -10.499;31340.104
706.668;31022.400;  -11.289;32630.281
707.242;29915.629;  -11.509;32728.779
707.816;28700.947;   -9.639;32947.238
708.390;27183.555;  -11.429;33277.855
708.965;27742.406;  -11.869;33834.336
709.539;28053.533;  -11.689;33709.273
710.113;28045.061;  -10.478;33044.313
710.687;27346.939;  -10.228;31953.992
711.261;25706.029;  -13.698;30505.949
711.835;25574.176;  -13.378;30262.369
712.409;26019.916;   -9.698;31254.447
712.983;27958.850;  -11.898;32754.986
713.557;29204.777;  -15.138;34018.824
714.131;29085.156;  -14.098;34579.625
714.704;28110.289;   -9.958;33890.262
715.278;25617.152;  -10.028;33531.102
715.852;24560.154;  -11.148;33601.660
716.425;25729.563;   -9.068;33515.117
716.999;26912.410;  -10.038;33185.555
717.573;27748.615;   -9.798;33905.996
718.146;28701.693;  -12.378;35199.293
718.720;28640.869;  -11.918;35060.551
719.293;28577.125;   -8.088;34973.230
719.867;31620.486;  -10.888;36394.449
720.440;31388.291;  -11.938;36663.008
721.013;29489.682;  -12.818;35102.426
721.587;27812.873;  -10.298;33985.266
722.160;26599.660;  -10.048;33524.965
722.733;25651.461;  -12.108;32987.043
723.306;25992.375;  -10.818;33066.301
723.880;27911.764;   -8.908;33399.500
724.453;29937.752;   -9.878;33468.297
725.026;29237.945;  -11.188;33816.637
725.599;26600.219;  -11.678;32797.996
726.172;26698.174;   -9.618;33187.434
726.745;27874.336;   -8.258;35136.613
727.318;29195.563;  -12.978;35751.730
727.891;29731.744;  -12.148;35890.430
728.463;29189.451;   -8.968;34822.090
729.036;27878.215;  -10.188;32895.086
729.609;28322.303;  -11.788;31823.225
730.182;25607.646;  -11.788;31445.283
730.754;23290.482;  -10.268;32373.223
731.327;23725.367;   -9.998;33676.820
731.900;24247.906;  -12.228;33417.000
732.472;24900.363;  -13.848;31978.498
733.045;26258.447;   -8.698;30368.777
733.617;26250.662;  -10.607;30574.215
734.190;26560.229;  -11.507;31280.975
734.762;24274.846;  -13.647;31674.412
735.334;22438.109;   -9.767;31247.291
735.907;22822.553;   -9.897;29876.211
736.479;23106.232;  -11.637;29808.488
737.051;22724.680;   -9.567;30233.547
737.623;23205.770;   -8.187;31469.086
738.195;23617.516;  -11.187;31784.225
738.768;25836.264;  -12.337;32120.523
739.340;26683.080;  -12.227;32094.342
739.912;25714.861;  -11.057;31312.680
740.484;24296.654;  -10.207;31946.238
741.056;22684.578;  -10.047;32984.059
741.628;23684.162;  -13.627;33897.715
742.199;25823.891;   -7.177;33213.016
742.771;24784.629;  -10.797;31369.113
743.343;22840.383;  -11.997;31865.473
743.915;21861.973;  -12.867;32388.631
744.487;21732.365;   -7.617;31079.568
745.058;21661.010;   -9.557;30570.107
745.630;22243.342;   -9.877;29970.127
746.201;23553.391;  -14.177;29186.766
746.773;24306.162;   -9.237;28805.723
747.344;24126.543;   -9.847;29591.223
747.916;22261.936;  -11.657;31412.201
748.487;22275.764;  -10.587;32194.898
749.059;23666.820;   -8.707;32533.719
749.630;24511.064;  -10.537;32158.518
750.201;23678.861;  -11.687;30855.395
750.773;21952.377;  -11.647;28622.555
751.344;21623.076;   -7.147;28405.732
751.915;22401.240;   -9.757;28461.551
752.486;22424.182;  -12.427;27842.850
753.057;20556.877;  -12.227;27845.008
753.628;19379.637;  -10.417;27728.107
754.199;20217.805;  -11.767;27381.086
754.770;21304.473;  -11.187;25882.203
755.341;21626.143;  -10.507;25886.184
755.912;21740.711;   -9.387;26050.861
756.483;21225.152;  -10.647;26798.779
757.054;19374.086;  -11.837;27048.238
757.625;17885.691;  -12.716;26294.838
758.195;17803.563;   -9.666;26142.076
758.766;17612.381;   -8.656;26392.234
759.337;18147.184;  -12.856;26334.594
759.907;19533.125;  -13.366;27579.652
760.478;20431.668;   -8.576;28352.770
761.048;19898.180;  -10.526;27325.088
761.619;18833.486;  -11.116;26460.428
762.189;18924.082;  -12.136;26029.826
762.760;20095.396;   -9.456;26430.145
763.330;21217.695;   -7.136;26670.902
763.900;20786.277;  -11.786;26603.021
764.471;18375.508;  -11.546;25542.740
765.041;16901.348;   -8.096;24358.459
765.611;16652.947;   -8.876;23991.297
766.181;16931.813;  -12.196;24470.236
766.751;18112.760;  -11.636;24845.975
767.321;17966.164;  -10.156;24533.633
767.891;15867.381;  -11.766;24916.492
768.461;15223.288;  -14.936;24776.771
769.031;15748.979;  -12.356;24757.988
769.601;17397.857;   -7.526;24181.088
770.171;17474.764;  -10.766;23670.387
770.741;16578.059;  -13.176;22960.045
771.311;16632.631;  -10.616;22917.523
771.880;17239.404;   -9.576;23562.941
772.450;17214.699;  -10.336;24216.500
773.020;17206.951;  -13.516;24140.398
773.589;16395.518;  -13.466;24414.857
774.159;15705.094;   -8.686;23858.717
774.729;15310.106;   -9.476;22942.135
775.298;14938.927;  -13.666;22324.033
775.867;14503.727;  -11.716;21140.313
776.437;14700.454;   -9.906;20838.092
777.006;14482.001;  -12.166;20599.510
777.576;14088.274;  -12.356;20508.809
778.145;14086.556;  -11.646;20732.947
778.714;14229.356;   -8.226;21062.465
779.283;13765.783;   -9.556;20949.664
779.853;13186.740;  -14.116;20508.623
780.422;13522.661;  -11.506;20649.082
780.991;13146.668;   -9.556;21527.520
781.560;11869.728;   -9.095;22632.658
782.129;11583.204;  -12.135;23048.277
782.698;11565.414;  -10.865;23438.555
783.267;11214.622;   -9.335;23267.734
783.836;11152.857;  -11.045;22415.133
784.404;12151.494;  -13.865;20443.152
784.973;12843.636;  -13.095;19699.150
785.542;12948.171;  -11.575;19763.828
786.111;12771.006;   -9.705;20341.408
786.679;12274.112;  -12.105;20207.967
787.248;12018.982;  -12.455;19516.465
787.817;11845.528;  -11.535;18900.363
788.385;11458.236;   -9.765;17879.121
788.954;10869.620;  -14.005;17658.301
789.522;10230.660;  -11.955;17788.879
790.090;10574.656;  -10.135;18118.277
790.659;11188.452;  -10.975;18338.736
791.227;10853.366;  -13.375;18508.615
791.795;11200.729;  -12.375;17898.254
792.364;11461.858;  -10.725;17295.133
792.932;11763.979;   -9.715;16822.051
793.500;12103.312;  -12.675;17040.148
794.068;12385.376;  -13.495;17179.787
794.636;12545.115;  -10.885;16664.246
795.204;11898.932;  -11.045;16524.545
795.772;11851.181;  -13.175;17274.564
796.340;11343.702;  -12.445;17891.002
796.908;11068.063;   -9.735;17648.561
797.476;10948.018;   -9.815;17064.080
798.044;10599.151;  -13.985;16672.777
798.612; 9928.491;  -13.115;17023.996
799.180; 9542.840;  -10.185;16561.615
799.747; 9358.273;   -9.055;15962.773
800.315; 9065.456;  -12.385;15296.992
800.883; 8884.033;  -15.035;14801.771
801.450; 9072.025;  -10.365;14534.430
802.018; 9162.685;   -9.855;14173.248
802.585; 9165.771;  -11.905;14029.547
803.153; 9194.476;  -11.585;13836.846
803.720; 8999.773;   -9.095;13567.324
804.287; 8457.887;   -9.135;13360.622
804.855; 7942.450;  -11.604;13681.981
805.422; 7811.717;  -11.794;13536.560
805.989; 7873.091;  -10.734;13355.958
806.556; 8072.813;  -10.444;13747.896
807.124; 8359.455;  -12.764;13987.376
807.691; 8329.854;  -12.964;14038.674
808.258; 8130.392;  -11.134;14120.152
808.825; 7754.056;   -9.854;13860.111
809.392; 7853.612;  -10.504;13268.790
809.959; 7453.139;  -13.054;12680.389
810.526; 6981.327;   -8.294;12427.308
811.093; 6939.449;   -8.394;12030.105
811.659; 7529.239;  -12.304;11653.664
812.226; 8113.386;  -13.944;11637.183
812.793; 7886.931;  -10.484;11611.521
813.360; 7240.233;  -10.144;11885.181
813.926; 6902.559;  -11.684;12770.539
814.493; 6718.566;  -13.644;12677.638
815.060; 6364.928;   -9.724;11974.336
815.626; 6300.682;   -9.854;11594.715
816.193; 6633.505;  -13.254;11579.474
816.759; 6674.585;  -13.204;11666.972
817.325; 6703.980;   -9.434;11325.530
817.892; 7031.667;  -10.134;11105.369
818.458; 7453.006;  -13.474;10843.928
819.024; 7106.896;  -11.854;10714.406
819.591; 6809.287;  -10.244;10469.165
820.157; 6647.316;  -10.704;10235.523
820.723; 6188.458;  -12.324;10847.563
821.289; 5896.387;   -9.444;11040.980
821.855; 5822.975;   -8.374;10357.100
822.421; 5768.960;  -10.234; 9978.918
822.987; 5696.857;  -13.294; 9754.177
823.553; 5330.453;  -10.884;10065.755
824.119; 5145.345;   -8.884;10036.294
824.685; 5299.451;   -6.784;10029.192
825.251; 5443.369;  -12.004;10199.230
825.816; 5397.375;  -11.474; 9820.189
826.382; 5101.945;   -9.174; 9297.248
826.948; 5227.333;   -9.214; 9381.347
827.513; 5636.316;  -10.774; 9450.726
828.079; 5545.922;  -11.924; 9472.444
828.645; 4973.655;  -10.543; 9292.643
829.210; 4778.122;  -10.533; 9065.341
829.776; 4739.138;  -10.753; 9132.620
830.341; 4615.752;  -10.173; 9092.878
830.906; 4756.917;  -10.743; 9078.557
831.472; 5089.383;  -11.113; 8534.535
832.037; 4911.579;  -10.603; 8677.874
832.602; 4413.987;  -13.323; 8628.692
833.167; 4165.441;  -10.823; 8879.031
833.733; 4112.034;  -10.113; 9189.790
834.298; 4247.707;  -13.583; 9052.608
834.863; 4386.298;  -12.703; 8895.087
835.428; 4406.996;  -10.523; 8824.266
835.993; 4261.567;   -6.963; 8845.385
836.558; 4087.759;  -10.763; 8888.563
837.123; 4155.581;   -9.903; 8966.582
837.688; 4404.626;   -9.913; 8617.860
838.253; 4650.147;  -10.283; 8590.699
838.817; 4814.379;  -12.963; 8443.797
839.382; 4740.601;  -14.243; 8799.356
839.947; 4449.384;  -10.733; 8810.595
840.511; 4148.992;   -9.383; 8796.394
841.076; 3772.178;  -12.563; 8347.231
841.641; 3827.608;  -12.953; 8224.330
842.205; 3937.693;   -7.043; 8223.349
842.770; 3961.100;   -8.163; 8622.107
843.334; 4084.476;  -12.503; 8410.386
843.898; 4064.225;  -11.693; 8337.465
844.463; 4070.820;  -10.203; 8506.283
845.027; 3880.555;   -9.533; 8280.962
845.591; 3704.728;  -13.443; 8231.141
846.156; 3701.296;  -13.143; 7969.179
846.720; 3620.257;   -9.433; 7768.278
847.284; 3528.828;  -11.033; 7630.957
847.848; 3395.038;  -10.403; 7472.395
848.412; 3285.558;  -11.553; 7437.394
848.976; 3302.696;   -8.393; 7674.592
849.540; 3224.274;   -8.713; 7836.011
850.104; 3270.647;  -12.463; 7913.669
850.668; 3605.022;  -12.973; 7694.508
851.232; 3770.697;  -10.793; 7756.887
851.796; 3647.991;  -10.662; 7926.545
852.359; 3332.619;  -13.082; 7827.844
852.923; 3149.798;  -12.192; 7641.163
853.487; 3020.252;  -11.912; 7342.501
854.050; 2996.573;  -10.892; 7042.820
854.614; 3116.389;  -13.992; 7151.338
855.177; 3205.839;  -11.732; 7105.077
855.741; 3240.780;   -8.962; 6989.675
856.304; 3163.427;   -9.442; 6596.634
856.868; 3148.414;  -14.192; 6356.272
857.431; 3278.102;  -12.702; 6468.571
857.995; 3421.471;   -9.942; 6373.210
858.558; 3464.495;   -9.112; 6324.448
859.121; 3212.350;  -12.932; 6408.327
859.684; 3025.997;  -13.442; 6347.886
860.247; 3100.366;  -10.632; 6321.264
860.810; 3122.670;  -11.272; 6301.903
861.374; 2886.632;   -9.832; 6607.881
861.937; 2624.617;  -11.762; 6408.200
862.500; 2617.135;   -9.722; 6572.639
863.062; 2752.751;  -10.512; 6387.297
863.625; 2872.653;  -11.232; 6190.836
864.188; 3027.959;  -14.112; 5807.254
864.751; 3129.485;  -11.302; 5682.413
865.314; 3065.252;  -10.112; 5547.492
865.876; 2855.545;  -12.182; 5500.150
866.439; 2821.105;  -10.722; 5415.909
867.002; 2783.879;   -9.252; 5501.567
867.564; 2603.538;   -9.572; 5413.946
868.127; 2387.863;  -13.142; 5160.325
868.689; 2261.293;  -12.902; 5133.183
869.252; 2152.249;   -9.732; 5252.382
869.814; 2047.453;   -9.432; 5297.141
870.377; 2052.562;  -11.552; 5390.919
870.939; 2122.722;   -9.052; 5599.898
871.501; 2197.796;  -10.982; 5248.336
872.063; 2216.315;  -12.292; 4854.235
872.626; 2155.175;  -14.912; 4817.074
873.188; 2143.715;  -13.112; 4987.732
873.750; 2122.883;  -13.442; 4868.651
874.312; 2051.844;   -9.402; 4779.330
874.874; 1975.595;  -11.062; 4866.348
875.436; 1895.462;  -13.931; 4718.887
875.998; 1892.532;   -9.561; 4660.005
876.560; 1921.755;  -11.321; 4462.964
877.122; 1866.046;  -12.221; 4145.042
877.683; 1765.204;  -12.191; 4056.481
878.245; 1681.184;  -12.101; 3950.740
878.807; 1711.745;   -8.971; 4058.958
879.369; 1733.635;  -12.071; 3954.677
879.930; 1651.086;  -14.621; 3941.495
880.492; 1587.690;  -10.311; 4067.014
881.053; 1558.101;  -10.901; 3859.633
881.615; 1463.081;  -14.411; 3776.071
882.176; 1365.419;  -13.761; 3734.750
882.738; 1312.837;   -9.181; 3678.489
883.299; 1288.408;  -11.791; 3405.407
883.860; 1278.919;  -13.121; 3351.106
884.422; 1266.010;  -11.211; 3394.044
884.983; 1225.143;  -10.091; 3166.443
885.544; 1156.154;   -8.461; 3189.802
886.105; 1083.090;  -12.361; 3160.360
886.666; 1021.286;  -14.141; 3093.059
887.227;  965.048;  -11.361; 2941.957
887.788;  904.776;  -11.401; 2974.836
888.349;  840.906;  -13.791; 2721.214
888.910;  832.531;  -13.191; 2696.493
889.471;  838.104;   -9.881; 2560.172
890.032;  819.113;   -9.881; 2558.190
890.593;  790.181;  -10.371; 2567.669
891.153;  765.048;  -13.301; 2460.307
891.714;  720.873;  -11.431; 2372.046
892.275;  687.327;  -11.291; 2309.505
892.835;  655.347;  -11.471; 2382.543
893.396;  602.603;  -11.541; 2295.502
893.956;  545.587;  -11.181; 2162.420
894.517;  504.860;  -11.741; 2125.439
895.077;  498.426;  -11.671; 2086.978
895.638;  502.618;  -11.311; 2126.316
896.198;  477.316;   -9.831; 1838.275
896.758;  435.784;   -8.421; 1892.813
897.319;  406.137;  -12.351; 1792.232
897.879;  391.102;  -13.511; 1762.751
898.439;  367.426;  -12.001; 1661.149
898.999;  341.754;  -10.180; 1781.468
899.559;  331.880;  -12.030; 1703.347
900.119;  324.867;  -15.710; 1537.525
900.679;  322.210;   -8.900; 1638.384
901.239;  308.172;   -8.340; 1527.902
901.799;  299.280;  -13.910; 1456.441
902.359;  291.860;  -13.460; 1357.140
902.919;  285.646;  -11.490; 1331.118
903.479;  273.695;  -12.110; 1317.257
904.038;  254.754;  -11.720; 1262.595
904.598;  239.439;  -13.610; 1152.034
905.158;  236.159;  -11.040; 1240.893
905.717;  229.503;  -10.900; 1233.691
906.277;  219.244;  -15.080; 1217.330
906.836;  211.098;  -13.380; 1222.408
907.396;  202.093;  -10.780; 1193.047
907.955;  194.492;   -8.500; 1182.526
908.515;  189.326;  -12.760; 1099.364
909.074;  183.041;  -11.900; 1092.863
909.633;  177.277;   -8.950; 1069.121
910.192;  173.371;   -8.770; 1196.460
910.752;  167.851;  -12.390; 1029.960
911.311;  163.884;  -13.680; 1009.780
911.870;  161.145;  -12.370;  971.460
912.429;  162.152;  -10.900; 1094.080
912.988;  161.899;  -11.690; 1081.060
913.547;  157.143;  -13.240;  940.380
914.106;  152.774;  -11.990;  999.420
914.665;  149.421;   -9.990;  984.020
915.224;  148.685;  -12.880; 1035.760
915.782;  148.456;  -12.350;  922.560
916.341;  147.695;   -9.110; 1049.840
916.900;  143.704;   -9.270;  925.260
917.458;  142.629;  -13.240;  884.220
918.017;  142.070;  -13.550;  942.600
918.576;  141.934;  -12.320;  904.440
919.134;  139.648;  -11.490;  837.980
919.693;  137.895;  -13.670;  893.060
920.251;  136.905;  -15.470;  876.500
920.809;  136.057;  -11.290;  839.580
921.368;  135.341;  -10.210;  885.360
921.926;  134.342;  -12.140;  842.940
922.484;  133.814;  -13.080;  903.360
923.042;  132.922;  -11.720;  880.340
923.601;  135.178;   -7.480;  998.680
924.159;  134.154;  -11.570;  935.560
924.717;  131.583;  -13.840;  841.080
925.275;  130.391;  -10.640;  903.240
925.833;  129.088;  -11.540;  779.320
926.391;  130.472;  -12.960;  938.380
926.949;  128.548;  -14.130;  857.680
927.506;  129.664;  -11.750;  903.500
928.064;  129.138;  -10.250;  877.580
928.622;  128.746;  -13.030;  880.100
929.180;  127.945;  -13.400;  814.180
929.737;  129.555;  -10.700;  808.540
930.295;  132.679;  -10.070;  928.480
930.853;  133.860;  -11.960;  849.100
931.410;  135.251;  -13.120;  821.120
931.968;  134.519;  -10.770;  940.660
932.525;  134.149;  -10.680;  909.380
933.082;  134.785;  -13.130;  811.440
933.640;  136.396;  -13.210;  925.900
934.197;  133.663;  -11.060;  886.360
934.754;  135.081;   -9.580;  897.780
935.312;  137.835;  -14.000;  863.340
935.869;  142.244;  -10.710; 1012.980
936.426;  142.652;   -9.860;  872.800
936.983;  143.551;   -9.710;  889.020
937.540;  143.653;  -13.990;  838.280
938.097;  142.636;  -14.040;  940.120
938.654;  142.701;  -10.310;  898.860
939.211;  144.617;  -10.560;  952.480
939.768;  148.210;  -13.900;  915.420
940.324;  151.284;  -14.760;  904.200
940.881;  152.292;  -10.370;  878.500
941.438;  153.455;   -8.260; 1021.200
941.995;  150.539;  -12.540;  992.560
942.551;  147.791;  -14.670;  875.620
943.108;  146.483;  -10.450;  937.920
943.664;  149.356;  -10.750;  869.340
944.221;  152.952;  -11.550; 1088.140
944.777;  149.969;  -14.770;  869.680
945.334;  150.256;  -12.820;  884.840
945.890;  151.905;  -10.130;  946.480
946.446;  151.796;  -13.470;  947.020
947.003;  154.066;  -12.120;  964.940
947.559;  156.339;   -9.980; 1063.040
948.115;  155.319;   -9.080; 1026.540
948.671;  154.683;  -10.830;  967.300
949.227;  152.662;  -12.440;  859.560
949.783;  150.747;  -12.910;  858.900
950.339;  151.998;  -10.270;  991.000
950.895;  152.268;  -13.630; 1023.840
951.451;  150.846;  -15.100;  925.280
952.007;  149.250;  -11.330;  998.540
952.563;  148.813;  -10.580;  937.780
953.118;  148.053;  -13.440;  904.940
953.674;  146.447;  -12.710;  935.780
954.230;  147.265;  -10.350;  949.640
954.785;  145.571;   -9.190;  936.640
955.341;  143.662;  -11.200;  998.160
955.897;  141.765;  -16.560;  834.660
956.452;  142.627;  -12.570;  953.840
957.008;  142.626;   -7.970; 1083.640
957.563;  140.706;  -11.940; 1009.540
958.118;  136.059;  -13.450;  877.700
958.674;  135.433;  -12.030;  946.780
959.229;  137.942;   -9.410; 1013.980
959.784;  136.006;  -12.000;  832.400
960.339;  135.463;  -14.780; 1001.280
960.894;  130.681;   -9.860;  963.760
961.449;  126.621;   -9.970;  859.960
962.004;  126.894;  -10.900; 1212.840
962.559;  121.245;  -13.150;  860.140
963.114;  118.680;  -13.740;  742.480
963.669;  118.319;   -9.820;  915.500
964.224;  117.474;  -13.890;  874.340
964.779;  115.191;  -12.600;  828.420
965.334;  116.645;  -10.950; 1017.860
965.888;  115.247;  -11.170;  875.360
966.443;  119.320;  -12.540;  972.380
966.998;  118.432;  -15.780;  819.460
967.552;  117.949;   -9.760;  908.380
968.107;  113.832;   -9.060;  868.300
968.661;  115.304;  -11.950;  922.440
969.216;  116.294;  -12.800;  856.280
969.770;  114.839;  -11.210;  917.200
970.324;  114.688;  -11.610;  923.140
970.879;  112.271;  -11.370;  947.180
971.433;  108.766;  -12.540;  952.720
971.987;  103.843;  -11.320;  895.340
972.541;  100.592;  -10.720;  917.100
973.095;  100.757;   -9.680; 1009.460
973.649;   98.503;  -11.440;  809.480
974.203;   97.753;  -11.210;  829.040
974.757;   97.372;  -10.240;  855.220
975.311;   98.141;  -13.720;  872.600
975.865;   97.449;  -13.770;  881.820
976.419;   95.733;  -11.690;  857.400
976.973;   95.819;   -9.510;  849.620
977.526;   97.260;  -12.620;  949.920
978.080;   96.123;  -12.010;  796.780
978.634;   96.471;  -10.170;  921.320
979.187;   94.937;   -9.020;  905.400
979.741;   92.700;   -9.820; 1018.380
980.294;   88.652;  -14.870;  789.160
980.848;   86.434;  -12.380;  717.220
981.401;   87.433;  -10.350;  816.540
981.955;   90.383;  -13.720;  844.300
982.508;   89.594;  -11.490;  746.340
983.061;   89.557;  -10.000;  915.260
983.615;   86.065;  -11.480;  798.800
984.168;   83.491;  -13.220;  770.080
984.721;   83.109;  -13.960;  880.760
985.274;   81.861;  -10.870;  867.500
985.827;   80.706;   -9.790;  834.220
986.380;   78.225;  -13.120;  721.340
986.933;   77.733;  -12.450;  864.800
987.486;   76.358;  -10.210;  861.920
988.039;   75.178;   -8.430;  863.100
988.591;   73.041;  -10.520;  893.260
989.144;   70.422;  -14.860;  737.260
989.697;   70.257;  -13.080;  758.740
990.250;   69.936;  -10.150;  858.100
990.802;   68.378;  -13.430;  755.860
991.355;   70.307;  -12.750;  974.880
991.907;   67.946;  -12.040;  864.320
992.460;   65.585;  -11.330;  753.760
993.012;   64.885;  -13.610;  749.540
993.565;   64.057;  -13.460;  711.360
994.117;   65.145;   -9.360;  950.780
994.669;   61.722;  -11.300;  701.320
995.221;   60.190;  -13.540;  791.920
995.774;   58.458;  -13.430;  787.580
996.326;   57.249;  -12.520;  740.220
996.878;   57.356;  -10.950;  838.420
997.430;   55.230;  -14.300;  699.860
997.982;   54.029;  -13.760;  750.140
998.534;   53.414;  -11.530;  739.060
999.086;   52.698;  -10.310;  738.220
999.638;   51.318;  -12.530;  661.380
1000.190;   51.203;  -11.840;  699.320
1000.741;   50.568;  -10.260;  742.700
1001.293;   49.702;   -8.860;  686.020
1001.845;   47.871;  -13.700;  676.640
1002.396;   48.959;  -12.100;  743.400
1002.948;   47.946;  -12.760;  737.400
1003.500;   46.742;  -10.380;  723.780
1004.051;   47.847;  -11.900;  907.580
1004.603;   45.633;  -12.250;  791.820
1005.154;   41.664;  -13.210;  608.980
1005.705;   41.016;  -10.950;  723.960
1006.257;   41.268;  -13.880;  707.220
1006.808;   39.859;  -12.840;  685.460
1007.359;   40.101;  -10.570;  763.240
1007.910;   38.971;   -9.620;  646.640
1008.461;   38.257;  -13.630;  732.940
1009.013;   37.390;  -17.200;  588.340
1009.564;   38.810;  -10.200;  793.520
1010.115;   36.204;  -12.570;  597.040
1010.665;   36.462;  -15.150;  602.160
1011.216;   35.996;  -14.480;  667.920
1011.767;   35.383;  -11.340;  697.920
1012.318;   35.887;   -9.780;  736.980
1012.869;   35.640;  -12.380;  679.000
1013.419;   34.308;  -15.560;  603.120
1013.970;   34.292;  -11.010;  666.640
1014.521;   33.523;  -11.610;  620.620
1015.071;   34.370;  -13.450;  670.380
1015.622;   34.123;  -13.870;  635.460
1016.172;   32.516;  -11.610;  596.820
1016.723;   32.283;  -12.120;  614.380
1017.273;   32.742;  -13.620;  604.160
1017.823;   32.657;  -14.140;  650.340
1018.374;   30.997;  -12.800;  611.760
1018.924;   31.679;  -12.340;  716.880
1019.474;   32.263;  -11.410;  718.880
1020.024;   30.787;  -14.770;  657.580
1020.574;   31.870;   -9.780;  726.160
1021.124;   31.523;   -8.560;  673.580
1021.674;   30.691;  -15.190;  559.120
1022.224;   32.105;  -13.530;  708.940
1022.774;   30.758;  -13.280;  668.820
1023.324;   31.454;  -10.690;  753.520
1023.874;   32.885;  -10.240;  875.760
1024.423;   29.749;  -12.540;  613.700
1024.973;   29.592;  -10.010;  610.760
1025.523;   28.781;  -10.550;  620.960
1026.072;   28.829;  -13.560;  606.420
1026.622;   29.249;  -15.120;  675.740
1027.172;   29.360;  -11.260;  715.660
1027.721;   28.175;  -11.410;  601.220
1028.270;   28.173;  -13.530;  663.400
1028.820;   28.711;  -13.680;  638.080
1029.369;   27.989;  -13.520;  612.700
1029.918;   28.365;  -10.980;  649.840
1030.468;   27.790;  -13.530;  564.780
1031.017;   28.299;  -13.170;  634.800
1031.566;   27.024;  -12.200;  608.900
1032.115;   26.646;   -9.960;  694.500
1032.664;   26.795;  -13.210;  596.480
1033.213;   27.342;  -12.500;  735.420
1033.762;   27.156;  -11.910;  635.620
1034.311;   26.391;   -9.640;  677.220
1034.860;   26.973;  -13.310;  691.000
1035.408;   26.865;  -11.830;  722.720
1035.957;   26.966;  -12.000;  719.540
1036.506;   24.321;  -11.690;  530.800
1037.055;   27.748;  -10.990;  844.320
1037.603;   25.392;  -15.120;  664.000
1038.152;   23.926;  -12.450;  534.760
1038.700;   24.519;  -10.560;  585.740
1039.249;   24.099;  -11.080;  681.220
1039.797;   24.890;  -12.540;  633.360
1040.345;   24.144;  -11.920;  705.420
1040.894;   23.723;  -11.410;  625.300
1041.442;   23.814;  -14.320;  632.200
1041.990;   22.636;  -16.240;  559.160
1042.538;   23.003;  -11.680;  536.180
1043.087;   23.136;  -10.760;  570.860
1043.635;   24.549;  -11.850;  670.500
1044.183;   23.152;  -15.480;  586.400
1044.731;   22.188;  -11.770;  576.000
1045.279;   22.722;  -13.090;  674.920
1045.827;   24.778;  -12.440;  892.400
1046.374;   22.116;  -13.840;  515.420
1046.922;   20.791;  -13.220;  590.580
1047.470;   22.799;  -10.230;  691.300
1048.018;   23.029;  -14.590;  647.960
1048.565;   23.326;  -12.050;  708.600
1049.113;   20.941;  -11.650;  557.000
1049.660;   21.106;  -10.510;  629.660
1050.208;   21.775;  -13.310;  675.640
1050.755;   20.999;  -15.900;  606.580
1051.303;   21.711;  -11.430;  686.820
1051.850;   19.906;   -8.480;  635.120
1052.397;   18.613;  -15.010;  473.960
1052.945;   20.432;  -13.960;  617.760
1053.492;   21.624;  -13.150;  741.840
1054.039;   20.772;   -9.630;  720.180
1054.586;   20.436;  -13.680;  557.240
1055.133;   21.076;  -14.570;  693.140
1055.680;   20.199;  -13.820;  646.620
1056.227;   18.941;  -11.730;  542.780
1056.774;   20.692;  -12.480;  794.980
1057.321;   18.969;  -13.930;  523.260
1057.868;   19.274;  -11.690;  651.320
1058.415;   18.690;   -9.520;  651.980
1058.961;   18.955;  -13.160;  678.940
1059.508;   18.965;  -12.920;  643.820
1060.055;   18.411;  -11.920;  581.780
1060.601;   19.309;  -11.500;  624.300
1061.148;   18.604;  -14.330;  616.820
1061.694;   17.625;  -16.870;  592.580
1062.241;   18.173;  -10.330;  596.320
1062.787;   18.390;  -10.620;  663.140
1063.334;   19.969;  -10.110;  808.560
1063.880;   18.561;  -13.400;  668.360
1064.426;   17.980;  -10.680;  706.820
1064.972;   17.131;   -9.920;  601.340
1065.518;   16.572;  -10.980;  566.640
1066.065;   18.435;  -14.890;  624.460
1066.611;   16.426;  -12.870;  598.800
1067.157;   17.112;  -12.950;  641.860
1067.703;   17.347;  -13.540;  668.480
1068.249;   17.197;  -13.540;  605.220
1068.794;   16.448;  -12.600;  626.880
1069.340;   15.672;  -10.620;  578.960
1069.886;   16.661;  -12.830;  590.700
1070.432;   15.626;  -14.870;  541.720
1070.977;   15.610;  -11.980;  601.080
1071.523;   16.081;   -8.200;  573.060
1072.068;   15.603;  -12.330;  582.000
1072.614;   15.202;  -16.370;  527.760
1073.160;   16.391;  -11.100;  687.040
1073.705;   15.212;  -10.480;  572.520
1074.250;   15.282;  -14.520;  559.900
1074.796;   15.892;  -11.460;  655.160
1075.341;   16.294;  -11.950;  664.100
1075.886;   15.224;  -11.460;  594.240
1076.431;   14.798;  -13.770;  649.880
1076.976;   14.970;  -12.680;  639.220
1077.521;   14.091;  -13.170;  583.080
1078.067;   13.049;  -10.860;  579.400
1078.612;   14.529;  -13.920;  661.620
1079.156;   14.896;  -13.880;  601.540
1079.701;   14.980;  -13.120;  693.260
1080.246;   14.851;   -9.940;  696.300
1080.791;   14.630;  -14.740;  625.020
1081.336;   13.821;  -13.750;  659.320
1081.880;   14.218;  -13.400;  649.680
1082.425;   12.824;  -12.220;  573.480
1082.970;   14.874;  -11.610;  717.040
1083.514;   13.912;  -13.580;  597.000
1084.059;   12.639;  -12.810;  586.720
1084.603;   12.186;  -12.320;  565.840
1085.147;   12.912;  -13.190;  645.220
1085.692;   13.815;  -12.480;  716.800
1086.236;   11.880;  -13.020;  503.140
1086.780;   14.215;   -9.190;  751.440
1087.325;   12.524;  -12.480;  654.620
1087.869;   13.270;  -12.450;  610.700
1088.413;   13.344;  -12.240;  705.040
1088.957;   10.462;   -9.020;  543.400
1089.501;   13.257;  -10.320;  766.640
1090.045;   12.133;  -12.720;  726.480
1090.589;   10.509;  -13.690;  569.920
1091.133;   11.715;  -10.020;  673.340
1091.676;   11.873;  -12.330;  591.940
1092.220;   12.332;  -14.970;  600.920
1092.764;   12.114;  -12.430;  706.960
1093.307;   11.715;   -9.800;  673.780
1093.851;   10.361;  -14.970;  556.540
1094.395;   11.512;  -15.310;  683.140
1094.938;   10.571;  -10.370;  632.520
1095.482;   10.350;  -11.050;  559.800
1096.025;   10.903;  -11.840;  710.880
1096.568;   11.878;  -12.840;  779.280
1097.112;    9.016;  -14.700;  508.180
1097.655;   10.666;   -8.720;  603.000
1098.198;    9.286;  -13.610;  600.180
1098.741;    9.817;  -13.350;  612.860
1099.285;   10.585;  -11.230;  657.300
1099.828;    8.130;  -11.840;  439.400
1100.371;    9.957;  -10.840;  608.160
1100.914;    9.906;  -14.190;  682.660
1101.457;    9.673;  -11.240;  679.900
1101.999;    8.583;  -11.270;  584.680
1102.542;   10.247;  -11.480;  641.440
1103.085;    9.384;  -11.750;  658.500
1103.628;    9.278;  -11.400;  762.060
1104.170;    8.459;  -10.490;  588.280
1104.713;    9.389;  -10.600;  646.700
1105.256;    8.628;  -14.360;  557.440
1105.798;    8.133;  -13.210;  499.980
1106.341;    9.824;  -10.270;  728.900
1106.883;    8.816;  -12.200;  521.340
1107.425;    9.289;  -13.110;  668.180
1107.968;    7.497;  -12.840;  612.380
1108.510;    8.837;   -6.480;  684.960
1109.052;    6.636;  -13.940;  612.620
1109.594;    7.663;  -13.690;  554.440
1110.136;    8.604;  -11.880;  643.220
1110.679;    7.275;   -9.500;  633.080
1111.221;    8.459;  -14.160;  604.460
1111.763;    7.206;  -13.980;  559.220
1112.304;    7.134;  -13.880;  547.140
1112.846;    7.219;  -12.210;  666.240
1113.388;   10.177;  -11.390;  942.180
1113.930;    7.676;  -14.540;  694.200
1114.472;    6.035;  -12.640;  606.540
1115.013;    5.347;  -11.620;  551.280
1115.555;    5.925;  -13.640;  587.100
1116.097;    5.640;  -15.380;  579.480
1116.638;    7.281;  -12.640;  684.600
1117.180;    6.282;   -9.850;  667.740
1117.721;    6.352;  -13.690;  568.580
1118.262;    7.407;  -12.680;  677.960
1118.804;    6.520;  -12.530;  637.340
1119.345;    6.264;  -11.690;  578.400
1119.886;    6.629;  -13.380;  704.040
1120.427;    5.513;  -14.070;  589.020
1120.969;    5.031;  -13.500;  597.920
1121.510;    4.950;  -11.480;  563.060
1122.051;    5.533;  -12.830;  723.580
1122.592;    5.233;  -14.290;  655.420
1123.133;    3.584;  -12.400;  547.940
1123.673;    5.738;  -10.130;  706.480
1124.214;    5.453;  -12.930;  612.460
1124.755;    6.462;  -14.380;  639.460
1125.296;    5.825;  -14.000;  627.320
1125.836;    5.918;  -10.070;  691.500
1126.377;    4.938;  -12.640;  599.660
1126.918;    5.948;  -12.960;  614.980
1127.458;    3.307;  -13.350;  622.220
1127.999;    5.667;  -10.750;  656.980
1128.539;    5.322;  -12.350;  694.240
1129.079;    4.785;  -14.860;  632.720
1129.620;    3.914;  -13.840;  558.100
1130.160;    3.826;  -12.330;  539.480
1130.700;    4.454;  -14.530;  640.840
1131.240;    4.928;  -12.530;  643.700
1131.781;    4.038;  -14.450;  619.680
1132.321;    3.895;   -9.790;  599.120
1132.861;    2.753;  -14.860;  564.200
1133.401;    2.781;  -14.290;  593.940
1133.941;    3.618;  -11.750;  626.280
1134.481;    2.796;   -9.920;  597.580
1135.020;    3.290;  -12.290;  609.160
1135.560;    3.241;  -11.650;  674.940
1136.100;    2.418;  -16.270;  501.160
1136.640;    2.452;  -10.890;  510.480
1137.179;    2.921;  -14.180;  537.960
1137.719;    3.503;  -16.250;  605.400
1138.258;    2.314;  -14.230;  587.360
1138.798;    3.153;   -9.090;  663.780
1139.337;    1.629;  -15.130;  482.840
1139.877;    3.683;  -13.680;  642.360
1140.416;    4.744;  -11.320;  878.060
1140.955;    1.480;  -10.860;  535.380
1141.494;    2.619;  -12.920;  669.280
1142.034;    1.818;  -13.930;  583.520
1142.573;    3.033;  -11.440;  646.280
1143.112;    1.872;  -12.000;  553.480
1143.651;    2.616;  -13.670;  536.480
1144.190;    3.203;  -12.730;  691.640
1144.729;    1.765;  -14.560;  607.420
1145.267;    1.543;  -11.830;  584.900
1145.806;    2.511;  -12.230;  637.040
1146.345;    1.443;  -14.130;  635.020
1146.884;    1.863;  -11.590;  622.500
1147.422;    1.039;  -12.550;  533.060
1147.961;    2.774;  -11.180;  708.460
1148.500;    3.182;  -11.510;  669.720
1149.038;    2.824;  -11.640;  632.500
1149.577;    1.985;  -10.130;  698.640
1150.115;   -0.620;  -13.970;  452.280
1150.653;    1.632;  -14.520;  607.340
1151.192;    1.738;  -12.810;  552.920
1151.730;    0.755;   -9.100;  652.560
1152.268;    0.497;  -12.220;  589.520
1152.806;    1.223;  -14.140;  571.180
1153.344;   -0.314;  -12.350;  577.640
1153.882;    0.430;   -8.980;  600.060
1154.421;   -0.501;  -15.190;  470.620
1154.958;    0.251;  -15.210;  595.240
1155.496;    1.654;  -12.850;  645.280
1156.034;    1.076;   -9.940;  721.880
1156.572;    1.945;  -13.570;  667.060
1157.110;    0.603;  -14.590;  473.940
1157.647;    1.074;  -13.030;  676.960
1158.185;   -0.420;  -12.140;  564.320
1158.723;   -0.486;  -14.390;  509.200
1159.260;    0.416;  -14.090;  701.700
1159.798;    0.383;  -11.920;  658.160
1160.335;   -0.661;  -11.110;  631.820

