gmr_
Integration time [ms]:   3.882
Averaging Nr. [scans]: 1000
Smoothing Nr. [pixels]: 0
Data measured with spectrometer [name]: 7414430SP
Wave   ;Sample   ;Dark     ;Reference
[nm]   ;[counts] ;[counts] ;[counts] 

288.544;  123.898;   10.292;  793.890
289.143;  127.320;    4.564;  681.602
289.742;  128.680;    6.144;  828.814
290.341;  115.679;    4.396;  789.841
290.940;  107.262;    0.938;  730.702
291.538;  108.431;   -0.684;  881.108
292.137;  106.625;   -2.845;  792.581
292.736;  110.134;   -0.144;  975.101
293.335;  106.054;   -6.352;  735.086
293.934;  107.372;   -7.642;  781.677
294.532;  107.718;   -4.992; 1031.958
295.131;   94.555;   -5.478;  834.394
295.730;   93.274;   -6.549;  809.588
296.328;   92.451;   -9.558;  783.442
296.927;   91.993;   -8.118;  779.652
297.525;   92.346;   -6.908;  781.236
298.124;   83.480;   -9.195;  654.009
298.722;   88.221;   -8.198;  761.933
299.321;   87.075;   -8.817;  708.597
299.919;   84.345;   -7.716;  751.918
300.518;   81.074;  -10.745;  689.338
301.116;   81.810;   -9.647;  691.381
301.715;   82.925;  -10.828;  730.222
302.313;   82.027;   -6.087;  704.943
302.911;   77.153;   -6.824;  733.830
303.509;   83.039;   -8.807;  925.627
304.108;   80.618;   -8.198;  760.383
304.706;   80.536;   -6.218;  801.664
305.304;   74.754;   -7.185;  796.707
305.902;   80.044;   -8.568;  784.484
306.500;   75.453;   -7.737;  728.200
307.098;   75.144;   -6.026;  746.560
307.696;   72.690;   -7.176;  780.432
308.294;   73.275;   -8.656;  731.359
308.892;   75.166;   -6.838;  759.769
309.490;   71.718;   -2.596;  712.161
310.088;   69.945;   -4.485;  788.444
310.686;   74.877;   -3.907;  821.749
311.284;   70.961;   -2.806;  766.040
311.882;   68.490;   -2.845;  731.225
312.480;   65.218;   -3.274;  697.167
313.078;   67.490;   -3.645;  808.331
313.675;   68.498;   -4.997;  691.600
314.273;   63.109;   -0.894;  797.837
314.871;   62.112;   -2.854;  589.829
315.468;   60.499;   -3.644;  652.090
316.066;   64.683;   -3.947;  694.427
316.664;   57.114;   -1.824;  656.351
317.261;   62.400;    1.565;  910.128
317.859;   56.940;   -3.955;  768.735
318.456;   58.297;   -2.886;  830.096
319.054;   54.334;   -0.995;  787.828
319.651;   53.646;   -1.765;  759.928
320.249;   53.539;   -3.685;  810.188
320.846;   51.360;   -3.736;  714.286
321.443;   49.151;   -2.065;  832.135
322.041;   46.645;   -5.635;  812.315
322.638;   45.103;   -5.985;  701.456
323.235;   46.813;   -6.677;  665.683
323.833;   44.423;   -3.497;  740.354
324.430;   40.131;   -6.756;  615.900
325.027;   42.517;   -7.647;  876.855
325.624;   42.998;   -7.598;  644.532
326.221;   40.695;   -5.848;  689.717
326.818;   39.683;   -5.777;  818.332
327.415;   41.548;   -8.769;  748.828
328.012;   41.964;   -6.299;  690.585
328.609;   39.635;   -6.639;  731.389
329.206;   38.513;   -6.358;  778.621
329.803;   37.647;   -8.698;  737.841
330.400;   39.114;   -8.379;  704.260
330.997;   39.410;   -6.178;  817.147
331.594;   37.067;   -5.646;  788.185
332.191;   41.426;   -6.928;  728.722
332.787;   43.879;   -6.057;  844.463
333.384;   41.074;   -6.445;  763.093
333.981;   37.922;   -8.002;  815.687
334.578;   40.010;   -8.443;  708.378
335.174;   42.112;   -6.053;  731.469
335.771;   42.990;   -5.791;  836.456
336.367;   39.557;   -6.570;  710.631
336.964;   41.248;   -6.741;  793.266
337.561;   41.028;   -5.710;  731.112
338.157;   38.446;   -3.928;  911.916
338.754;   35.580;   -5.577;  796.589
339.350;   33.915;   -9.667;  722.493
339.946;   37.444;   -5.269;  773.135
340.543;   30.136;   -4.485;  846.136
341.139;   24.521;   -7.584;  720.836
341.735;   23.526;   -8.553;  772.593
342.332;   23.499;   -4.984;  691.472
342.928;   23.341;   -3.475;  795.394
343.524;   17.307;   -6.653;  761.684
344.120;   14.650;   -7.173;  738.562
344.716;   18.352;   -4.385;  723.717
345.313;   16.942;   -3.565;  795.342
345.909;   11.463;   -7.495;  627.336
346.505;   14.066;   -8.276;  740.247
347.101;   14.706;   -5.697;  827.864
347.697;   15.028;   -4.767;  785.398
348.293;    9.221;   -7.226;  627.244
348.889;   10.618;   -7.547;  745.914
349.485;   10.423;   -9.147;  688.205
350.081;   11.135;   -6.568;  772.592
350.676;    7.154;   -6.516;  691.606
351.272;   11.479;   -7.378;  809.530
351.868;   11.001;   -6.759;  780.497
352.464;    9.017;   -4.798;  723.932
353.059;    4.269;   -7.977;  646.017
353.655;    8.088;   -8.769;  777.063
354.251;    9.960;   -5.920;  759.845
354.846;    3.580;   -7.647;  740.646
355.442;    1.583;   -6.956;  753.071
356.038;    3.288;   -9.928;  751.708
356.633;    4.270;   -7.698;  728.594
357.229;    2.022;   -6.307;  724.757
357.824;    0.526;   -7.647;  703.600
358.420;    0.055;  -10.047;  679.726
359.015;    0.956;   -7.458;  695.357
359.610;    1.748;   -5.748;  763.920
360.206;   -4.556;   -9.346;  603.240
360.801;   -1.367;  -11.268;  646.503
361.396;    1.059;   -8.789;  725.975
361.992;   -3.200;   -6.347;  668.220
362.587;   -6.551;   -6.476;  670.160
363.182;   -3.853;   -9.457;  689.631
363.777;   -2.267;   -7.147;  738.242
364.372;   -3.335;   -5.507;  737.314
364.967;   -6.584;   -6.386;  680.744
365.563;   -2.765;   -7.858;  815.567
366.158;   -4.596;   -8.517;  685.161
366.753;   -4.771;   -8.728;  649.263
367.348;   -6.591;   -7.677;  746.056
367.942;   -6.077;  -10.387;  697.298
368.537;   -6.540;   -7.187;  754.245
369.132;   -6.493;   -8.587;  703.428
369.727;  -10.426;   -8.606;  638.079
370.322;   -9.428;  -10.426;  580.186
370.917;   -9.077;   -5.776;  710.646
371.511;   -5.794;   -6.007;  861.834
372.106;  -10.272;   -6.686;  776.964
372.701;  -13.198;   -9.335;  585.988
373.296;   -6.464;   -6.777;  863.135
373.890;  -12.100;   -7.546;  647.840
374.485;  -13.992;   -8.755;  691.199
375.079;  -10.173;   -9.797;  738.685
375.674;   -8.303;   -6.327;  812.970
376.268;  -13.005;   -9.046;  691.759
376.863;  -17.585;   -7.993;  580.327
377.457;  -11.317;   -9.206;  662.490
378.052;  -13.271;   -5.345;  764.884
378.646;  -14.513;   -5.605;  741.167
379.240;  -14.837;   -6.825;  721.176
379.835;  -13.879;  -10.476;  636.978
380.429;  -14.632;   -8.676;  562.557
381.023;  -14.756;   -4.945;  779.205
381.617;  -18.054;   -8.094;  680.106
382.212;  -14.610;  -10.646;  685.303
382.806;  -13.358;   -8.136;  760.690
383.400;  -17.728;   -7.855;  672.281
383.994;  -18.697;   -8.125;  664.870
384.588;  -14.121;   -7.637;  697.701
385.182;  -12.679;   -7.458;  726.624
385.776;  -15.052;   -6.277;  706.875
386.370;  -17.991;   -7.485;  681.968
386.964;  -16.047;   -9.416;  684.155
387.558;  -14.431;   -8.518;  598.360
388.152;  -18.314;   -7.096;  681.959
388.745;  -16.518;   -7.656;  814.707
389.339;  -14.285;   -8.927;  747.642
389.933;  -13.106;   -9.538;  695.370
390.527;  -14.535;   -5.857;  859.029
391.120;  -21.000;   -9.455;  595.318
391.714;  -17.568;   -9.746;  711.633
392.308;  -14.156;   -7.857;  780.253
392.901;  -17.441;   -9.106;  642.460
393.495;  -20.487;  -10.365;  595.414
394.089;  -17.352;   -9.696;  760.452
394.682;  -18.015;   -7.016;  697.188
395.275;  -18.599;   -8.466;  719.927
395.869;  -19.330;   -8.985;  667.314
396.462;  -18.483;  -11.496;  616.609
397.056;  -13.496;   -7.838;  776.621
397.649;  -18.581;   -6.895;  731.575
398.242;  -15.747;   -5.017;  712.645
398.836;  -14.289;   -8.787;  766.408
399.429;  -16.095;   -8.967;  631.041
400.022;  -19.501;   -8.815;  665.902
400.615;  -17.462;   -6.276;  805.609
401.208;  -15.053;   -8.407;  691.451
401.802;  -17.130;   -7.296;  699.329
402.395;  -18.956;   -7.585;  683.502
402.988;  -19.631;   -8.015;  696.627
403.581;  -16.333;   -9.577;  646.878
404.174;  -14.044;   -7.588;  686.568
404.767;  -16.691;   -7.906;  638.583
405.360;  -19.832;   -7.875;  621.445
405.953;  -13.258;   -8.127;  759.034
406.545;  -12.033;   -7.198;  725.342
407.138;  -17.423;   -8.916;  618.350
407.731;  -16.132;   -9.767;  613.303
408.324;  -11.988;  -10.659;  660.554
408.917;  -13.275;   -8.068;  681.864
409.509;  -15.141;   -9.837;  740.396
410.102;  -17.475;   -8.146;  643.948
410.695;  -11.315;   -7.969;  665.758
411.287;  -11.555;   -8.579;  599.821
411.880;  -12.559;   -6.968;  585.421
412.472;  -15.419;   -9.487;  613.092
413.065;  -12.965;  -10.338;  629.408
413.657;  -10.359;   -9.169;  576.678
414.250;  -10.257;  -10.119;  646.681
414.842;  -12.609;   -9.938;  676.353
415.434;  -10.326;  -10.409;  570.463
416.027;   -5.621;   -9.591;  652.196
416.619;   -7.639;   -7.379;  713.400
417.211;   -8.280;   -9.159;  599.352
417.804;   -4.763;   -9.191;  628.499
418.396;   -8.578;   -8.159;  607.643
418.988;   -6.525;   -6.960;  659.238
419.580;   -9.664;  -11.389;  568.276
420.172;   -7.703;  -13.460;  536.196
420.764;   -2.672;  -10.701;  672.482
421.356;   -4.506;   -8.961;  636.898
421.948;   -4.865;   -9.770;  677.661
422.540;   -0.716;   -8.832;  680.027
423.132;   -0.081;   -8.153;  600.641
423.724;   -4.038;   -8.481;  561.267
424.316;   -1.905;   -9.261;  621.345
424.908;    0.862;   -9.643;  591.517
425.500;    2.882;   -8.663;  647.978
426.092;    3.166;   -8.503;  648.268
426.683;    1.772;  -10.522;  684.836
427.275;    4.741;  -11.734;  641.471
427.867;    5.977;  -10.264;  668.948
428.458;    7.155;   -7.644;  732.344
429.050;    4.902;   -7.853;  680.749
429.642;    7.460;   -8.904;  743.124
430.233;    7.783;  -10.795;  569.356
430.825;    9.416;   -7.665;  724.809
431.416;    6.251;   -8.843;  698.241
432.008;   10.682;   -9.885;  651.723
432.599;   11.202;   -9.966;  656.073
433.190;    8.231;   -9.164;  637.670
433.782;    7.610;   -8.584;  590.395
434.373;   15.532;   -8.296;  884.765
434.964;   13.129;   -9.896;  602.920
435.556;   10.630;   -8.255;  634.537
436.147;   14.853;   -8.075;  758.490
436.738;   13.708;   -9.716;  701.099
437.329;   19.441;   -7.318;  721.723
437.920;   11.946;   -6.694;  666.688
438.511;   11.723;   -9.644;  564.526
439.103;   18.613;   -9.427;  623.998
439.694;   20.713;  -10.748;  681.583
440.285;   21.858;   -7.997;  764.432
440.876;   20.402;  -10.046;  845.738
441.466;   18.884;  -13.467;  575.162
442.057;   24.493;   -9.329;  665.814
442.648;   23.303;   -7.707;  746.255
443.239;   20.842;   -9.017;  620.477
443.830;   25.960;  -10.279;  704.958
444.421;   28.792;  -12.630;  655.474
445.011;   24.565;   -8.697;  693.619
445.602;   24.375;   -7.787;  743.126
446.193;   25.591;  -13.329;  488.117
446.783;   31.116;   -9.171;  640.397
447.374;   26.972;   -7.457;  692.759
447.964;   26.659;   -9.277;  713.770
448.555;   35.260;   -9.041;  822.742
449.145;   31.315;   -8.969;  662.853
449.736;   32.512;   -6.809;  803.179
450.326;   33.235;   -7.229;  713.626
450.917;   37.155;  -11.391;  675.324
451.507;   36.037;   -9.501;  600.661
452.097;   39.082;   -8.460;  746.267
452.688;   39.284;  -10.080;  742.160
453.278;   38.970;  -12.861;  566.840
453.868;   43.339;   -8.372;  793.550
454.458;   41.186;   -8.131;  651.141
455.048;   41.197;   -8.520;  711.783
455.639;   43.339;  -13.632;  567.096
456.229;   46.468;  -10.143;  710.694
456.819;   47.831;   -9.163;  751.158
457.409;   48.873;   -8.652;  773.993
457.999;   51.287;   -9.933;  737.505
458.589;   51.020;  -10.363;  686.606
459.179;   51.343;  -10.633;  717.658
459.769;   48.629;  -12.442;  627.099
460.358;   54.121;   -9.844;  797.262
460.948;   53.149;   -9.924;  689.503
461.538;   55.523;  -10.484;  660.677
462.128;   52.966;  -10.703;  664.934
462.717;   59.483;  -11.486;  710.326
463.307;   63.505;  -10.767;  705.846
463.897;   59.141;   -8.814;  656.942
464.486;   58.567;   -8.182;  837.128
465.076;   62.051;   -9.985;  733.776
465.666;   66.415;  -10.447;  652.900
466.255;   63.304;   -7.754;  785.651
466.845;   63.255;  -10.884;  666.749
467.434;   65.994;  -12.525;  725.873
468.023;   67.228;  -11.456;  658.357
468.613;   65.017;   -9.173;  713.946
469.202;   68.540;   -9.306;  646.507
469.791;   73.596;   -8.917;  737.811
470.381;   74.993;   -9.657;  742.813
470.970;   74.897;   -9.947;  711.099
471.559;   74.703;   -9.256;  733.291
472.148;   77.387;  -13.397;  675.737
472.738;   80.198;   -9.928;  765.466
473.327;   80.402;  -10.897;  637.529
473.916;   79.502;   -8.526;  737.446
474.505;   83.807;  -11.078;  751.703
475.094;   87.417;   -9.559;  806.570
475.683;   86.790;   -8.838;  797.699
476.272;   86.939;  -10.198;  730.632
476.861;   90.535;  -11.489;  706.754
477.449;   96.631;  -10.721;  728.487
478.038;   91.503;   -9.818;  692.513
478.627;   91.509;   -9.887;  714.852
479.216;   98.337;  -10.030;  769.441
479.805;  101.495;   -9.401;  783.375
480.393;  101.284;   -5.739; 1008.945
480.982;   99.689;   -7.838;  874.501
481.571;  107.451;   -9.111;  858.333
482.159;  107.853;  -10.601;  705.386
482.748;  107.553;   -8.500;  821.385
483.336;  111.958;   -9.241;  858.209
483.925;  112.613;  -10.440;  774.373
484.513;  119.712;  -11.063;  758.962
485.102;  115.875;   -9.540;  810.965
485.690;  124.037;   -6.742; 1011.050
486.278;  125.925;   -8.442;  979.329
486.867;  126.538;  -10.472;  809.662
487.455;  129.077;   -8.811;  898.229
488.043;  130.640;  -10.721;  748.361
488.631;  139.662;  -10.393; 1005.079
489.220;  144.609;  -10.843;  908.626
489.808;  142.994;  -10.572;  741.415
490.396;  151.757;  -10.482;  914.645
490.984;  157.376;  -11.542;  830.161
491.572;  167.761;   -8.463;  940.315
492.160;  174.776;   -8.491;  919.081
492.748;  186.110;   -9.681;  884.341
493.336;  207.776;  -10.493; 1019.693
493.924;  235.169;   -9.354;  958.077
494.512;  268.211;   -9.132; 1066.638
495.100;  308.969;   -9.001; 1103.280
495.687;  361.642;  -11.924; 1206.373
496.275;  436.368;  -11.193; 1150.796
496.863;  518.483;   -9.241; 1281.171
497.451;  623.551;  -11.341; 1386.805
498.038;  745.808;  -11.364; 1556.729
498.626;  862.084;   -8.104; 1741.407
499.214; 1051.575;   -8.842; 2016.609
499.801; 1295.417;  -10.112; 2220.633
500.389; 1495.680;  -11.953; 2312.494
500.976; 1665.471;  -10.023; 2744.849
501.564; 1903.501;   -8.662; 3148.565
502.151; 2268.716;  -10.531; 3515.999
502.738; 2698.673;  -13.853; 3971.274
503.326; 3202.175;  -10.794; 4403.796
503.913; 3677.060;   -8.663; 5161.749
504.500; 4123.328;  -10.172; 5986.420
505.088; 4933.669;  -13.472; 6381.201
505.675; 5532.691;  -10.924; 6925.547
506.262; 5750.500;   -8.551; 7619.060
506.849; 6501.530;  -10.523; 8733.969
507.436; 7605.182;  -10.834; 9790.121
508.023; 8033.614;   -9.093; 9985.472
508.610; 8318.352;  -10.073;10434.618
509.197; 9323.021;   -9.500;11198.435
509.784;10980.024;  -13.242;12391.194
510.371;11832.100;  -10.964;13603.713
510.958;12371.576;   -9.772;14426.586
511.545;12804.068;   -7.842;15243.775
512.132;12954.817;  -12.184;15945.876
512.719;14346.249;   -9.733;16340.369
513.305;16769.855;   -9.172;18011.766
513.892;17849.926;   -9.581;19754.971
514.479;18718.898;  -10.253;20967.805
515.066;19252.656;   -8.183;22299.793
515.652;20430.119;   -9.253;22908.660
516.239;21999.854;   -9.412;23798.875
516.825;23379.203;  -11.153;25567.275
517.412;23139.732;  -10.263;28154.959
517.998;22561.617;   -8.802;28344.111
518.585;22698.334;  -10.401;27134.219
519.171;23146.252;  -12.744;27268.576
519.758;24914.523;  -11.793;28964.129
520.344;27469.516;   -8.912;30664.494
520.930;29588.467;  -10.901;32550.605
521.516;28718.678;  -12.034;35422.895
522.103;29205.818;  -10.473;38280.004
522.689;30969.502;   -8.311;37835.117
523.275;31909.617;  -10.691;37288.613
523.861;31335.828;  -11.193;37281.395
524.447;28389.482;  -11.484;37846.949
525.033;29151.625;   -7.702;38321.949
525.619;31020.738;  -11.241;38579.285
526.205;33029.059;  -12.152;40622.875
526.791;35205.016;  -11.423;42258.836
527.377;36404.934;   -7.981;42966.902
527.963;36508.988;   -9.450;42018.949
528.549;37017.531;  -11.351;42476.828
529.135;38070.270;  -10.202;41854.852
529.721;38607.223;   -8.672;41237.711
530.306;38088.773;   -9.111;41259.445
530.892;39701.102;  -11.252;41506.047
531.478;41890.316;  -10.432;43559.613
532.063;43531.879;  -10.721;47695.563
532.649;44855.352;   -7.450;50808.324
533.235;46414.883;  -11.811;51787.500
533.820;45962.453;   -9.383;52145.035
534.406;43527.422;   -9.400;51133.488
534.991;42061.055;   -8.861;49996.805
535.576;42627.227;  -10.612;48882.852
536.162;40171.813;   -7.322;46942.285
536.747;40396.781;   -9.360;45711.746
537.333;42739.711;  -10.450;48510.180
537.918;45627.184;  -12.610;50439.891
538.503;45716.633;  -12.132;50863.711
539.088;43317.461;  -10.831;50906.922
539.673;43191.215;  -11.220;52621.965
540.259;45179.754;  -11.481;52368.094
540.844;44570.441;  -11.462;50879.109
541.429;44948.793;   -7.869;52077.777
542.014;40856.980;  -11.859;52716.695
542.599;36731.066;  -11.061;52363.281
543.184;38144.270;  -12.300;53187.137
543.769;43556.473;   -9.369;54697.605
544.354;47010.383;  -12.020;53913.914
544.938;44039.016;  -10.350;49680.164
545.523;41254.223;  -10.841;47386.277
546.108;44922.645;   -8.579;49151.949
546.693;47931.484;   -8.818;51384.637
547.278;48770.211;  -11.331;51853.254
547.862;48355.070;  -10.292;51173.750
548.447;47507.914;   -8.349;51691.395
549.031;46854.000;  -10.838;52456.703
549.616;47749.453;  -11.681;52714.516
550.201;49462.430;  -11.140;52414.598
550.785;47149.609;   -8.649;52355.059
551.370;48163.199;  -11.889;54589.453
551.954;48835.148;  -11.239;58267.348
552.538;50626.035;   -8.850;59062.176
553.123;52455.211;  -10.829;58115.285
553.707;52686.469;   -8.887;56556.285
554.291;50245.941;  -10.430;56201.668
554.876;49948.090;   -9.799;55335.762
555.460;47149.641;  -10.018;54155.703
556.044;46285.168;   -7.307;53721.484
556.628;49442.961;  -12.229;53731.016
557.212;50067.711;   -9.820;54312.531
557.796;48293.172;   -9.109;53797.773
558.380;45524.449;   -9.707;56145.984
558.964;47551.348;  -10.980;57277.930
559.548;50792.535;  -12.010;56459.641
560.132;51607.109;   -7.928;54434.543
560.716;54949.113;  -10.247;54800.617
561.300;56128.688;  -11.250;57606.945
561.884;54168.355;  -10.568;58972.445
562.467;51716.660;   -9.727;57327.570
563.051;47565.117;  -11.847;54962.434
563.635;46875.961;  -10.747;52594.473
564.219;45947.902;  -13.108;50610.410
564.802;44152.945;  -11.417;49551.180
565.386;41628.086;  -10.457;48370.953
565.969;44268.480;   -8.959;48178.871
566.553;45148.586;  -10.328;49957.305
567.136;44626.207;  -10.257;50369.594
567.720;43894.070;  -10.186;49492.004
568.303;43599.031;  -10.027;50616.352
568.887;44244.832;  -10.397;50727.148
569.470;45616.168;   -8.185;51698.379
570.053;44003.223;  -11.596;52122.078
570.637;41645.316;  -11.378;52536.438
571.220;40502.320;   -9.138;51186.098
571.803;39957.625;   -7.675;51032.762
572.386;39941.496;   -8.976;49609.887
572.969;41472.590;  -12.477;48285.926
573.552;41329.621;   -9.767;47624.285
574.135;39550.199;   -8.175;45498.641
574.718;35288.301;  -11.096;41970.434
575.301;33718.602;  -11.966;41447.137
575.884;32148.898;  -12.836;40923.836
576.467;37570.988;   -9.116;45267.723
577.050;40027.535;  -10.536;48175.543
577.633;39626.484;  -11.027;47729.328
578.216;38429.219;   -9.946;47579.793
578.799;38309.066;   -9.645;47820.996
579.381;37606.395;   -9.446;48115.551
579.964;37707.605;  -12.217;47333.766
580.547;38738.055;  -10.586;46668.969
581.129;38337.504;   -8.374;44466.141
581.712;37840.988;  -10.434;44164.922
582.294;37419.215;  -10.896;46477.855
582.877;37986.805;   -8.906;48244.254
583.459;37660.898;   -9.994;47437.895
584.042;36508.957;  -10.084;46943.219
584.624;35811.895;  -13.534;46792.227
585.206;36040.957;  -12.716;46557.250
585.789;35925.273;  -11.614;45793.773
586.371;35502.758;  -10.203;43836.391
586.953;33837.523;  -10.314;42972.492
587.536;32127.313;   -9.776;42487.211
588.118;32454.672;   -9.821;42086.414
588.700;33291.680;  -10.073;43389.930
589.282;34915.539;  -12.395;43646.039
589.864;35175.098;  -11.514;43438.109
590.446;35182.926;  -10.803;43151.926
591.028;36455.770;  -11.043;42781.867
591.610;36311.863;  -13.244;42839.098
592.192;33421.766;  -11.095;42820.402
592.774;30908.486;  -10.823;40724.277
593.356;30404.986;  -11.052;39874.789
593.937;31734.414;  -11.664;39980.648
594.519;33632.430;  -10.454;42069.633
595.101;34173.313;  -10.322;42976.031
595.683;33516.785;  -10.042;44084.441
596.264;32211.043;  -14.334;43478.797
596.846;32450.920;  -10.863;43803.672
597.427;33518.824;   -9.901;42986.934
598.009;33409.215;  -10.911;42832.219
598.591;32867.738;  -10.483;42580.086
599.172;31928.424;   -9.663;43061.805
599.753;31155.967;  -10.631;41691.469
600.335;31046.215;   -9.371;40692.520
600.916;32747.094;  -13.992;39982.422
601.498;33893.391;   -8.352;40318.617
602.079;32202.236;   -8.411;40670.609
602.660;34464.793;  -10.841;41450.898
603.241;34624.102;  -12.963;41137.738
603.823;31941.443;  -11.523;38868.797
604.404;30163.586;  -11.881;38182.785
604.985;31468.576;  -11.721;38078.047
605.566;32313.732;   -9.293;38056.633
606.147;31298.977;  -10.940;37020.418
606.728;30776.643;  -11.840;37883.359
607.309;30556.922;  -11.781;38748.273
607.890;30508.270;  -11.262;38850.230
608.471;28843.389;  -10.111;37457.918
609.051;28554.336;   -7.709;36066.457
609.632;28928.928;  -12.409;35991.074
610.213;27854.121;  -10.811;37402.641
610.794;28276.988;  -11.630;38383.363
611.374;30043.717;   -8.030;40562.387
611.955;31557.092;  -10.809;38533.727
612.536;32645.436;  -10.531;36951.789
613.116;32341.076;  -12.820;37197.891
613.697;31696.041;  -11.419;38411.125
614.277;31053.406;   -9.768;38673.938
614.858;30289.381;  -10.251;37075.863
615.438;26661.619;  -11.981;35092.906
616.019;25585.627;   -8.978;33666.301
616.599;28406.129;  -12.219;34189.023
617.179;30789.240;  -14.170;36952.047
617.760;32711.859;   -9.211;39582.574
618.340;33336.586;   -9.018;38943.977
618.920;31366.775;   -9.249;37594.156
619.500;31669.350;  -12.728;37866.938
620.080;33937.188;  -12.939;37869.043
620.660;32260.658;  -11.586;36868.617
621.241;30950.025;  -11.538;36352.309
621.821;31334.807;  -11.398;35459.520
622.401;32615.676;  -10.179;35207.414
622.980;32426.057;  -11.587;35980.422
623.560;31391.623;  -12.888;37351.328
624.140;29053.424;  -13.149;34388.582
624.720;24382.516;   -9.928;32368.764
625.300;24417.471;  -10.869;32638.629
625.880;28637.689;   -8.617;34599.035
626.459;32550.674;  -12.138;36831.738
627.039;33655.277;  -12.267;38299.098
627.619;34046.086;   -7.476;38289.574
628.198;34531.773;  -11.347;37220.695
628.778;33553.828;  -11.678;37632.563
629.357;31228.697;  -12.438;38003.012
629.937;29358.070;   -9.576;38402.039
630.516;28204.932;  -11.096;37868.801
631.096;28273.535;  -11.828;35760.410
631.675;29388.344;  -11.565;35225.219
632.254;30144.533;  -11.845;35130.289
632.834;30808.289;  -11.545;35794.570
633.413;31709.326;  -10.887;35788.922
633.992;33158.055;  -10.175;34532.863
634.571;32150.428;   -9.704;33590.113
635.151;29705.617;  -10.815;34943.863
635.730;29661.855;  -11.617;35352.523
636.309;29705.795;  -10.836;35366.605
636.888;30692.828;   -9.755;36165.637
637.467;30947.145;  -11.684;37515.902
638.046;32794.621;  -11.987;39288.695
638.625;33559.070;  -10.455;38279.699
639.204;32373.104;  -11.234;37741.598
639.782;29479.963;  -12.023;38364.551
640.361;27974.660;  -11.506;36740.621
640.940;27791.834;  -12.316;34950.082
641.519;29473.445;  -11.616;34137.398
642.097;32803.820;   -9.266;35654.258
642.676;33111.488;  -12.936;35637.957
643.255;32727.717;   -9.966;36567.074
643.833;33192.473;   -8.916;37809.434
644.412;34814.066;  -10.936;37337.293
644.990;36499.500;  -12.176;37018.531
645.569;36050.719;  -12.246;36518.469
646.147;34778.590;  -12.107;36186.430
646.726;34460.953;  -12.937;36267.688
647.304;37904.242;  -12.547;36647.625
647.882;38211.535;  -12.597;39286.742
648.461;35857.570;   -9.427;39157.703
649.039;33607.938;   -8.937;35412.883
649.617;32514.678;  -11.067;34744.918
650.195;32514.217;  -10.657;35403.098
650.773;31503.781;  -10.097;35053.797
651.352;29407.152;  -11.887;33756.816
651.930;25140.514;  -13.557;31868.773
652.508;22491.820;  -11.767;33121.551
653.086;23504.709;  -10.777;33564.793
653.663;27101.703;  -12.067;34054.668
654.241;30217.557;  -14.918;35693.309
654.819;31349.424;  -11.788;36422.906
655.397;30717.543;  -11.268;38213.484
655.975;31522.330;  -11.738;39507.625
656.553;31561.672;  -11.018;39498.223
657.130;30494.416;  -12.848;40395.480
657.708;30046.580;  -10.098;39242.020
658.286;31147.518;  -11.678;38920.020
658.863;32458.449;  -11.498;40202.898
659.441;33316.578;  -11.008;39677.938
660.018;33655.531;  -11.048;40413.355
660.596;33123.289;  -12.058;39931.414
661.173;33505.324;  -14.158;39604.531
661.750;33383.762;  -12.298;39700.070
662.328;33001.676;  -10.699;39292.809
662.905;31872.316;  -12.119;38235.648
663.482;27782.518;  -11.829;36212.305
664.060;26494.148;  -11.009;35944.945
664.637;28906.859;  -10.369;35170.785
665.214;29299.350;  -10.459;34197.523
665.791;27858.719;  -12.599;34549.520
666.368;27394.049;  -12.919;35118.578
666.945;29197.924;  -10.699;36019.418
667.522;30094.709;  -11.359;36048.438
668.099;30198.514;  -13.529;36243.914
668.676;30100.533;  -10.229;35958.875
669.253;29892.031;   -9.279;37384.730
669.830;29615.596;  -11.370;36779.629
670.407;31133.928;  -10.950;35231.289
670.984;32402.775;  -12.850;35544.270
671.560;32092.240;   -8.440;35466.867
672.137;30133.348;  -13.520;34280.863
672.714;28668.021;  -13.620;34632.863
673.290;28472.014;  -10.450;35135.422
673.867;27470.148;  -10.960;36114.480
674.443;26113.014;  -13.300;36152.859
675.020;26930.770;  -12.370;35327.238
675.596;27268.986;  -11.250;35795.176
676.173;27830.807;  -11.080;35430.355
676.749;28278.123;  -13.220;33549.516
677.326;31424.355;  -13.000;32210.012
677.902;32474.576;  -12.701;32068.871
678.478;31604.627;  -12.801;32583.891
679.054;30827.398;   -8.601;32088.928
679.631;32694.879;  -12.631;30978.848
680.207;32824.793;   -9.451;33160.887
680.783;30767.896;  -11.701;35570.363
681.359;30500.760;  -12.701;36125.184
681.935;30157.068;  -13.271;35240.922
682.511;29243.141;  -10.791;34429.961
683.087;29850.426;  -10.791;34463.680
683.663;29903.313;   -8.121;34648.898
684.239;31501.504;  -13.261;34546.457
684.815;30530.271;  -10.581;35586.375
685.390;28044.631;   -9.961;35821.895
685.966;27069.322;  -11.182;35085.871
686.542;26504.637;  -13.512;34198.230
687.118;26808.039;  -11.472;32847.707
687.693;27118.533;  -10.152;32794.027
688.269;28608.822;  -14.442;33072.367
688.844;29743.373;  -11.852;33141.664
689.420;27650.664;  -13.942;33965.742
689.995;26249.023;   -9.702;34655.523
690.571;26583.645;  -11.312;33576.742
691.146;26139.582;  -14.332;32657.219
691.722;27948.148;  -11.192;32526.979
692.297;29941.049;  -10.962;33014.617
692.872;28894.701;  -11.082;34012.254
693.448;28166.438;  -14.732;34237.434
694.023;27481.318;  -12.363;34142.672
694.598;27563.307;  -12.393;34132.031
695.173;26993.523;  -11.023;34205.250
695.748;26976.238;  -12.743;32882.488
696.323;28458.822;  -11.103;32864.906
696.898;29820.645;   -8.123;33170.004
697.473;29492.695;  -12.603;32432.984
698.048;28448.447;  -12.553;31649.303
698.623;29708.941;  -12.573;30778.141
699.198;32356.371;  -12.743;31140.119
699.773;30017.320;  -12.843;31764.299
700.348;29211.813;  -16.683;31780.816
700.922;29970.139;  -11.403;32046.375
701.497;30795.564;  -11.253;32603.574
702.072;30918.809;  -10.044;34799.871
702.646;29618.289;  -13.054;35793.172
703.221;28082.326;  -11.414;35201.590
703.795;28583.277;  -10.644;34764.527
704.370;30053.672;  -13.484;34307.367
704.944;29477.324;  -12.144;33509.887
705.519;28350.049;  -12.024;31388.584
706.093;27287.039;  -11.234;31340.104
706.668;26140.379;   -9.874;32630.281
707.242;25765.525;  -12.404;32728.779
707.816;25338.033;  -10.644;32947.238
708.390;25087.523;  -11.174;33277.855
708.965;25762.613;  -10.324;33834.336
709.539;24925.100;  -12.014;33709.273
710.113;24858.273;  -12.295;33044.313
710.687;25579.260;  -10.965;31953.992
711.261;25902.072;  -13.685;30505.949
711.835;25083.227;  -15.335;30262.369
712.409;24425.986;  -13.785;31254.447
712.983;25817.848;  -10.525;32754.986
713.557;27502.412;  -13.175;34018.824
714.131;28337.988;  -13.245;34579.625
714.704;29445.723;  -13.175;33890.262
715.278;30882.213;  -11.545;33531.102
715.852;30185.016;  -10.975;33601.660
716.425;29806.588;  -10.075;33515.117
716.999;29795.332;  -12.185;33185.555
717.573;30602.332;   -9.685;33905.996
718.146;32274.615;  -10.516;35199.293
718.720;29076.188;  -12.106;35060.551
719.293;28397.744;  -12.386;34973.230
719.867;30857.570;  -12.456;36394.449
720.440;30568.834;  -10.686;36663.008
721.013;30304.873;  -12.596;35102.426
721.587;30604.477;  -13.956;33985.266
722.160;30091.348;   -9.806;33524.965
722.733;30254.268;  -11.676;32987.043
723.306;29873.266;  -14.276;33066.301
723.880;29451.270;  -12.126;33399.500
724.453;30164.416;  -10.156;33468.297
725.026;29167.166;  -12.956;33816.637
725.599;27645.789;  -11.676;32797.996
726.172;26690.668;  -12.337;33187.434
726.745;27546.305;  -11.277;35136.613
727.318;26902.172;  -11.927;35751.730
727.891;25929.117;  -13.607;35890.430
728.463;26188.402;  -11.327;34822.090
729.036;25644.318;  -11.917;32895.086
729.609;26262.602;  -12.697;31823.225
730.182;27256.408;  -11.787;31445.283
730.754;27915.758;  -12.957;32373.223
731.327;28303.188;  -11.017;33676.820
731.900;27090.701;  -12.797;33417.000
732.472;25239.869;  -10.677;31978.498
733.045;24525.094;  -12.797;30368.777
733.617;24999.117;  -13.908;30574.215
734.190;25081.709;  -12.258;31280.975
734.762;26273.391;  -13.438;31674.412
735.334;26530.152;  -11.758;31247.291
735.907;26526.363;  -11.158;29876.211
736.479;27507.758;  -11.258;29808.488
737.051;29051.010;  -10.918;30233.547
737.623;30098.398;  -11.038;31469.086
738.195;29888.496;  -12.188;31784.225
738.768;27249.443;  -11.378;32120.523
739.340;26332.572;  -12.598;32094.342
739.912;26994.127;  -11.568;31312.680
740.484;26650.617;   -9.348;31946.238
741.056;26219.451;  -12.628;32984.059
741.628;26850.111;  -13.349;33897.715
742.199;27294.568;  -11.309;33213.016
742.771;27415.354;  -12.699;31369.113
743.343;29285.795;  -11.919;31865.473
743.915;29608.553;  -11.679;32388.631
744.487;28113.146;  -12.249;31079.568
745.058;26407.543;  -11.119;30570.107
745.630;24940.975;   -9.439;29970.127
746.201;24343.168;  -11.949;29186.766
746.773;24105.098;  -12.639;28805.723
747.344;23661.055;  -11.039;29591.223
747.916;22705.182;  -12.549;31412.201
748.487;21830.994;  -12.659;32194.898
749.059;21784.879;  -13.059;32533.719
749.630;22988.889;  -12.080;32158.518
750.201;22202.449;  -13.100;30855.395
750.773;20730.217;  -15.310;28622.555
751.344;20503.084;  -12.240;28405.732
751.915;20565.678;  -11.960;28461.551
752.486;20532.865;  -13.200;27842.850
753.057;20400.303;  -15.230;27845.008
753.628;20361.494;  -13.130;27728.107
754.199;20680.373;  -12.720;27381.086
754.770;20631.627;  -10.680;25882.203
755.341;20692.891;  -11.010;25886.184
755.912;20061.084;  -12.990;26050.861
756.483;18902.324;  -11.110;26798.779
757.054;18171.543;  -12.190;27048.238
757.625;18231.598;  -13.981;26294.838
758.195;18476.387;  -11.041;26142.076
758.766;19624.520;  -11.861;26392.234
759.337;20307.518;  -11.461;26334.594
759.907;20423.965;  -15.001;27579.652
760.478;20156.314;   -9.681;28352.770
761.048;19740.545;  -12.421;27325.088
761.619;19064.750;  -11.761;26460.428
762.189;17828.563;  -12.391;26029.826
762.760;17632.246;  -10.201;26430.145
763.330;18741.133;  -10.811;26670.902
763.900;21006.281;  -10.261;26603.021
764.471;20549.758;  -13.061;25542.740
765.041;19100.281;  -11.051;24358.459
765.611;19229.609;  -11.032;23991.297
766.181;19170.076;  -10.532;24470.236
766.751;18796.223;  -13.502;24845.975
767.321;18936.623;  -11.392;24533.633
767.891;19342.697;  -11.522;24916.492
768.461;19936.521;  -13.672;24776.771
769.031;19398.211;  -14.652;24757.988
769.601;18289.559;  -10.182;24181.088
770.171;16624.557;  -11.752;23670.387
770.741;15548.635;  -12.272;22960.045
771.311;15745.733;  -13.112;22917.523
771.880;15885.232;  -14.122;23562.941
772.450;16885.799;  -11.782;24216.500
773.020;18308.768;  -12.642;24140.398
773.589;17581.041;  -13.043;24414.857
774.159;15673.458;  -11.783;23858.717
774.729;14918.409;  -13.473;22942.135
775.298;16143.354;  -14.523;22324.033
775.867;17052.031;  -12.013;21140.313
776.437;16049.248;  -12.113;20838.092
777.006;14454.217;  -13.543;20599.510
777.576;12870.862;  -12.523;20508.809
778.145;12727.870;  -12.173;20732.947
778.714;14050.807;  -12.153;21062.465
779.283;14584.829;  -11.833;20949.664
779.853;15153.167;  -13.483;20508.623
780.422;15816.453;  -12.933;20649.082
780.991;15255.495;  -13.173;21527.520
781.560;13708.229;  -10.224;22632.658
782.129;13256.913;  -12.684;23048.277
782.698;14516.114;  -11.284;23438.555
783.267;15572.728;  -11.684;23267.734
783.836;14587.073;  -10.974;22415.133
784.404;13201.168;  -13.534;20443.152
784.973;12946.896;  -16.734;19699.150
785.542;12924.998;  -12.594;19763.828
786.111;12769.487;  -11.644;20341.408
786.679;13511.113;  -11.384;20207.967
787.248;14437.094;  -12.014;19516.465
787.817;13498.907;  -12.804;18900.363
788.385;12387.881;  -11.994;17879.121
788.954;12399.403;  -12.564;17658.301
789.522;13572.809;  -12.225;17788.879
790.090;13640.909;  -13.775;18118.277
790.659;12620.854;  -12.485;18338.736
791.227;12171.463;  -12.295;18508.615
791.795;12240.198;  -13.415;17898.254
792.364;11720.595;  -12.995;17295.133
792.932;11231.877;   -8.365;16822.051
793.500;11367.946;  -11.925;17040.148
794.068;11522.254;  -13.245;17179.787
794.636;11564.309;  -13.815;16664.246
795.204;11087.129;  -13.375;16524.545
795.772;11083.964;  -12.125;17274.564
796.340;11428.323;  -13.855;17891.002
796.908;11640.063;  -13.456;17648.561
797.476;11052.918;  -13.116;17064.080
798.044;10666.463;  -13.226;16672.777
798.612;11460.406;  -11.236;17023.996
799.180;12395.158;  -10.476;16561.615
799.747;12462.708;  -11.746;15962.773
800.315;11539.809;  -12.366;15296.992
800.883;10631.124;  -14.616;14801.771
801.450;10307.438;  -11.996;14534.430
802.018;10814.950;  -11.206;14173.248
802.585;10333.700;  -12.466;14029.547
803.153; 9335.235;  -12.846;13836.846
803.720; 8961.622;  -12.136;13567.324
804.287; 8945.120;  -10.966;13360.622
804.855; 9346.622;   -9.797;13681.981
805.422; 9283.587;  -13.037;13536.560
805.989; 8944.168;  -12.697;13355.958
806.556; 9157.520;  -11.737;13747.896
807.124; 9482.300;  -11.997;13987.376
807.691; 9011.224;  -13.997;14038.674
808.258; 8836.732;  -10.927;14120.152
808.825; 9380.952;  -13.727;13860.111
809.392; 9885.501;  -11.847;13268.790
809.959; 9193.175;  -14.217;12680.389
810.526; 8276.393;   -8.277;12427.308
811.093; 8142.194;   -9.647;12030.105
811.659; 8024.781;  -10.987;11653.664
812.226; 7560.174;  -13.447;11637.183
812.793; 7607.141;  -14.418;11611.521
813.360; 8044.178;  -13.908;11885.181
813.926; 8160.686;  -12.918;12770.539
814.493; 8107.489;  -14.888;12677.638
815.060; 8141.022;  -12.758;11974.336
815.626; 8312.451;  -13.478;11594.715
816.193; 8290.261;  -13.898;11579.474
816.759; 8134.607;  -13.588;11666.972
817.325; 8167.475;  -12.018;11325.530
817.892; 7754.318;  -14.068;11105.369
818.458; 7001.902;  -13.458;10843.928
819.024; 6711.692;  -11.968;10714.406
819.591; 6386.963;  -11.028;10469.165
820.157; 6091.675;  -12.088;10235.523
820.723; 5928.016;  -12.599;10847.563
821.289; 6203.948;  -10.419;11040.980
821.855; 6970.135;  -10.939;10357.100
822.421; 7543.616;  -12.539; 9978.918
822.987; 7381.488;  -13.259; 9754.177
823.553; 6685.712;  -15.369;10065.755
824.119; 6392.135;  -10.779;10036.294
824.685; 5933.368;   -9.999;10029.192
825.251; 5535.979;  -11.819;10199.230
825.816; 5322.587;  -13.369; 9820.189
826.382; 5511.062;  -12.679; 9297.248
826.948; 5755.136;  -11.199; 9381.347
827.513; 5563.680;  -11.179; 9450.726
828.079; 5471.377;  -13.489; 9472.444
828.645; 5726.677;  -12.500; 9292.643
829.210; 5974.473;  -15.120; 9065.341
829.776; 5811.563;  -12.590; 9132.620
830.341; 5599.858;  -11.540; 9092.878
830.906; 5596.977;  -12.400; 9078.557
831.472; 5480.360;  -12.720; 8534.535
832.037; 5015.147;  -11.490; 8677.874
832.602; 4525.952;  -14.380; 8628.692
833.167; 4692.902;  -12.780; 8879.031
833.733; 4982.915;  -11.100; 9189.790
834.298; 5250.191;  -12.080; 9052.608
834.863; 5187.171;  -13.910; 8895.087
835.428; 4880.925;  -13.470; 8824.266
835.993; 5145.927;  -11.760; 8845.385
836.558; 5583.718;  -12.731; 8888.563
837.123; 5710.855;  -12.431; 8966.582
837.688; 5505.969;  -11.241; 8617.860
838.253; 5196.748;  -13.681; 8590.699
838.817; 4938.312;  -12.531; 8443.797
839.382; 5089.113;  -12.671; 8799.356
839.947; 5037.753;  -11.541; 8810.595
840.511; 4855.499;  -12.021; 8796.394
841.076; 4838.544;  -13.071; 8347.231
841.641; 4715.698;  -11.411; 8224.330
842.205; 4550.500;  -13.671; 8223.349
842.770; 4553.158;  -11.291; 8622.107
843.334; 4649.337;  -12.951; 8410.386
843.898; 4717.438;  -11.221; 8337.465
844.463; 4680.865;  -11.322; 8506.283
845.027; 4437.369;  -11.412; 8280.962
845.591; 4134.847;  -11.512; 8231.141
846.156; 4202.988;  -14.042; 7969.179
846.720; 4423.611;  -12.152; 7768.278
847.284; 4478.626;  -10.922; 7630.957
847.848; 4248.089;  -10.962; 7472.395
848.412; 3936.225;  -14.612; 7437.394
848.976; 3917.606;  -11.492; 7674.592
849.540; 3991.269;   -9.172; 7836.011
850.104; 4386.551;  -11.232; 7913.669
850.668; 4717.262;  -15.182; 7694.508
851.232; 4371.163;  -15.332; 7756.887
851.796; 4104.969;  -13.703; 7926.545
852.359; 4164.795;  -11.113; 7827.844
852.923; 4082.917;  -11.843; 7641.163
853.487; 3926.622;  -11.173; 7342.501
854.050; 3720.300;  -13.443; 7042.820
854.614; 3592.163;  -13.823; 7151.338
855.177; 3667.407;  -16.393; 7105.077
855.741; 3754.760;  -11.693; 6989.675
856.304; 3732.934;  -10.843; 6596.634
856.868; 3632.953;  -13.783; 6356.272
857.431; 3414.296;  -11.953; 6468.571
857.995; 3281.565;  -13.683; 6373.210
858.558; 3272.521;  -11.433; 6324.448
859.121; 3249.412;  -12.493; 6408.327
859.684; 3280.769;  -12.384; 6347.886
860.247; 3279.210;  -14.774; 6321.264
860.810; 3111.435;  -13.154; 6301.903
861.374; 2969.419;  -11.264; 6607.881
861.937; 2916.303;  -15.424; 6408.200
862.500; 2952.707;  -12.854; 6572.639
863.062; 3004.576;  -12.344; 6387.297
863.625; 3003.190;  -13.314; 6190.836
864.188; 2851.246;  -14.724; 5807.254
864.751; 2786.998;  -13.464; 5682.413
865.314; 2801.678;  -11.684; 5547.492
865.876; 2893.861;  -11.104; 5500.150
866.439; 3028.538;  -12.344; 5415.909
867.002; 3034.921;  -13.494; 5501.567
867.564; 3019.700;  -10.935; 5413.946
868.127; 2882.539;  -12.665; 5160.325
868.689; 2709.016;  -14.515; 5133.183
869.252; 2731.506;  -13.425; 5252.382
869.814; 2802.314;  -11.595; 5297.141
870.377; 2845.651;  -12.175; 5390.919
870.939; 2753.313;  -10.265; 5599.898
871.501; 2674.510;  -12.375; 5248.336
872.063; 2641.652;  -14.355; 4854.235
872.626; 2668.226;  -14.435; 4817.074
873.188; 2579.290;  -12.415; 4987.732
873.750; 2502.020;  -14.555; 4868.651
874.312; 2482.489;  -11.185; 4779.330
874.874; 2338.437;  -12.715; 4866.348
875.436; 2031.019;  -13.196; 4718.887
875.998; 1729.465;  -11.426; 4660.005
876.560; 1485.429;   -9.786; 4462.964
877.122; 1334.620;  -12.796; 4145.042
877.683; 1260.586;  -13.226; 4056.481
878.245; 1241.501;  -12.036; 3950.740
878.807; 1264.566;  -11.536; 4058.958
879.369; 1356.664;  -10.806; 3954.677
879.930; 1504.843;  -13.946; 3941.495
880.492; 1584.362;  -11.876; 4067.014
881.053; 1500.752;  -13.216; 3859.633
881.615; 1433.690;  -12.226; 3776.071
882.176; 1427.315;  -12.946; 3734.750
882.738; 1454.731;  -10.736; 3678.489
883.299; 1429.613;  -12.057; 3405.407
883.860; 1355.284;  -12.677; 3351.106
884.422; 1320.363;  -14.097; 3394.044
884.983; 1281.881;  -13.667; 3166.443
885.544; 1225.389;  -10.717; 3189.802
886.105; 1168.955;  -14.357; 3160.360
886.666; 1107.677;  -14.287; 3093.059
887.227; 1047.724;  -14.297; 2941.957
887.788; 1001.288;  -13.137; 2974.836
888.349;  937.103;  -14.637; 2721.214
888.910;  876.682;  -12.247; 2696.493
889.471;  880.285;  -10.577; 2560.172
890.032;  891.157;  -12.937; 2558.190
890.593;  890.286;  -12.487; 2567.669
891.153;  866.116;  -11.898; 2460.307
891.714;  830.459;  -14.278; 2372.046
892.275;  808.379;  -13.308; 2309.505
892.835;  757.052;  -12.058; 2382.543
893.396;  675.419;  -15.268; 2295.502
893.956;  627.958;  -13.278; 2162.420
894.517;  606.917;  -11.968; 2125.439
895.077;  609.701;  -12.798; 2086.978
895.638;  587.337;  -11.908; 2126.316
896.198;  561.321;  -13.288; 1838.275
896.758;  536.720;  -12.198; 1892.813
897.319;  507.806;  -13.048; 1792.232
897.879;  473.882;  -13.718; 1762.751
898.439;  433.153;  -14.138; 1661.149
898.999;  401.170;  -13.659; 1781.468
899.559;  387.246;  -14.699; 1703.347
900.119;  368.332;  -14.339; 1537.525
900.679;  345.438;  -11.789; 1638.384
901.239;  317.134;  -13.629; 1527.902
901.799;  297.749;  -13.679; 1456.441
902.359;  286.858;  -13.679; 1357.140
902.919;  279.098;  -14.159; 1331.118
903.479;  265.991;  -13.419; 1317.257
904.038;  251.065;  -14.899; 1262.595
904.598;  236.210;  -14.339; 1152.034
905.158;  226.367;  -13.959; 1240.893
905.717;  220.115;  -12.749; 1233.691
906.277;  215.762;  -11.889; 1217.330
906.836;  209.974;  -12.870; 1222.408
907.396;  205.108;  -11.790; 1193.047
907.955;  199.041;  -13.750; 1182.526
908.515;  189.219;  -14.760; 1099.364
909.074;  184.257;  -12.540; 1092.863
909.633;  179.885;  -12.120; 1069.121
910.192;  174.844;  -12.550; 1196.460
910.752;  167.706;  -12.760; 1029.960
911.311;  164.837;  -14.750; 1009.780
911.870;  162.466;  -13.860;  971.460
912.429;  162.659;  -13.480; 1094.080
912.988;  162.580;  -12.370; 1081.060
913.547;  158.467;  -14.670;  940.380
914.106;  157.212;  -12.800;  999.420
914.665;  155.466;  -11.370;  984.020
915.224;  153.298;  -11.430; 1035.760
915.782;  151.042;  -12.260;  922.560
916.341;  151.940;  -12.540; 1049.840
916.900;  147.797;  -12.540;  925.260
917.458;  143.441;  -13.480;  884.220
918.017;  139.752;  -12.470;  942.600
918.576;  138.286;  -13.450;  904.440
919.134;  137.769;  -12.890;  837.980
919.693;  138.450;  -15.480;  893.060
920.251;  137.876;  -14.420;  876.500
920.809;  137.186;  -12.170;  839.580
921.368;  135.913;  -13.650;  885.360
921.926;  134.844;  -12.750;  842.940
922.484;  133.939;  -14.150;  903.360
923.042;  134.518;  -15.100;  880.340
923.601;  135.843;  -10.990;  998.680
924.159;  136.117;  -12.470;  935.560
924.717;  136.294;  -15.640;  841.080
925.275;  137.432;  -12.380;  903.240
925.833;  137.974;  -12.710;  779.320
926.391;  140.250;  -11.200;  938.380
926.949;  140.287;  -16.000;  857.680
927.506;  141.314;  -12.260;  903.500
928.064;  142.691;  -11.300;  877.580
928.622;  142.787;  -13.750;  880.100
929.180;  141.810;  -15.290;  814.180
929.737;  143.326;  -14.500;  808.540
930.295;  144.707;  -10.630;  928.480
930.853;  146.082;  -14.590;  849.100
931.410;  146.653;  -14.450;  821.120
931.968;  149.233;  -14.390;  940.660
932.525;  151.685;  -13.050;  909.380
933.082;  154.226;  -15.620;  811.440
933.640;  161.508;  -15.650;  925.900
934.197;  165.355;  -13.610;  886.360
934.754;  168.254;  -13.320;  897.780
935.312;  167.940;  -13.370;  863.340
935.869;  170.270;  -12.780; 1012.980
936.426;  172.631;  -14.480;  872.800
936.983;  174.767;  -13.180;  889.020
937.540;  174.904;  -15.710;  838.280
938.097;  175.774;  -14.980;  940.120
938.654;  175.151;  -13.060;  898.860
939.211;  173.338;  -12.760;  952.480
939.768;  173.657;  -16.230;  915.420
940.324;  178.114;  -10.940;  904.200
940.881;  182.707;  -12.570;  878.500
941.438;  186.743;  -13.650; 1021.200
941.995;  181.810;  -13.300;  992.560
942.551;  181.289;  -15.800;  875.620
943.108;  180.473;  -14.180;  937.920
943.664;  174.246;  -13.890;  869.340
944.221;  174.463;  -12.640; 1088.140
944.777;  173.182;  -14.700;  869.680
945.334;  176.514;  -13.010;  884.840
945.890;  176.166;  -13.480;  946.480
946.446;  175.117;  -14.920;  947.020
947.003;  176.065;  -13.860;  964.940
947.559;  176.825;  -12.000; 1063.040
948.115;  173.460;  -10.510; 1026.540
948.671;  171.344;  -12.760;  967.300
949.227;  169.332;  -15.390;  859.560
949.783;  165.959;  -15.570;  858.900
950.339;  164.924;  -12.800;  991.000
950.895;  162.585;  -13.780; 1023.840
951.451;  159.995;  -13.810;  925.280
952.007;  158.478;  -12.390;  998.540
952.563;  157.146;  -11.980;  937.780
953.118;  153.904;  -14.070;  904.940
953.674;  151.723;  -14.140;  935.780
954.230;  153.049;  -12.680;  949.640
954.785;  154.773;  -12.770;  936.640
955.341;  155.833;  -11.450;  998.160
955.897;  149.811;  -15.350;  834.660
956.452;  149.175;  -14.200;  953.840
957.008;  148.580;  -10.820; 1083.640
957.563;  144.593;  -13.200; 1009.540
958.118;  139.928;  -14.460;  877.700
958.674;  140.346;  -13.840;  946.780
959.229;  141.070;  -10.670; 1013.980
959.784;  142.518;  -17.040;  832.400
960.339;  144.310;  -12.970; 1001.280
960.894;  144.158;  -12.700;  963.760
961.449;  142.900;  -13.790;  859.960
962.004;  148.288;  -11.760; 1212.840
962.559;  147.503;  -14.840;  860.140
963.114;  147.470;  -14.530;  742.480
963.669;  149.623;  -12.780;  915.500
964.224;  147.159;  -14.330;  874.340
964.779;  143.392;  -14.380;  828.420
965.334;  139.342;  -12.460; 1017.860
965.888;  134.512;  -13.490;  875.360
966.443;  135.464;  -14.140;  972.380
966.998;  131.366;  -16.240;  819.460
967.552;  128.971;  -12.730;  908.380
968.107;  124.775;  -14.510;  868.300
968.661;  125.975;  -11.850;  922.440
969.216;  124.374;  -14.370;  856.280
969.770;  122.155;  -13.010;  917.200
970.324;  122.198;  -12.460;  923.140
970.879;  121.701;  -11.580;  947.180
971.433;  119.984;  -13.130;  952.720
971.987;  117.931;  -12.360;  895.340
972.541;  118.923;  -14.330;  917.100
973.095;  118.363;  -13.310; 1009.460
973.649;  116.631;  -15.830;  809.480
974.203;  119.433;  -15.830;  829.040
974.757;  122.766;  -13.480;  855.220
975.311;  122.163;  -13.720;  872.600
975.865;  118.638;  -15.780;  881.820
976.419;  115.099;  -14.290;  857.400
976.973;  113.801;  -13.210;  849.620
977.526;  112.722;  -12.300;  949.920
978.080;  108.520;  -14.840;  796.780
978.634;  108.613;  -13.100;  921.320
979.187;  105.289;  -12.300;  905.400
979.741;  101.920;  -12.020; 1018.380
980.294;   95.690;  -14.590;  789.160
980.848;   92.964;  -14.390;  717.220
981.401;   94.482;  -14.280;  816.540
981.955;   93.525;  -11.920;  844.300
982.508;   90.798;  -15.790;  746.340
983.061;   90.732;  -12.070;  915.260
983.615;   88.946;  -13.260;  798.800
984.168;   86.518;  -15.540;  770.080
984.721;   86.677;  -13.230;  880.760
985.274;   84.572;  -11.820;  867.500
985.827;   82.911;  -13.510;  834.220
986.380;   79.329;  -14.840;  721.340
986.933;   78.314;  -13.970;  864.800
987.486;   78.169;  -12.450;  861.920
988.039;   77.156;  -11.170;  863.100
988.591;   74.196;  -13.070;  893.260
989.144;   70.323;  -15.530;  737.260
989.697;   68.575;  -14.300;  758.740
990.250;   68.896;  -13.310;  858.100
990.802;   66.873;  -14.490;  755.860
991.355;   67.872;  -12.980;  974.880
991.907;   66.484;  -13.715;  864.320
992.460;   65.096;  -14.450;  753.760
993.012;   64.136;  -12.590;  749.540
993.565;   62.185;  -15.180;  711.360
994.117;   63.398;  -11.630;  950.780
994.669;   60.011;  -13.760;  701.320
995.221;   59.459;  -12.710;  791.920
995.774;   58.010;  -14.620;  787.580
996.326;   56.843;  -13.150;  740.220
996.878;   57.976;  -12.880;  838.420
997.430;   56.133;  -14.580;  699.860
997.982;   56.068;  -14.030;  750.140
998.534;   55.487;  -12.190;  739.060
999.086;   53.233;  -12.990;  738.220
999.638;   52.309;  -13.180;  661.380
1000.190;   51.058;  -14.970;  699.320
1000.741;   51.969;  -12.200;  742.700
1001.293;   51.405;  -13.400;  686.020
1001.845;   50.176;  -14.490;  676.640
1002.396;   51.587;  -15.280;  743.400
1002.948;   50.443;  -12.380;  737.400
1003.500;   49.766;  -13.260;  723.780
1004.051;   50.500;  -13.730;  907.580
1004.603;   49.120;  -12.300;  791.820
1005.154;   46.037;  -15.330;  608.980
1005.705;   45.325;  -12.800;  723.960
1006.257;   44.249;  -13.900;  707.220
1006.808;   43.720;  -14.430;  685.460
1007.359;   42.943;  -12.010;  763.240
1007.910;   41.403;  -12.690;  646.640
1008.461;   41.567;  -13.610;  732.940
1009.013;   40.132;  -14.990;  588.340
1009.564;   41.340;  -11.860;  793.520
1010.115;   38.412;  -12.640;  597.040
1010.665;   39.144;  -14.570;  602.160
1011.216;   39.127;  -15.190;  667.920
1011.767;   38.180;  -13.470;  697.920
1012.318;   38.658;  -13.760;  736.980
1012.869;   37.667;  -15.950;  679.000
1013.419;   36.799;  -15.880;  603.120
1013.970;   37.801;  -14.540;  666.640
1014.521;   37.081;  -13.220;  620.620
1015.071;   37.387;  -15.020;  670.380
1015.622;   35.611;  -17.510;  635.460
1016.172;   35.252;  -14.130;  596.820
1016.723;   35.252;  -14.220;  614.380
1017.273;   35.664;  -15.370;  604.160
1017.823;   35.972;  -15.290;  650.340
1018.374;   35.316;  -13.420;  611.760
1018.924;   35.018;  -11.740;  716.880
1019.474;   35.355;  -12.250;  718.880
1020.024;   33.273;  -15.850;  657.580
1020.574;   34.532;  -13.280;  726.160
1021.124;   34.444;  -13.560;  673.580
1021.674;   32.640;  -13.790;  559.120
1022.224;   34.054;  -14.610;  708.940
1022.774;   33.145;  -13.100;  668.820
1023.324;   33.834;  -11.470;  753.520
1023.874;   34.817;  -11.990;  875.760
1024.423;   32.321;  -14.550;  613.700
1024.973;   31.575;  -14.440;  610.760
1025.523;   31.352;  -13.250;  620.960
1026.072;   30.576;  -15.200;  606.420
1026.622;   30.823;  -14.590;  675.740
1027.172;   31.525;  -11.080;  715.660
1027.721;   30.657;  -14.010;  601.220
1028.270;   31.414;  -13.690;  663.400
1028.820;   30.442;  -15.380;  638.080
1029.369;   30.282;  -14.980;  612.700
1029.918;   30.311;  -13.100;  649.840
1030.468;   29.395;  -13.680;  564.780
1031.017;   30.095;  -13.770;  634.800
1031.566;   29.484;  -14.100;  608.900
1032.115;   29.908;  -11.770;  694.500
1032.664;   27.967;  -14.940;  596.480
1033.213;   29.560;  -13.370;  735.420
1033.762;   28.170;  -13.660;  635.620
1034.311;   28.623;  -13.650;  677.220
1034.860;   29.192;  -13.820;  691.000
1035.408;   28.401;  -12.860;  722.720
1035.957;   29.416;  -13.060;  719.540
1036.506;   26.791;  -14.510;  530.800
1037.055;   29.772;  -13.470;  844.320
1037.603;   27.842;  -14.800;  664.000
1038.152;   26.546;  -14.190;  534.760
1038.700;   26.647;  -11.810;  585.740
1039.249;   27.100;  -12.850;  681.220
1039.797;   26.756;  -14.610;  633.360
1040.345;   27.206;  -15.220;  705.420
1040.894;   26.450;  -13.480;  625.300
1041.442;   26.284;  -13.310;  632.200
1041.990;   24.672;  -14.510;  559.160
1042.538;   24.558;  -15.700;  536.180
1043.087;   25.152;  -13.910;  570.860
1043.635;   26.308;  -13.620;  670.500
1044.183;   25.168;  -14.230;  586.400
1044.731;   24.835;  -13.730;  576.000
1045.279;   24.521;  -13.970;  674.920
1045.827;   27.013;  -10.750;  892.400
1046.374;   23.315;  -15.230;  515.420
1046.922;   23.037;  -15.390;  590.580
1047.470;   24.378;  -12.320;  691.300
1048.018;   23.642;  -13.230;  647.960
1048.565;   25.060;  -13.390;  708.600
1049.113;   22.930;  -15.030;  557.000
1049.660;   23.297;  -12.540;  629.660
1050.208;   23.904;  -15.040;  675.640
1050.755;   22.354;  -14.680;  606.580
1051.303;   23.429;  -13.610;  686.820
1051.850;   22.515;  -14.340;  635.120
1052.397;   20.384;  -16.330;  473.960
1052.945;   21.729;  -15.710;  617.760
1053.492;   23.361;  -12.320;  741.840
1054.039;   22.825;  -13.730;  720.180
1054.586;   21.751;  -16.140;  557.240
1055.133;   22.165;  -14.020;  693.140
1055.680;   22.415;  -13.430;  646.620
1056.227;   21.359;  -14.570;  542.780
1056.774;   23.176;  -14.400;  794.980
1057.321;   21.238;  -14.230;  523.260
1057.868;   20.400;  -14.220;  651.320
1058.415;   21.141;  -14.060;  651.980
1058.961;   20.989;  -14.640;  678.940
1059.508;   20.866;  -13.970;  643.820
1060.055;   20.190;  -15.100;  581.780
1060.601;   20.732;  -12.180;  624.300
1061.148;   20.555;  -15.010;  616.820
1061.694;   19.998;  -14.750;  592.580
1062.241;   19.493;  -14.130;  596.320
1062.787;   20.265;  -14.770;  663.140
1063.334;   21.669;  -13.130;  808.560
1063.880;   20.106;  -14.420;  668.360
1064.426;   19.561;  -13.130;  706.820
1064.972;   19.257;  -13.960;  601.340
1065.518;   17.779;  -13.680;  566.640
1066.065;   18.938;  -15.720;  624.460
1066.611;   17.905;  -13.970;  598.800
1067.157;   18.729;  -13.920;  641.860
1067.703;   18.819;  -14.760;  668.480
1068.249;   18.587;  -14.490;  605.220
1068.794;   18.308;  -14.740;  626.880
1069.340;   17.366;  -13.220;  578.960
1069.886;   18.144;  -14.930;  590.700
1070.432;   16.464;  -14.700;  541.720
1070.977;   16.622;  -14.470;  601.080
1071.523;   17.389;  -14.330;  573.060
1072.068;   17.056;  -14.960;  582.000
1072.614;   16.520;  -16.220;  527.760
1073.160;   18.156;  -11.280;  687.040
1073.705;   16.515;  -15.990;  572.520
1074.250;   16.076;  -16.550;  559.900
1074.796;   16.769;  -14.600;  655.160
1075.341;   17.704;  -13.440;  664.100
1075.886;   17.270;  -14.450;  594.240
1076.431;   16.469;  -13.160;  649.880
1076.976;   15.561;  -14.710;  639.220
1077.521;   15.144;  -14.000;  583.080
1078.067;   15.284;  -14.470;  579.400
1078.612;   15.507;  -14.530;  661.620
1079.156;   15.913;  -15.660;  601.540
1079.701;   16.132;  -16.120;  693.260
1080.246;   16.451;  -12.960;  696.300
1080.791;   16.248;  -13.700;  625.020
1081.336;   15.324;  -15.540;  659.320
1081.880;   15.230;  -14.640;  649.680
1082.425;   14.719;  -14.220;  573.480
1082.970;   16.967;  -11.890;  717.040
1083.514;   14.142;  -13.820;  597.000
1084.059;   14.027;  -14.280;  586.720
1084.603;   13.899;  -12.890;  565.840
1085.147;   14.448;  -13.590;  645.220
1085.692;   15.322;  -14.050;  716.800
1086.236;   12.465;  -14.990;  503.140
1086.780;   15.262;  -12.640;  751.440
1087.325;   14.548;  -15.550;  654.620
1087.869;   14.461;  -14.980;  610.700
1088.413;   14.083;  -13.440;  705.040
1088.957;   12.530;  -12.170;  543.400
1089.501;   15.283;  -12.730;  766.640
1090.045;   13.650;  -14.650;  726.480
1090.589;   12.255;  -14.500;  569.920
1091.133;   13.338;  -12.320;  673.340
1091.676;   12.933;  -16.130;  591.940
1092.220;   12.081;  -13.930;  600.920
1092.764;   13.556;  -12.820;  706.960
1093.307;   13.333;  -11.700;  673.780
1093.851;   11.452;  -15.600;  556.540
1094.395;   12.530;  -13.920;  683.140
1094.938;   12.236;  -16.090;  632.520
1095.482;   12.245;  -13.820;  559.800
1096.025;   12.991;  -12.720;  710.880
1096.568;   12.681;  -12.100;  779.280
1097.112;    9.505;  -15.450;  508.180
1097.655;   12.452;  -14.310;  603.000
1098.198;   10.335;  -14.740;  600.180
1098.741;   10.675;  -15.550;  612.860
1099.285;   12.221;  -12.600;  657.300
1099.828;   10.205;  -15.050;  439.400
1100.371;   11.366;  -14.800;  608.160
1100.914;   11.381;  -16.480;  682.660
1101.457;   12.243;  -12.990;  679.900
1101.999;   10.590;  -14.110;  584.680
1102.542;   11.214;  -11.450;  641.440
1103.085;   10.428;  -13.350;  658.500
1103.628;   10.970;  -13.200;  762.060
1104.170;   10.489;  -12.310;  588.280
1104.713;   10.761;  -14.320;  646.700
1105.256;    8.959;  -16.110;  557.440
1105.798;    8.632;  -15.910;  499.980
1106.341;   11.565;  -12.200;  728.900
1106.883;    8.880;  -14.910;  521.340
1107.425;   10.134;  -14.960;  668.180
1107.968;    9.556;  -13.440;  612.380
1108.510;   10.230;  -14.010;  684.960
1109.052;    8.061;  -15.430;  612.620
1109.594;    8.602;  -15.290;  554.440
1110.136;    9.457;  -13.360;  643.220
1110.679;    9.343;  -13.820;  633.080
1111.221;    9.740;  -13.690;  604.460
1111.763;    7.547;  -14.890;  559.220
1112.304;    7.956;  -14.550;  547.140
1112.846;    9.233;  -12.760;  666.240
1113.388;   12.161;  -10.780;  942.180
1113.930;    8.523;  -12.690;  694.200
1114.472;    8.514;  -15.730;  606.540
1115.013;    6.888;  -14.620;  551.280
1115.555;    7.307;  -14.950;  587.100
1116.097;    7.020;  -16.460;  579.480
1116.638;    7.752;  -13.730;  684.600
1117.180;    8.430;  -13.810;  667.740
1117.721;    7.034;  -13.280;  568.580
1118.262;    7.727;  -15.080;  677.960
1118.804;    7.198;  -14.040;  637.340
1119.345;    6.971;  -15.430;  578.400
1119.886;    7.932;  -15.240;  704.040
1120.427;    6.337;  -15.820;  589.020
1120.969;    6.662;  -14.550;  597.920
1121.510;    6.359;  -14.030;  563.060
1122.051;    7.848;  -11.990;  723.580
1122.592;    6.369;  -16.490;  655.420
1123.133;    5.205;  -15.580;  547.940
1123.673;    7.175;  -12.850;  706.480
1124.214;    6.468;  -13.630;  612.460
1124.755;    6.990;  -14.830;  639.460
1125.296;    5.593;  -13.110;  627.320
1125.836;    7.316;  -11.320;  691.500
1126.377;    5.184;  -14.330;  599.660
1126.918;    7.128;  -12.800;  614.980
1127.458;    5.365;  -13.580;  622.220
1127.999;    6.181;  -10.330;  656.980
1128.539;    6.879;  -13.390;  694.240
1129.079;    5.282;  -16.420;  632.720
1129.620;    5.115;  -15.700;  558.100
1130.160;    4.392;  -14.790;  539.480
1130.700;    5.533;  -12.910;  640.840
1131.240;    5.834;  -15.610;  643.700
1131.781;    4.890;  -12.920;  619.680
1132.321;    5.464;  -15.300;  599.120
1132.861;    4.102;  -14.760;  564.200
1133.401;    4.750;  -15.470;  593.940
1133.941;    4.886;  -13.710;  626.280
1134.481;    3.888;  -11.820;  597.580
1135.020;    4.987;  -14.810;  609.160
1135.560;    5.176;  -13.660;  674.940
1136.100;    2.822;  -13.940;  501.160
1136.640;    4.068;  -15.410;  510.480
1137.179;    3.257;  -16.920;  537.960
1137.719;    4.879;  -16.430;  605.400
1138.258;    3.785;  -16.300;  587.360
1138.798;    5.128;  -13.710;  663.780
1139.337;    3.188;  -13.840;  482.840
1139.877;    3.760;  -16.140;  642.360
1140.416;    6.210;  -11.410;  878.060
1140.955;    2.508;  -12.820;  535.380
1141.494;    3.499;  -12.310;  669.280
1142.034;    2.624;  -16.280;  583.520
1142.573;    4.114;  -13.090;  646.280
1143.112;    2.848;  -13.770;  553.480
1143.651;    3.147;  -15.830;  536.480
1144.190;    3.824;  -15.010;  691.640
1144.729;    2.971;  -13.650;  607.420
1145.267;    2.821;  -13.670;  584.900
1145.806;    3.629;  -13.630;  637.040
1146.345;    2.857;  -14.160;  635.020
1146.884;    2.574;  -11.180;  622.500
1147.422;    1.887;  -15.890;  533.060
1147.961;    4.033;  -12.760;  708.460
1148.500;    2.822;  -15.220;  669.720
1149.038;    3.510;  -13.720;  632.500
1149.577;    2.024;  -13.250;  698.640
1150.115;    0.014;  -16.790;  452.280
1150.653;    1.968;  -15.810;  607.340
1151.192;    3.032;  -14.730;  552.920
1151.730;    2.650;  -13.660;  652.560
1152.268;    1.715;  -15.120;  589.520
1152.806;    1.815;  -15.580;  571.180
1153.344;   -0.106;  -16.210;  577.640
1153.882;    2.041;  -12.810;  600.060
1154.421;    0.299;  -14.150;  470.620
1154.958;    0.772;  -15.360;  595.240
1155.496;    2.048;  -14.710;  645.280
1156.034;    1.473;  -13.640;  721.880
1156.572;    2.326;  -13.740;  667.060
1157.110;    0.391;  -16.960;  473.940
1157.647;    2.094;  -11.940;  676.960
1158.185;    1.071;  -14.090;  564.320
1158.723;    0.170;  -13.610;  509.200
1159.260;    1.591;  -14.760;  701.700
1159.798;    1.325;  -13.700;  658.160
1160.335;    0.789;  -13.820;  631.820

