
Integration time [ms]:   3.882
Averaging Nr. [scans]: 1000
Smoothing Nr. [pixels]: 0
Data measured with spectrometer [name]: 7414430SP
Wave   ;Sample   ;Dark     ;Reference
[nm]   ;[counts] ;[counts] ;[counts] 

288.544;  130.153;   10.292;  793.890
289.143;  132.752;    4.564;  681.602
289.742;  134.018;    6.144;  828.814
290.341;  120.904;    4.396;  789.841
290.940;  111.684;    0.938;  730.702
291.538;  113.741;   -0.684;  881.108
292.137;  111.653;   -2.845;  792.581
292.736;  115.406;   -0.144;  975.101
293.335;  111.282;   -6.352;  735.086
293.934;  112.492;   -7.642;  781.677
294.532;  111.849;   -4.992; 1031.958
295.131;   97.918;   -5.478;  834.394
295.730;   97.826;   -6.549;  809.588
296.328;   95.918;   -9.558;  783.442
296.927;   95.590;   -8.118;  779.652
297.525;   97.161;   -6.908;  781.236
298.124;   87.886;   -9.195;  654.009
298.722;   94.416;   -8.198;  761.933
299.321;   91.644;   -8.817;  708.597
299.919;   89.006;   -7.716;  751.918
300.518;   84.599;  -10.745;  689.338
301.116;   85.824;   -9.647;  691.381
301.715;   87.066;  -10.828;  730.222
302.313;   85.425;   -6.087;  704.943
302.911;   81.096;   -6.824;  733.830
303.509;   86.729;   -8.807;  925.627
304.108;   83.699;   -8.198;  760.383
304.706;   83.699;   -6.218;  801.664
305.304;   79.023;   -7.185;  796.707
305.902;   83.786;   -8.568;  784.484
306.500;   79.249;   -7.737;  728.200
307.098;   77.662;   -6.026;  746.560
307.696;   75.946;   -7.176;  780.432
308.294;   77.274;   -8.656;  731.359
308.892;   78.738;   -6.838;  759.769
309.490;   74.531;   -2.596;  712.161
310.088;   73.176;   -4.485;  788.444
310.686;   77.624;   -3.907;  821.749
311.284;   73.990;   -2.806;  766.040
311.882;   70.701;   -2.845;  731.225
312.480;   67.796;   -3.274;  697.167
313.078;   70.173;   -3.645;  808.331
313.675;   70.539;   -4.997;  691.600
314.273;   66.747;   -0.894;  797.837
314.871;   65.748;   -2.854;  589.829
315.468;   64.046;   -3.644;  652.090
316.066;   66.527;   -3.947;  694.427
316.664;   59.429;   -1.824;  656.351
317.261;   64.675;    1.565;  910.128
317.859;   59.407;   -3.955;  768.735
318.456;   61.385;   -2.886;  830.096
319.054;   56.892;   -0.995;  787.828
319.651;   56.470;   -1.765;  759.928
320.249;   55.354;   -3.685;  810.188
320.846;   53.889;   -3.736;  714.286
321.443;   51.474;   -2.065;  832.135
322.041;   49.567;   -5.635;  812.315
322.638;   46.860;   -5.985;  701.456
323.235;   48.429;   -6.677;  665.683
323.833;   46.994;   -3.497;  740.354
324.430;   42.491;   -6.756;  615.900
325.027;   44.616;   -7.647;  876.855
325.624;   44.684;   -7.598;  644.532
326.221;   42.228;   -5.848;  689.717
326.818;   42.073;   -5.777;  818.332
327.415;   44.557;   -8.769;  748.828
328.012;   44.383;   -6.299;  690.585
328.609;   41.939;   -6.639;  731.389
329.206;   40.137;   -6.358;  778.621
329.803;   40.213;   -8.698;  737.841
330.400;   41.297;   -8.379;  704.260
330.997;   42.434;   -6.178;  817.147
331.594;   39.569;   -5.646;  788.185
332.191;   44.636;   -6.928;  728.722
332.787;   45.563;   -6.057;  844.463
333.384;   42.789;   -6.445;  763.093
333.981;   41.456;   -8.002;  815.687
334.578;   43.292;   -8.443;  708.378
335.174;   45.811;   -6.053;  731.469
335.771;   45.379;   -5.791;  836.456
336.367;   41.772;   -6.570;  710.631
336.964;   44.447;   -6.741;  793.266
337.561;   43.112;   -5.710;  731.112
338.157;   41.332;   -3.928;  911.916
338.754;   37.366;   -5.577;  796.589
339.350;   35.561;   -9.667;  722.493
339.946;   39.124;   -5.269;  773.135
340.543;   30.990;   -4.485;  846.136
341.139;   26.481;   -7.584;  720.836
341.735;   24.648;   -8.553;  772.593
342.332;   23.710;   -4.984;  691.472
342.928;   24.694;   -3.475;  795.394
343.524;   19.418;   -6.653;  761.684
344.120;   16.599;   -7.173;  738.562
344.716;   19.391;   -4.385;  723.717
345.313;   17.230;   -3.565;  795.342
345.909;   12.772;   -7.495;  627.336
346.505;   16.121;   -8.276;  740.247
347.101;   16.736;   -5.697;  827.864
347.697;   16.445;   -4.767;  785.398
348.293;   10.467;   -7.226;  627.244
348.889;   12.527;   -7.547;  745.914
349.485;   11.662;   -9.147;  688.205
350.081;   12.880;   -6.568;  772.592
350.676;    7.754;   -6.516;  691.606
351.272;   12.752;   -7.378;  809.530
351.868;   12.588;   -6.759;  780.497
352.464;   10.027;   -4.798;  723.932
353.059;    6.100;   -7.977;  646.017
353.655;   10.540;   -8.769;  777.063
354.251;   11.728;   -5.920;  759.845
354.846;    4.790;   -7.647;  740.646
355.442;    2.957;   -6.956;  753.071
356.038;    5.791;   -9.928;  751.708
356.633;    6.018;   -7.698;  728.594
357.229;    3.917;   -6.307;  724.757
357.824;    2.329;   -7.647;  703.600
358.420;    0.756;  -10.047;  679.726
359.015;    2.325;   -7.458;  695.357
359.610;    3.125;   -5.748;  763.920
360.206;   -3.357;   -9.346;  603.240
360.801;    0.366;  -11.268;  646.503
361.396;    3.073;   -8.789;  725.975
361.992;   -1.840;   -6.347;  668.220
362.587;   -4.170;   -6.476;  670.160
363.182;   -2.446;   -9.457;  689.631
363.777;   -0.937;   -7.147;  738.242
364.372;   -1.451;   -5.507;  737.314
364.967;   -5.829;   -6.386;  680.744
365.563;   -0.398;   -7.858;  815.567
366.158;   -3.419;   -8.517;  685.161
366.753;   -3.222;   -8.728;  649.263
367.348;   -4.518;   -7.677;  746.056
367.942;   -5.064;  -10.387;  697.298
368.537;   -5.701;   -7.187;  754.245
369.132;   -5.196;   -8.587;  703.428
369.727;   -9.018;   -8.606;  638.079
370.322;   -8.014;  -10.426;  580.186
370.917;   -7.580;   -5.776;  710.646
371.511;   -4.604;   -6.007;  861.834
372.106;   -8.039;   -6.686;  776.964
372.701;  -11.389;   -9.335;  585.988
373.296;   -5.251;   -6.777;  863.135
373.890;  -10.472;   -7.546;  647.840
374.485;  -12.804;   -8.755;  691.199
375.079;   -9.264;   -9.797;  738.685
375.674;   -7.025;   -6.327;  812.970
376.268;  -10.771;   -9.046;  691.759
376.863;  -17.006;   -7.993;  580.327
377.457;  -10.496;   -9.206;  662.490
378.052;  -12.195;   -5.345;  764.884
378.646;  -12.832;   -5.605;  741.167
379.240;  -13.207;   -6.825;  721.176
379.835;  -12.306;  -10.476;  636.978
380.429;  -14.476;   -8.676;  562.557
381.023;  -13.821;   -4.945;  779.205
381.617;  -16.273;   -8.094;  680.106
382.212;  -12.558;  -10.646;  685.303
382.806;  -11.261;   -8.136;  760.690
383.400;  -16.057;   -7.855;  672.281
383.994;  -16.596;   -8.125;  664.870
384.588;  -12.422;   -7.637;  697.701
385.182;  -11.282;   -7.458;  726.624
385.776;  -12.807;   -6.277;  706.875
386.370;  -16.223;   -7.485;  681.968
386.964;  -14.449;   -9.416;  684.155
387.558;  -12.153;   -8.518;  598.360
388.152;  -16.549;   -7.096;  681.959
388.745;  -14.499;   -7.656;  814.707
389.339;  -12.477;   -8.927;  747.642
389.933;  -11.540;   -9.538;  695.370
390.527;  -12.696;   -5.857;  859.029
391.120;  -19.256;   -9.455;  595.318
391.714;  -16.015;   -9.746;  711.633
392.308;  -12.359;   -7.857;  780.253
392.901;  -16.717;   -9.106;  642.460
393.495;  -18.391;  -10.365;  595.414
394.089;  -14.876;   -9.696;  760.452
394.682;  -16.933;   -7.016;  697.188
395.275;  -16.787;   -8.466;  719.927
395.869;  -18.480;   -8.985;  667.314
396.462;  -16.392;  -11.496;  616.609
397.056;  -11.974;   -7.838;  776.621
397.649;  -17.067;   -6.895;  731.575
398.242;  -14.103;   -5.017;  712.645
398.836;  -13.423;   -8.787;  766.408
399.429;  -13.857;   -8.967;  631.041
400.022;  -18.009;   -8.815;  665.902
400.615;  -15.530;   -6.276;  805.609
401.208;  -12.942;   -8.407;  691.451
401.802;  -15.535;   -7.296;  699.329
402.395;  -17.105;   -7.585;  683.502
402.988;  -17.928;   -8.015;  696.627
403.581;  -13.960;   -9.577;  646.878
404.174;  -11.665;   -7.588;  686.568
404.767;  -14.974;   -7.906;  638.583
405.360;  -17.064;   -7.875;  621.445
405.953;  -11.532;   -8.127;  759.034
406.545;  -10.743;   -7.198;  725.342
407.138;  -14.837;   -8.916;  618.350
407.731;  -14.143;   -9.767;  613.303
408.324;  -10.094;  -10.659;  660.554
408.917;  -11.191;   -8.068;  681.864
409.509;  -12.587;   -9.837;  740.396
410.102;  -14.228;   -8.146;  643.948
410.695;   -8.747;   -7.969;  665.758
411.287;   -9.442;   -8.579;  599.821
411.880;  -10.184;   -6.968;  585.421
412.472;  -13.426;   -9.487;  613.092
413.065;  -10.484;  -10.338;  629.408
413.657;   -7.924;   -9.169;  576.678
414.250;   -8.118;  -10.119;  646.681
414.842;  -10.046;   -9.938;  676.353
415.434;   -7.288;  -10.409;  570.463
416.027;   -2.382;   -9.591;  652.196
416.619;   -5.234;   -7.379;  713.400
417.211;   -5.899;   -9.159;  599.352
417.804;   -2.518;   -9.191;  628.499
418.396;   -5.748;   -8.159;  607.643
418.988;   -3.526;   -6.960;  659.238
419.580;   -7.604;  -11.389;  568.276
420.172;   -4.746;  -13.460;  536.196
420.764;    0.043;  -10.701;  672.482
421.356;   -1.964;   -8.961;  636.898
421.948;   -2.157;   -9.770;  677.661
422.540;    2.906;   -8.832;  680.027
423.132;    2.027;   -8.153;  600.641
423.724;   -1.559;   -8.481;  561.267
424.316;    0.711;   -9.261;  621.345
424.908;    5.056;   -9.643;  591.517
425.500;    5.832;   -8.663;  647.978
426.092;    5.801;   -8.503;  648.268
426.683;    4.896;  -10.522;  684.836
427.275;    7.916;  -11.734;  641.471
427.867;   10.435;  -10.264;  668.948
428.458;   10.173;   -7.644;  732.344
429.050;    8.119;   -7.853;  680.749
429.642;   11.335;   -8.904;  743.124
430.233;   10.953;  -10.795;  569.356
430.825;   12.258;   -7.665;  724.809
431.416;   10.644;   -8.843;  698.241
432.008;   14.466;   -9.885;  651.723
432.599;   14.948;   -9.966;  656.073
433.190;   11.413;   -9.164;  637.670
433.782;   10.990;   -8.584;  590.395
434.373;   19.658;   -8.296;  884.765
434.964;   17.481;   -9.896;  602.920
435.556;   14.513;   -8.255;  634.537
436.147;   18.876;   -8.075;  758.490
436.738;   18.021;   -9.716;  701.099
437.329;   24.245;   -7.318;  721.723
437.920;   15.474;   -6.694;  666.688
438.511;   15.821;   -9.644;  564.526
439.103;   23.704;   -9.427;  623.998
439.694;   25.788;  -10.748;  681.583
440.285;   26.815;   -7.997;  764.432
440.876;   23.981;  -10.046;  845.738
441.466;   23.997;  -13.467;  575.162
442.057;   29.122;   -9.329;  665.814
442.648;   27.921;   -7.707;  746.255
443.239;   25.696;   -9.017;  620.477
443.830;   31.261;  -10.279;  704.958
444.421;   32.810;  -12.630;  655.474
445.011;   29.782;   -8.697;  693.619
445.602;   29.757;   -7.787;  743.126
446.193;   31.801;  -13.329;  488.117
446.783;   36.711;   -9.171;  640.397
447.374;   31.928;   -7.457;  692.759
447.964;   32.045;   -9.277;  713.770
448.555;   40.775;   -9.041;  822.742
449.145;   37.308;   -8.969;  662.853
449.736;   38.117;   -6.809;  803.179
450.326;   38.161;   -7.229;  713.626
450.917;   43.257;  -11.391;  675.324
451.507;   42.447;   -9.501;  600.661
452.097;   43.004;   -8.460;  746.267
452.688;   44.191;  -10.080;  742.160
453.278;   44.101;  -12.861;  566.840
453.868;   48.952;   -8.372;  793.550
454.458;   46.260;   -8.131;  651.141
455.048;   47.182;   -8.520;  711.783
455.639;   48.958;  -13.632;  567.096
456.229;   52.413;  -10.143;  710.694
456.819;   54.357;   -9.163;  751.158
457.409;   54.803;   -8.652;  773.993
457.999;   57.602;   -9.933;  737.505
458.589;   57.842;  -10.363;  686.606
459.179;   57.395;  -10.633;  717.658
459.769;   55.335;  -12.442;  627.099
460.358;   60.359;   -9.844;  797.262
460.948;   60.662;   -9.924;  689.503
461.538;   62.035;  -10.484;  660.677
462.128;   59.871;  -10.703;  664.934
462.717;   66.429;  -11.486;  710.326
463.307;   70.723;  -10.767;  705.846
463.897;   66.609;   -8.814;  656.942
464.486;   65.840;   -8.182;  837.128
465.076;   70.405;   -9.985;  733.776
465.666;   73.910;  -10.447;  652.900
466.255;   71.726;   -7.754;  785.651
466.845;   70.488;  -10.884;  666.749
467.434;   74.020;  -12.525;  725.873
468.023;   74.842;  -11.456;  658.357
468.613;   73.128;   -9.173;  713.946
469.202;   76.771;   -9.306;  646.507
469.791;   81.492;   -8.917;  737.811
470.381;   83.004;   -9.657;  742.813
470.970;   82.501;   -9.947;  711.099
471.559;   82.461;   -9.256;  733.291
472.148;   86.079;  -13.397;  675.737
472.738;   89.337;   -9.928;  765.466
473.327;   88.367;  -10.897;  637.529
473.916;   87.649;   -8.526;  737.446
474.505;   92.186;  -11.078;  751.703
475.094;   96.350;   -9.559;  806.570
475.683;   95.271;   -8.838;  797.699
476.272;   96.497;  -10.198;  730.632
476.861;   99.624;  -11.489;  706.754
477.449;  105.658;  -10.721;  728.487
478.038;   99.392;   -9.818;  692.513
478.627;  100.888;   -9.887;  714.852
479.216;  107.541;  -10.030;  769.441
479.805;  110.752;   -9.401;  783.375
480.393;  110.915;   -5.739; 1008.945
480.982;  110.261;   -7.838;  874.501
481.571;  116.620;   -9.111;  858.333
482.159;  117.528;  -10.601;  705.386
482.748;  117.532;   -8.500;  821.385
483.336;  122.683;   -9.241;  858.209
483.925;  123.109;  -10.440;  774.373
484.513;  130.750;  -11.063;  758.962
485.102;  126.099;   -9.540;  810.965
485.690;  135.771;   -6.742; 1011.050
486.278;  138.642;   -8.442;  979.329
486.867;  138.488;  -10.472;  809.662
487.455;  140.813;   -8.811;  898.229
488.043;  141.499;  -10.721;  748.361
488.631;  151.705;  -10.393; 1005.079
489.220;  155.139;  -10.843;  908.626
489.808;  155.286;  -10.572;  741.415
490.396;  165.045;  -10.482;  914.645
490.984;  171.889;  -11.542;  830.161
491.572;  182.811;   -8.463;  940.315
492.160;  189.594;   -8.491;  919.081
492.748;  201.087;   -9.681;  884.341
493.336;  223.192;  -10.493; 1019.693
493.924;  251.162;   -9.354;  958.077
494.512;  284.064;   -9.132; 1066.638
495.100;  328.484;   -9.001; 1103.280
495.687;  383.924;  -11.924; 1206.373
496.275;  463.471;  -11.193; 1150.796
496.863;  546.804;   -9.241; 1281.171
497.451;  655.007;  -11.341; 1386.805
498.038;  790.870;  -11.364; 1556.729
498.626;  916.136;   -8.104; 1741.407
499.214; 1103.817;   -8.842; 2016.609
499.801; 1359.320;  -10.112; 2220.633
500.389; 1586.433;  -11.953; 2312.494
500.976; 1779.690;  -10.023; 2744.849
501.564; 2044.182;   -8.662; 3148.565
502.151; 2416.390;  -10.531; 3515.999
502.738; 2834.147;  -13.853; 3971.274
503.326; 3399.167;  -10.794; 4403.796
503.913; 3886.811;   -8.663; 5161.749
504.500; 4342.391;  -10.172; 5986.420
505.088; 5189.519;  -13.472; 6381.201
505.675; 5777.866;  -10.924; 6925.547
506.262; 5925.213;   -8.551; 7619.060
506.849; 6656.911;  -10.523; 8733.969
507.436; 7731.295;  -10.834; 9790.121
508.023; 8169.621;   -9.093; 9985.472
508.610; 8465.648;  -10.073;10434.618
509.197; 9496.843;   -9.500;11198.435
509.784;11132.061;  -13.242;12391.194
510.371;12096.172;  -10.964;13603.713
510.958;12501.400;   -9.772;14426.586
511.545;12895.463;   -7.842;15243.775
512.132;13091.755;  -12.184;15945.876
512.719;14457.659;   -9.733;16340.369
513.305;17213.057;   -9.172;18011.766
513.892;18655.254;   -9.581;19754.971
514.479;19681.236;  -10.253;20967.805
515.066;20586.305;   -8.183;22299.793
515.652;22067.273;   -9.253;22908.660
516.239;23891.135;   -9.412;23798.875
516.825;25655.629;  -11.153;25567.275
517.412;25991.066;  -10.263;28154.959
517.998;25547.770;   -8.802;28344.111
518.585;25793.539;  -10.401;27134.219
519.171;25797.994;  -12.744;27268.576
519.758;27544.311;  -11.793;28964.129
520.344;30543.594;   -8.912;30664.494
520.930;33592.801;  -10.901;32550.605
521.516;33219.461;  -12.034;35422.895
522.103;33857.813;  -10.473;38280.004
522.689;36744.691;   -8.311;37835.117
523.275;39879.945;  -10.691;37288.613
523.861;41376.121;  -11.193;37281.395
524.447;38745.164;  -11.484;37846.949
525.033;38652.234;   -7.702;38321.949
525.619;38172.535;  -11.241;38579.285
526.205;38480.895;  -12.152;40622.875
526.791;39916.336;  -11.423;42258.836
527.377;40530.148;   -7.981;42966.902
527.963;40616.355;   -9.450;42018.949
528.549;40983.008;  -11.351;42476.828
529.135;41648.902;  -10.202;41854.852
529.721;42844.617;   -8.672;41237.711
530.306;43074.918;   -9.111;41259.445
530.892;44567.000;  -11.252;41506.047
531.478;47254.652;  -10.432;43559.613
532.063;49437.652;  -10.721;47695.563
532.649;50469.055;   -7.450;50808.324
533.235;52232.652;  -11.811;51787.500
533.820;51938.063;   -9.383;52145.035
534.406;49835.613;   -9.400;51133.488
534.991;47865.840;   -8.861;49996.805
535.576;48485.293;  -10.612;48882.852
536.162;45902.590;   -7.322;46942.285
536.747;45943.707;   -9.360;45711.746
537.333;48262.395;  -10.450;48510.180
537.918;51332.641;  -12.610;50439.891
538.503;51528.176;  -12.132;50863.711
539.088;49212.414;  -10.831;50906.922
539.673;49117.953;  -11.220;52621.965
540.259;52078.754;  -11.481;52368.094
540.844;52231.430;  -11.462;50879.109
541.429;54013.070;   -7.869;52077.777
542.014;52207.457;  -11.859;52716.695
542.599;50654.969;  -11.061;52363.281
543.184;52041.426;  -12.300;53187.137
543.769;53649.375;   -9.369;54697.605
544.354;53595.035;  -12.020;53913.914
544.938;48232.219;  -10.350;49680.164
545.523;44449.570;  -10.841;47386.277
546.108;48511.676;   -8.579;49151.949
546.693;51643.121;   -8.818;51384.637
547.278;52379.535;  -11.331;51853.254
547.862;52108.531;  -10.292;51173.750
548.447;50062.141;   -8.349;51691.395
549.031;49256.871;  -10.838;52456.703
549.616;50348.563;  -11.681;52714.516
550.201;53080.484;  -11.140;52414.598
550.785;50969.137;   -8.649;52355.059
551.370;51385.219;  -11.889;54589.453
551.954;52480.324;  -11.239;58267.348
552.538;54637.324;   -8.850;59062.176
553.123;56728.020;  -10.829;58115.285
553.707;56809.797;   -8.887;56556.285
554.291;54140.508;  -10.430;56201.668
554.876;53264.656;   -9.799;55335.762
555.460;50019.262;  -10.018;54155.703
556.044;48178.535;   -7.307;53721.484
556.628;51936.680;  -12.229;53731.016
557.212;53056.098;   -9.820;54312.531
557.796;51081.434;   -9.109;53797.773
558.380;47130.863;   -9.707;56145.984
558.964;48168.180;  -10.980;57277.930
559.548;51629.902;  -12.010;56459.641
560.132;52616.180;   -7.928;54434.543
560.716;56203.328;  -10.247;54800.617
561.300;57944.793;  -11.250;57606.945
561.884;56174.242;  -10.568;58972.445
562.467;54441.867;   -9.727;57327.570
563.051;50123.117;  -11.847;54962.434
563.635;48757.578;  -10.747;52594.473
564.219;47578.395;  -13.108;50610.410
564.802;45106.113;  -11.417;49551.180
565.386;42106.184;  -10.457;48370.953
565.969;44232.219;   -8.959;48178.871
566.553;44790.301;  -10.328;49957.305
567.136;44197.887;  -10.257;50369.594
567.720;43835.383;  -10.186;49492.004
568.303;43594.453;  -10.027;50616.352
568.887;43986.188;  -10.397;50727.148
569.470;44863.527;   -8.185;51698.379
570.053;43611.871;  -11.596;52122.078
570.637;41507.867;  -11.378;52536.438
571.220;40449.629;   -9.138;51186.098
571.803;39773.809;   -7.675;51032.762
572.386;39395.371;   -8.976;49609.887
572.969;41148.047;  -12.477;48285.926
573.552;41326.848;   -9.767;47624.285
574.135;39951.152;   -8.175;45498.641
574.718;35590.445;  -11.096;41970.434
575.301;33729.160;  -11.966;41447.137
575.884;31867.873;  -12.836;40923.836
576.467;36943.680;   -9.116;45267.723
577.050;39521.039;  -10.536;48175.543
577.633;39652.387;  -11.027;47729.328
578.216;38229.129;   -9.946;47579.793
578.799;37180.113;   -9.645;47820.996
579.381;36837.105;   -9.446;48115.551
579.964;37173.602;  -12.217;47333.766
580.547;38549.953;  -10.586;46668.969
581.129;38067.855;   -8.374;44466.141
581.712;37008.113;  -10.434;44164.922
582.294;36534.645;  -10.896;46477.855
582.877;37357.133;   -8.906;48244.254
583.459;37316.430;   -9.994;47437.895
584.042;36491.555;  -10.084;46943.219
584.624;36062.914;  -13.534;46792.227
585.206;35665.508;  -12.716;46557.250
585.789;35357.520;  -11.614;45793.773
586.371;35732.895;  -10.203;43836.391
586.953;34864.477;  -10.314;42972.492
587.536;33096.191;   -9.776;42487.211
588.118;33115.402;   -9.821;42086.414
588.700;33548.000;  -10.073;43389.930
589.282;34675.957;  -12.395;43646.039
589.864;34223.355;  -11.514;43438.109
590.446;34030.195;  -10.803;43151.926
591.028;35619.215;  -11.043;42781.867
591.610;36310.418;  -13.244;42839.098
592.192;33208.301;  -11.095;42820.402
592.774;30480.260;  -10.823;40724.277
593.356;29800.791;  -11.052;39874.789
593.937;31581.512;  -11.664;39980.648
594.519;34083.070;  -10.454;42069.633
595.101;34910.871;  -10.322;42976.031
595.683;34272.840;  -10.042;44084.441
596.264;32620.201;  -14.334;43478.797
596.846;32191.172;  -10.863;43803.672
597.427;33295.074;   -9.901;42986.934
598.009;33800.645;  -10.911;42832.219
598.591;33889.832;  -10.483;42580.086
599.172;32758.662;   -9.663;43061.805
599.753;31237.057;  -10.631;41691.469
600.335;30989.561;   -9.371;40692.520
600.916;32600.645;  -13.992;39982.422
601.498;33957.199;   -8.352;40318.617
602.079;32139.297;   -8.411;40670.609
602.660;34189.359;  -10.841;41450.898
603.241;35207.141;  -12.963;41137.738
603.823;33126.523;  -11.523;38868.797
604.404;31209.102;  -11.881;38182.785
604.985;32352.766;  -11.721;38078.047
605.566;33742.254;   -9.293;38056.633
606.147;32639.191;  -10.940;37020.418
606.728;31622.525;  -11.840;37883.359
607.309;31331.928;  -11.781;38748.273
607.890;31635.652;  -11.262;38850.230
608.471;29933.107;  -10.111;37457.918
609.051;29161.006;   -7.709;36066.457
609.632;29676.760;  -12.409;35991.074
610.213;28993.408;  -10.811;37402.641
610.794;29113.750;  -11.630;38383.363
611.374;30768.252;   -8.030;40562.387
611.955;32365.178;  -10.809;38533.727
612.536;33483.816;  -10.531;36951.789
613.116;33049.387;  -12.820;37197.891
613.697;32304.660;  -11.419;38411.125
614.277;31746.379;   -9.768;38673.938
614.858;31741.529;  -10.251;37075.863
615.438;28036.656;  -11.981;35092.906
616.019;25980.193;   -8.978;33666.301
616.599;28906.434;  -12.219;34189.023
617.179;31602.318;  -14.170;36952.047
617.760;33404.629;   -9.211;39582.574
618.340;34166.629;   -9.018;38943.977
618.920;31960.070;   -9.249;37594.156
619.500;31616.484;  -12.728;37866.938
620.080;34477.883;  -12.939;37869.043
620.660;33346.023;  -11.586;36868.617
621.241;31939.365;  -11.538;36352.309
621.821;32698.188;  -11.398;35459.520
622.401;34180.477;  -10.179;35207.414
622.980;34478.621;  -11.587;35980.422
623.560;33494.680;  -12.888;37351.328
624.140;31045.680;  -13.149;34388.582
624.720;26045.564;   -9.928;32368.764
625.300;25912.432;  -10.869;32638.629
625.880;30611.799;   -8.617;34599.035
626.459;35070.969;  -12.138;36831.738
627.039;36545.395;  -12.267;38299.098
627.619;36636.707;   -7.476;38289.574
628.198;36853.535;  -11.347;37220.695
628.778;36011.961;  -11.678;37632.563
629.357;33826.242;  -12.438;38003.012
629.937;31616.400;   -9.576;38402.039
630.516;30181.424;  -11.096;37868.801
631.096;29923.500;  -11.828;35760.410
631.675;30969.443;  -11.565;35225.219
632.254;31696.455;  -11.845;35130.289
632.834;32340.451;  -11.545;35794.570
633.413;33084.785;  -10.887;35788.922
633.992;34602.016;  -10.175;34532.863
634.571;33689.387;   -9.704;33590.113
635.151;31048.418;  -10.815;34943.863
635.730;30588.924;  -11.617;35352.523
636.309;30167.531;  -10.836;35366.605
636.888;31073.570;   -9.755;36165.637
637.467;31173.123;  -11.684;37515.902
638.046;32668.977;  -11.987;39288.695
638.625;33914.457;  -10.455;38279.699
639.204;33412.945;  -11.234;37741.598
639.782;30714.166;  -12.023;38364.551
640.361;28284.830;  -11.506;36740.621
640.940;27522.604;  -12.316;34950.082
641.519;29630.145;  -11.616;34137.398
642.097;33517.422;   -9.266;35654.258
642.676;33989.684;  -12.936;35637.957
643.255;33222.078;   -9.966;36567.074
643.833;33718.496;   -8.916;37809.434
644.412;35492.844;  -10.936;37337.293
644.990;37826.176;  -12.176;37018.531
645.569;38047.969;  -12.246;36518.469
646.147;36703.438;  -12.107;36186.430
646.726;35803.891;  -12.937;36267.688
647.304;38716.691;  -12.547;36647.625
647.882;39163.242;  -12.597;39286.742
648.461;37271.746;   -9.427;39157.703
649.039;35522.105;   -8.937;35412.883
649.617;34191.563;  -11.067;34744.918
650.195;34305.211;  -10.657;35403.098
650.773;33411.879;  -10.097;35053.797
651.352;31043.994;  -11.887;33756.816
651.930;26423.211;  -13.557;31868.773
652.508;23505.164;  -11.767;33121.551
653.086;24835.885;  -10.777;33564.793
653.663;28180.604;  -12.067;34054.668
654.241;31199.381;  -14.918;35693.309
654.819;32895.625;  -11.788;36422.906
655.397;32370.502;  -11.268;38213.484
655.975;32983.277;  -11.738;39507.625
656.553;32858.902;  -11.018;39498.223
657.130;31891.449;  -12.848;40395.480
657.708;31465.414;  -10.098;39242.020
658.286;32912.766;  -11.678;38920.020
658.863;35143.602;  -11.498;40202.898
659.441;36541.516;  -11.008;39677.938
660.018;36616.242;  -11.048;40413.355
660.596;35902.172;  -12.058;39931.414
661.173;36009.648;  -14.158;39604.531
661.750;35652.863;  -12.298;39700.070
662.328;34891.988;  -10.699;39292.809
662.905;33676.375;  -12.119;38235.648
663.482;29195.990;  -11.829;36212.305
664.060;27826.855;  -11.009;35944.945
664.637;30152.387;  -10.369;35170.785
665.214;30335.070;  -10.459;34197.523
665.791;28846.676;  -12.599;34549.520
666.368;28572.596;  -12.919;35118.578
666.945;30612.836;  -10.699;36019.418
667.522;31704.654;  -11.359;36048.438
668.099;31762.367;  -13.529;36243.914
668.676;31057.861;  -10.229;35958.875
669.253;30605.914;   -9.279;37384.730
669.830;29754.543;  -11.370;36779.629
670.407;30875.758;  -10.950;35231.289
670.984;32505.291;  -12.850;35544.270
671.560;32154.793;   -8.440;35466.867
672.137;30260.975;  -13.520;34280.863
672.714;29190.285;  -13.620;34632.863
673.290;29335.539;  -10.450;35135.422
673.867;28728.318;  -10.960;36114.480
674.443;27044.846;  -13.300;36152.859
675.020;27695.770;  -12.370;35327.238
675.596;28361.945;  -11.250;35795.176
676.173;29007.229;  -11.080;35430.355
676.749;29265.695;  -13.220;33549.516
677.326;32488.664;  -13.000;32210.012
677.902;33902.176;  -12.701;32068.871
678.478;33152.691;  -12.801;32583.891
679.054;32395.965;   -8.601;32088.928
679.631;34096.281;  -12.631;30978.848
680.207;34067.625;   -9.451;33160.887
680.783;31719.350;  -11.701;35570.363
681.359;31123.004;  -12.701;36125.184
681.935;31417.805;  -13.271;35240.922
682.511;30746.580;  -10.791;34429.961
683.087;31036.307;  -10.791;34463.680
683.663;30782.057;   -8.121;34648.898
684.239;32344.428;  -13.261;34546.457
684.815;31878.818;  -10.581;35586.375
685.390;29307.783;   -9.961;35821.895
685.966;28211.602;  -11.182;35085.871
686.542;27470.369;  -13.512;34198.230
687.118;27357.379;  -11.472;32847.707
687.693;27720.873;  -10.152;32794.027
688.269;29050.248;  -14.442;33072.367
688.844;30384.049;  -11.852;33141.664
689.420;28354.816;  -13.942;33965.742
689.995;26874.826;   -9.702;34655.523
690.571;27290.564;  -11.312;33576.742
691.146;26589.201;  -14.332;32657.219
691.722;27935.309;  -11.192;32526.979
692.297;30554.936;  -10.962;33014.617
692.872;29877.283;  -11.082;34012.254
693.448;28951.646;  -14.732;34237.434
694.023;27918.207;  -12.363;34142.672
694.598;27799.293;  -12.393;34132.031
695.173;27026.078;  -11.023;34205.250
695.748;26679.408;  -12.743;32882.488
696.323;28010.301;  -11.103;32864.906
696.898;29594.105;   -8.123;33170.004
697.473;29571.850;  -12.603;32432.984
698.048;29022.764;  -12.553;31649.303
698.623;30595.416;  -12.573;30778.141
699.198;33795.996;  -12.743;31140.119
699.773;31391.496;  -12.843;31764.299
700.348;30194.947;  -16.683;31780.816
700.922;30710.182;  -11.403;32046.375
701.497;31641.576;  -11.253;32603.574
702.072;32164.322;  -10.044;34799.871
702.646;31412.863;  -13.054;35793.172
703.221;29710.236;  -11.414;35201.590
703.795;29690.045;  -10.644;34764.527
704.370;31471.406;  -13.484;34307.367
704.944;31201.436;  -12.144;33509.887
705.519;29774.465;  -12.024;31388.584
706.093;28391.939;  -11.234;31340.104
706.668;27172.867;   -9.874;32630.281
707.242;26793.516;  -12.404;32728.779
707.816;26746.885;  -10.644;32947.238
708.390;26203.375;  -11.174;33277.855
708.965;26692.387;  -10.324;33834.336
709.539;25855.617;  -12.014;33709.273
710.113;25675.820;  -12.295;33044.313
710.687;26516.867;  -10.965;31953.992
711.261;26778.613;  -13.685;30505.949
711.835;25913.938;  -15.335;30262.369
712.409;25060.357;  -13.785;31254.447
712.983;26289.883;  -10.525;32754.986
713.557;28480.648;  -13.175;34018.824
714.131;30060.531;  -13.245;34579.625
714.704;31559.865;  -13.175;33890.262
715.278;33574.707;  -11.545;33531.102
715.852;32999.082;  -10.975;33601.660
716.425;32249.227;  -10.075;33515.117
716.999;32081.947;  -12.185;33185.555
717.573;32653.340;   -9.685;33905.996
718.146;34562.777;  -10.516;35199.293
718.720;31598.684;  -12.106;35060.551
719.293;30165.422;  -12.386;34973.230
719.867;33120.598;  -12.456;36394.449
720.440;33484.367;  -10.686;36663.008
721.013;33054.867;  -12.596;35102.426
721.587;32954.645;  -13.956;33985.266
722.160;32268.313;   -9.806;33524.965
722.733;32024.986;  -11.676;32987.043
723.306;31308.199;  -14.276;33066.301
723.880;30746.348;  -12.126;33399.500
724.453;31774.805;  -10.156;33468.297
725.026;30865.223;  -12.956;33816.637
725.599;29326.924;  -11.676;32797.996
726.172;28023.168;  -12.337;33187.434
726.745;28440.293;  -11.277;35136.613
727.318;28011.129;  -11.927;35751.730
727.891;26924.678;  -13.607;35890.430
728.463;27108.682;  -11.327;34822.090
729.036;26291.375;  -11.917;32895.086
729.609;26645.207;  -12.697;31823.225
730.182;27787.139;  -11.787;31445.283
730.754;28402.410;  -12.957;32373.223
731.327;28878.596;  -11.017;33676.820
731.900;27746.490;  -12.797;33417.000
732.472;25745.668;  -10.677;31978.498
733.045;24754.141;  -12.797;30368.777
733.617;25391.469;  -13.908;30574.215
734.190;25729.289;  -12.258;31280.975
734.762;26968.400;  -13.438;31674.412
735.334;27667.723;  -11.758;31247.291
735.907;27623.512;  -11.158;29876.211
736.479;28663.512;  -11.258;29808.488
737.051;30525.816;  -10.918;30233.547
737.623;31613.771;  -11.038;31469.086
738.195;31640.561;  -12.188;31784.225
738.768;28708.385;  -11.378;32120.523
739.340;27283.551;  -12.598;32094.342
739.912;28148.168;  -11.568;31312.680
740.484;28149.703;   -9.348;31946.238
741.056;27774.148;  -12.628;32984.059
741.628;28190.719;  -13.349;33897.715
742.199;28578.852;  -11.309;33213.016
742.771;27991.635;  -12.699;31369.113
743.343;29693.184;  -11.919;31865.473
743.915;30207.080;  -11.679;32388.631
744.487;28891.127;  -12.249;31079.568
745.058;27121.305;  -11.119;30570.107
745.630;25596.547;   -9.439;29970.127
746.201;25215.861;  -11.949;29186.766
746.773;25557.531;  -12.639;28805.723
747.344;25333.391;  -11.039;29591.223
747.916;24097.250;  -12.549;31412.201
748.487;22844.646;  -12.659;32194.898
749.059;22348.141;  -13.059;32533.719
749.630;23964.883;  -12.080;32158.518
750.201;23497.984;  -13.100;30855.395
750.773;21944.779;  -15.310;28622.555
751.344;21431.557;  -12.240;28405.732
751.915;21262.832;  -11.960;28461.551
752.486;20821.277;  -13.200;27842.850
753.057;20699.326;  -15.230;27845.008
753.628;20951.939;  -13.130;27728.107
754.199;21400.984;  -12.720;27381.086
754.770;21332.154;  -10.680;25882.203
755.341;21398.307;  -11.010;25886.184
755.912;20848.811;  -12.990;26050.861
756.483;19584.508;  -11.110;26798.779
757.054;18554.611;  -12.190;27048.238
757.625;18506.068;  -13.981;26294.838
758.195;18652.109;  -11.041;26142.076
758.766;19929.162;  -11.861;26392.234
759.337;21158.119;  -11.461;26334.594
759.907;21584.516;  -15.001;27579.652
760.478;21050.137;   -9.681;28352.770
761.048;20320.219;  -12.421;27325.088
761.619;19581.223;  -11.761;26460.428
762.189;18183.340;  -12.391;26029.826
762.760;17783.332;  -10.201;26430.145
763.330;18774.385;  -10.811;26670.902
763.900;21211.783;  -10.261;26603.021
764.471;21244.840;  -13.061;25542.740
765.041;19403.455;  -11.051;24358.459
765.611;19243.344;  -11.032;23991.297
766.181;19172.150;  -10.532;24470.236
766.751;18983.566;  -13.502;24845.975
767.321;19287.291;  -11.392;24533.633
767.891;19660.100;  -11.522;24916.492
768.461;19957.498;  -13.672;24776.771
769.031;19195.170;  -14.652;24757.988
769.601;18146.008;  -10.182;24181.088
770.171;16807.402;  -11.752;23670.387
770.741;15445.106;  -12.272;22960.045
771.311;15393.708;  -13.112;22917.523
771.880;15639.602;  -14.122;23562.941
772.450;16513.379;  -11.782;24216.500
773.020;18291.717;  -12.642;24140.398
773.589;18063.264;  -13.043;24414.857
774.159;16192.948;  -11.783;23858.717
774.729;15153.781;  -13.473;22942.135
775.298;16088.410;  -14.523;22324.033
775.867;17046.965;  -12.013;21140.313
776.437;16213.544;  -12.113;20838.092
777.006;14656.092;  -13.543;20599.510
777.576;13121.515;  -12.523;20508.809
778.145;12577.888;  -12.173;20732.947
778.714;13773.469;  -12.153;21062.465
779.283;14351.196;  -11.833;20949.664
779.853;15046.817;  -13.483;20508.623
780.422;15891.878;  -12.933;20649.082
780.991;15471.565;  -13.173;21527.520
781.560;13836.130;  -10.224;22632.658
782.129;13149.346;  -12.684;23048.277
782.698;14242.448;  -11.284;23438.555
783.267;15390.054;  -11.684;23267.734
783.836;14573.033;  -10.974;22415.133
784.404;13072.330;  -13.534;20443.152
784.973;12702.047;  -16.734;19699.150
785.542;12627.217;  -12.594;19763.828
786.111;12429.644;  -11.644;20341.408
786.679;13074.128;  -11.384;20207.967
787.248;13999.784;  -12.014;19516.465
787.817;13032.245;  -12.804;18900.363
788.385;11978.129;  -11.994;17879.121
788.954;12138.346;  -12.564;17658.301
789.522;13541.380;  -12.225;17788.879
790.090;13816.258;  -13.775;18118.277
790.659;12755.431;  -12.485;18338.736
791.227;12046.490;  -12.295;18508.615
791.795;12051.132;  -13.415;17898.254
792.364;11564.353;  -12.995;17295.133
792.932;11080.273;   -8.365;16822.051
793.500;11336.582;  -11.925;17040.148
794.068;11632.177;  -13.245;17179.787
794.636;11781.513;  -13.815;16664.246
795.204;11265.584;  -13.375;16524.545
795.772;11096.991;  -12.125;17274.564
796.340;11339.470;  -13.855;17891.002
796.908;11597.938;  -13.456;17648.561
797.476;11137.751;  -13.116;17064.080
798.044;10698.282;  -13.226;16672.777
798.612;11443.837;  -11.236;17023.996
799.180;12398.571;  -10.476;16561.615
799.747;12433.710;  -11.746;15962.773
800.315;11458.506;  -12.366;15296.992
800.883;10497.018;  -14.616;14801.771
801.450;10019.768;  -11.996;14534.430
802.018;10573.232;  -11.206;14173.248
802.585;10409.141;  -12.466;14029.547
803.153; 9564.552;  -12.846;13836.846
803.720; 9155.391;  -12.136;13567.324
804.287; 8864.176;  -10.966;13360.622
804.855; 9047.834;   -9.797;13681.981
805.422; 8959.172;  -13.037;13536.560
805.989; 8596.592;  -12.697;13355.958
806.556; 8806.858;  -11.737;13747.896
807.124; 9174.110;  -11.997;13987.376
807.691; 8727.832;  -13.997;14038.674
808.258; 8403.133;  -10.927;14120.152
808.825; 8843.500;  -13.727;13860.111
809.392; 9430.410;  -11.847;13268.790
809.959; 8932.024;  -14.217;12680.389
810.526; 8025.382;   -8.277;12427.308
811.093; 7746.544;   -9.647;12030.105
811.659; 7664.815;  -10.987;11653.664
812.226; 7307.358;  -13.447;11637.183
812.793; 7367.750;  -14.418;11611.521
813.360; 7820.916;  -13.908;11885.181
813.926; 7959.151;  -12.918;12770.539
814.493; 7820.945;  -14.888;12677.638
815.060; 7853.247;  -12.758;11974.336
815.626; 8049.807;  -13.478;11594.715
816.193; 8058.111;  -13.898;11579.474
816.759; 7977.192;  -13.588;11666.972
817.325; 8090.898;  -12.018;11325.530
817.892; 7765.112;  -14.068;11105.369
818.458; 6910.558;  -13.458;10843.928
819.024; 6501.861;  -11.968;10714.406
819.591; 6159.680;  -11.028;10469.165
820.157; 5902.378;  -12.088;10235.523
820.723; 5807.783;  -12.599;10847.563
821.289; 6075.212;  -10.419;11040.980
821.855; 6801.167;  -10.939;10357.100
822.421; 7373.666;  -12.539; 9978.918
822.987; 7261.353;  -13.259; 9754.177
823.553; 6573.731;  -15.369;10065.755
824.119; 6248.090;  -10.779;10036.294
824.685; 5811.389;   -9.999;10029.192
825.251; 5421.516;  -11.819;10199.230
825.816; 5204.766;  -13.369; 9820.189
826.382; 5358.222;  -12.679; 9297.248
826.948; 5639.112;  -11.199; 9381.347
827.513; 5494.109;  -11.179; 9450.726
828.079; 5375.924;  -13.489; 9472.444
828.645; 5590.576;  -12.500; 9292.643
829.210; 5866.479;  -15.120; 9065.341
829.776; 5760.261;  -12.590; 9132.620
830.341; 5525.775;  -11.540; 9092.878
830.906; 5438.923;  -12.400; 9078.557
831.472; 5296.186;  -12.720; 8534.535
832.037; 4896.323;  -11.490; 8677.874
832.602; 4408.257;  -14.380; 8628.692
833.167; 4487.318;  -12.780; 8879.031
833.733; 4707.701;  -11.100; 9189.790
834.298; 4945.087;  -12.080; 9052.608
834.863; 4961.674;  -13.910; 8895.087
835.428; 4704.916;  -13.470; 8824.266
835.993; 4931.257;  -11.760; 8845.385
836.558; 5333.806;  -12.731; 8888.563
837.123; 5517.482;  -12.431; 8966.582
837.688; 5374.677;  -11.241; 8617.860
838.253; 5072.907;  -13.681; 8590.699
838.817; 4738.008;  -12.531; 8443.797
839.382; 4777.724;  -12.671; 8799.356
839.947; 4728.860;  -11.541; 8810.595
840.511; 4532.757;  -12.021; 8796.394
841.076; 4528.787;  -13.071; 8347.231
841.641; 4483.405;  -11.411; 8224.330
842.205; 4314.297;  -13.671; 8223.349
842.770; 4255.169;  -11.291; 8622.107
843.334; 4336.634;  -12.951; 8410.386
843.898; 4416.266;  -11.221; 8337.465
844.463; 4405.817;  -11.322; 8506.283
845.027; 4234.174;  -11.412; 8280.962
845.591; 3940.756;  -11.512; 8231.141
846.156; 3940.824;  -14.042; 7969.179
846.720; 4114.678;  -12.152; 7768.278
847.284; 4166.829;  -10.922; 7630.957
847.848; 3991.758;  -10.962; 7472.395
848.412; 3706.242;  -14.612; 7437.394
848.976; 3635.093;  -11.492; 7674.592
849.540; 3679.162;   -9.172; 7836.011
850.104; 4008.583;  -11.232; 7913.669
850.668; 4378.369;  -15.182; 7694.508
851.232; 4115.430;  -15.332; 7756.887
851.796; 3798.358;  -13.703; 7926.545
852.359; 3827.294;  -11.113; 7827.844
852.923; 3821.987;  -11.843; 7641.163
853.487; 3720.432;  -11.173; 7342.501
854.050; 3561.465;  -13.443; 7042.820
854.614; 3413.573;  -13.823; 7151.338
855.177; 3411.083;  -16.393; 7105.077
855.741; 3496.557;  -11.693; 6989.675
856.304; 3513.926;  -10.843; 6596.634
856.868; 3434.580;  -13.783; 6356.272
857.431; 3239.261;  -11.953; 6468.571
857.995; 3116.847;  -13.683; 6373.210
858.558; 3146.755;  -11.433; 6324.448
859.121; 3158.989;  -12.493; 6408.327
859.684; 3166.567;  -12.384; 6347.886
860.247; 3154.454;  -14.774; 6321.264
860.810; 3003.295;  -13.154; 6301.903
861.374; 2852.125;  -11.264; 6607.881
861.937; 2790.131;  -15.424; 6408.200
862.500; 2810.242;  -12.854; 6572.639
863.062; 2842.506;  -12.344; 6387.297
863.625; 2838.954;  -13.314; 6190.836
864.188; 2692.093;  -14.724; 5807.254
864.751; 2605.691;  -13.464; 5682.413
865.314; 2609.206;  -11.684; 5547.492
865.876; 2713.459;  -11.104; 5500.150
866.439; 2854.732;  -12.344; 5415.909
867.002; 2867.409;  -13.494; 5501.567
867.564; 2856.963;  -10.935; 5413.946
868.127; 2694.316;  -12.665; 5160.325
868.689; 2475.707;  -14.515; 5133.183
869.252; 2466.849;  -13.425; 5252.382
869.814; 2510.071;  -11.595; 5297.141
870.377; 2547.405;  -12.175; 5390.919
870.939; 2456.546;  -10.265; 5599.898
871.501; 2372.976;  -12.375; 5248.336
872.063; 2350.234;  -14.355; 4854.235
872.626; 2388.894;  -14.435; 4817.074
873.188; 2315.567;  -12.415; 4987.732
873.750; 2278.064;  -14.555; 4868.651
874.312; 2312.772;  -11.185; 4779.330
874.874; 2268.458;  -12.715; 4866.348
875.436; 2113.102;  -13.196; 4718.887
875.998; 1991.550;  -11.426; 4660.005
876.560; 1905.841;   -9.786; 4462.964
877.122; 1867.530;  -12.796; 4145.042
877.683; 1805.718;  -13.226; 4056.481
878.245; 1716.630;  -12.036; 3950.740
878.807; 1648.958;  -11.536; 4058.958
879.369; 1638.637;  -10.806; 3954.677
879.930; 1724.307;  -13.946; 3941.495
880.492; 1830.359;  -11.876; 4067.014
881.053; 1770.986;  -13.216; 3859.633
881.615; 1658.547;  -12.226; 3776.071
882.176; 1602.525;  -12.946; 3734.750
882.738; 1582.937;  -10.736; 3678.489
883.299; 1517.850;  -12.057; 3405.407
883.860; 1407.719;  -12.677; 3351.106
884.422; 1345.273;  -14.097; 3394.044
884.983; 1292.530;  -13.667; 3166.443
885.544; 1229.925;  -10.717; 3189.802
886.105; 1167.909;  -14.357; 3160.360
886.666; 1099.589;  -14.287; 3093.059
887.227; 1041.443;  -14.297; 2941.957
887.788;  999.509;  -13.137; 2974.836
888.349;  934.118;  -14.637; 2721.214
888.910;  864.976;  -12.247; 2696.493
889.471;  863.708;  -10.577; 2560.172
890.032;  870.934;  -12.937; 2558.190
890.593;  864.064;  -12.487; 2567.669
891.153;  841.067;  -11.898; 2460.307
891.714;  800.466;  -14.278; 2372.046
892.275;  774.794;  -13.308; 2309.505
892.835;  730.999;  -12.058; 2382.543
893.396;  649.931;  -15.268; 2295.502
893.956;  598.522;  -13.278; 2162.420
894.517;  577.880;  -11.968; 2125.439
895.077;  581.332;  -12.798; 2086.978
895.638;  565.304;  -11.908; 2126.316
896.198;  545.081;  -13.288; 1838.275
896.758;  518.965;  -12.198; 1892.813
897.319;  487.538;  -13.048; 1792.232
897.879;  456.990;  -13.718; 1762.751
898.439;  421.574;  -14.138; 1661.149
898.999;  389.661;  -13.659; 1781.468
899.559;  372.851;  -14.699; 1703.347
900.119;  357.315;  -14.339; 1537.525
900.679;  334.562;  -11.789; 1638.384
901.239;  305.874;  -13.629; 1527.902
901.799;  289.127;  -13.679; 1456.441
902.359;  277.620;  -13.679; 1357.140
902.919;  269.974;  -14.159; 1331.118
903.479;  259.193;  -13.419; 1317.257
904.038;  245.133;  -14.899; 1262.595
904.598;  232.281;  -14.339; 1152.034
905.158;  222.919;  -13.959; 1240.893
905.717;  216.798;  -12.749; 1233.691
906.277;  212.220;  -11.889; 1217.330
906.836;  208.237;  -12.870; 1222.408
907.396;  203.517;  -11.790; 1193.047
907.955;  196.338;  -13.750; 1182.526
908.515;  186.838;  -14.760; 1099.364
909.074;  182.394;  -12.540; 1092.863
909.633;  177.033;  -12.120; 1069.121
910.192;  172.632;  -12.550; 1196.460
910.752;  165.926;  -12.760; 1029.960
911.311;  163.300;  -14.750; 1009.780
911.870;  159.945;  -13.860;  971.460
912.429;  161.738;  -13.480; 1094.080
912.988;  160.254;  -12.370; 1081.060
913.547;  156.542;  -14.670;  940.380
914.106;  154.868;  -12.800;  999.420
914.665;  154.397;  -11.370;  984.020
915.224;  150.805;  -11.430; 1035.760
915.782;  148.389;  -12.260;  922.560
916.341;  148.549;  -12.540; 1049.840
916.900;  146.186;  -12.540;  925.260
917.458;  142.989;  -13.480;  884.220
918.017;  143.000;  -12.470;  942.600
918.576;  142.151;  -13.450;  904.440
919.134;  141.085;  -12.890;  837.980
919.693;  140.210;  -15.480;  893.060
920.251;  138.383;  -14.420;  876.500
920.809;  138.271;  -12.170;  839.580
921.368;  136.486;  -13.650;  885.360
921.926;  134.544;  -12.750;  842.940
922.484;  134.955;  -14.150;  903.360
923.042;  134.645;  -15.100;  880.340
923.601;  135.885;  -10.990;  998.680
924.159;  135.862;  -12.470;  935.560
924.717;  135.689;  -15.640;  841.080
925.275;  137.217;  -12.380;  903.240
925.833;  136.724;  -12.710;  779.320
926.391;  138.861;  -11.200;  938.380
926.949;  139.386;  -16.000;  857.680
927.506;  140.020;  -12.260;  903.500
928.064;  141.754;  -11.300;  877.580
928.622;  139.895;  -13.750;  880.100
929.180;  140.164;  -15.290;  814.180
929.737;  140.437;  -14.500;  808.540
930.295;  142.396;  -10.630;  928.480
930.853;  143.688;  -14.590;  849.100
931.410;  145.745;  -14.450;  821.120
931.968;  147.835;  -14.390;  940.660
932.525;  149.835;  -13.050;  909.380
933.082;  152.029;  -15.620;  811.440
933.640;  159.703;  -15.650;  925.900
934.197;  162.406;  -13.610;  886.360
934.754;  165.259;  -13.320;  897.780
935.312;  164.648;  -13.370;  863.340
935.869;  166.548;  -12.780; 1012.980
936.426;  167.034;  -14.480;  872.800
936.983;  170.951;  -13.180;  889.020
937.540;  170.915;  -15.710;  838.280
938.097;  172.237;  -14.980;  940.120
938.654;  171.183;  -13.060;  898.860
939.211;  170.192;  -12.760;  952.480
939.768;  170.365;  -16.230;  915.420
940.324;  175.232;  -10.940;  904.200
940.881;  180.724;  -12.570;  878.500
941.438;  185.581;  -13.650; 1021.200
941.995;  180.596;  -13.300;  992.560
942.551;  180.438;  -15.800;  875.620
943.108;  180.149;  -14.180;  937.920
943.664;  173.931;  -13.890;  869.340
944.221;  173.008;  -12.640; 1088.140
944.777;  171.920;  -14.700;  869.680
945.334;  173.527;  -13.010;  884.840
945.890;  173.603;  -13.480;  946.480
946.446;  172.062;  -14.920;  947.020
947.003;  172.585;  -13.860;  964.940
947.559;  174.204;  -12.000; 1063.040
948.115;  172.221;  -10.510; 1026.540
948.671;  169.216;  -12.760;  967.300
949.227;  166.126;  -15.390;  859.560
949.783;  163.892;  -15.570;  858.900
950.339;  163.438;  -12.800;  991.000
950.895;  161.475;  -13.780; 1023.840
951.451;  158.620;  -13.810;  925.280
952.007;  158.849;  -12.390;  998.540
952.563;  156.518;  -11.980;  937.780
953.118;  152.409;  -14.070;  904.940
953.674;  150.889;  -14.140;  935.780
954.230;  151.817;  -12.680;  949.640
954.785;  153.365;  -12.770;  936.640
955.341;  152.749;  -11.450;  998.160
955.897;  147.358;  -15.350;  834.660
956.452;  147.983;  -14.200;  953.840
957.008;  146.180;  -10.820; 1083.640
957.563;  142.913;  -13.200; 1009.540
958.118;  138.050;  -14.460;  877.700
958.674;  137.919;  -13.840;  946.780
959.229;  139.131;  -10.670; 1013.980
959.784;  139.122;  -17.040;  832.400
960.339;  142.680;  -12.970; 1001.280
960.894;  141.868;  -12.700;  963.760
961.449;  141.201;  -13.790;  859.960
962.004;  147.090;  -11.760; 1212.840
962.559;  147.469;  -14.840;  860.140
963.114;  147.224;  -14.530;  742.480
963.669;  149.125;  -12.780;  915.500
964.224;  149.492;  -14.330;  874.340
964.779;  145.412;  -14.380;  828.420
965.334;  139.464;  -12.460; 1017.860
965.888;  133.621;  -13.490;  875.360
966.443;  134.558;  -14.140;  972.380
966.998;  130.497;  -16.240;  819.460
967.552;  128.547;  -12.730;  908.380
968.107;  124.490;  -14.510;  868.300
968.661;  124.889;  -11.850;  922.440
969.216;  122.968;  -14.370;  856.280
969.770;  122.242;  -13.010;  917.200
970.324;  122.424;  -12.460;  923.140
970.879;  120.960;  -11.580;  947.180
971.433;  120.671;  -13.130;  952.720
971.987;  118.671;  -12.360;  895.340
972.541;  118.678;  -14.330;  917.100
973.095;  118.332;  -13.310; 1009.460
973.649;  117.468;  -15.830;  809.480
974.203;  120.651;  -15.830;  829.040
974.757;  123.452;  -13.480;  855.220
975.311;  121.406;  -13.720;  872.600
975.865;  117.688;  -15.780;  881.820
976.419;  114.818;  -14.290;  857.400
976.973;  113.649;  -13.210;  849.620
977.526;  111.176;  -12.300;  949.920
978.080;  107.676;  -14.840;  796.780
978.634;  108.877;  -13.100;  921.320
979.187;  104.822;  -12.300;  905.400
979.741;  101.697;  -12.020; 1018.380
980.294;   96.005;  -14.590;  789.160
980.848;   92.615;  -14.390;  717.220
981.401;   93.318;  -14.280;  816.540
981.955;   94.051;  -11.920;  844.300
982.508;   91.676;  -15.790;  746.340
983.061;   91.781;  -12.070;  915.260
983.615;   89.312;  -13.260;  798.800
984.168;   86.136;  -15.540;  770.080
984.721;   87.547;  -13.230;  880.760
985.274;   84.258;  -11.820;  867.500
985.827;   82.478;  -13.510;  834.220
986.380;   79.540;  -14.840;  721.340
986.933;   79.967;  -13.970;  864.800
987.486;   78.583;  -12.450;  861.920
988.039;   76.478;  -11.170;  863.100
988.591;   74.215;  -13.070;  893.260
989.144;   70.814;  -15.530;  737.260
989.697;   69.019;  -14.300;  758.740
990.250;   68.753;  -13.310;  858.100
990.802;   66.905;  -14.490;  755.860
991.355;   68.929;  -12.980;  974.880
991.907;   66.935;  -13.715;  864.320
992.460;   64.941;  -14.450;  753.760
993.012;   65.274;  -12.590;  749.540
993.565;   63.052;  -15.180;  711.360
994.117;   64.495;  -11.630;  950.780
994.669;   60.126;  -13.760;  701.320
995.221;   59.424;  -12.710;  791.920
995.774;   58.622;  -14.620;  787.580
996.326;   57.995;  -13.150;  740.220
996.878;   58.453;  -12.880;  838.420
997.430;   55.789;  -14.580;  699.860
997.982;   55.967;  -14.030;  750.140
998.534;   55.152;  -12.190;  739.060
999.086;   54.368;  -12.990;  738.220
999.638;   52.848;  -13.180;  661.380
1000.190;   52.391;  -14.970;  699.320
1000.741;   52.207;  -12.200;  742.700
1001.293;   52.214;  -13.400;  686.020
1001.845;   50.536;  -14.490;  676.640
1002.396;   51.665;  -15.280;  743.400
1002.948;   51.350;  -12.380;  737.400
1003.500;   50.435;  -13.260;  723.780
1004.051;   50.628;  -13.730;  907.580
1004.603;   49.755;  -12.300;  791.820
1005.154;   45.970;  -15.330;  608.980
1005.705;   45.661;  -12.800;  723.960
1006.257;   44.979;  -13.900;  707.220
1006.808;   43.635;  -14.430;  685.460
1007.359;   43.637;  -12.010;  763.240
1007.910;   41.902;  -12.690;  646.640
1008.461;   41.544;  -13.610;  732.940
1009.013;   40.256;  -14.990;  588.340
1009.564;   41.634;  -11.860;  793.520
1010.115;   39.475;  -12.640;  597.040
1010.665;   39.198;  -14.570;  602.160
1011.216;   38.890;  -15.190;  667.920
1011.767;   39.302;  -13.470;  697.920
1012.318;   39.850;  -13.760;  736.980
1012.869;   37.676;  -15.950;  679.000
1013.419;   37.511;  -15.880;  603.120
1013.970;   38.744;  -14.540;  666.640
1014.521;   36.865;  -13.220;  620.620
1015.071;   37.109;  -15.020;  670.380
1015.622;   37.010;  -17.510;  635.460
1016.172;   36.530;  -14.130;  596.820
1016.723;   35.682;  -14.220;  614.380
1017.273;   35.268;  -15.370;  604.160
1017.823;   36.614;  -15.290;  650.340
1018.374;   35.537;  -13.420;  611.760
1018.924;   35.394;  -11.740;  716.880
1019.474;   34.983;  -12.250;  718.880
1020.024;   33.662;  -15.850;  657.580
1020.574;   34.928;  -13.280;  726.160
1021.124;   35.424;  -13.560;  673.580
1021.674;   32.935;  -13.790;  559.120
1022.224;   34.982;  -14.610;  708.940
1022.774;   34.407;  -13.100;  668.820
1023.324;   35.041;  -11.470;  753.520
1023.874;   35.674;  -11.990;  875.760
1024.423;   33.325;  -14.550;  613.700
1024.973;   32.785;  -14.440;  610.760
1025.523;   31.664;  -13.250;  620.960
1026.072;   32.095;  -15.200;  606.420
1026.622;   31.414;  -14.590;  675.740
1027.172;   32.807;  -11.080;  715.660
1027.721;   30.565;  -14.010;  601.220
1028.270;   31.256;  -13.690;  663.400
1028.820;   31.290;  -15.380;  638.080
1029.369;   30.801;  -14.980;  612.700
1029.918;   30.655;  -13.100;  649.840
1030.468;   29.806;  -13.680;  564.780
1031.017;   30.725;  -13.770;  634.800
1031.566;   29.044;  -14.100;  608.900
1032.115;   30.726;  -11.770;  694.500
1032.664;   28.817;  -14.940;  596.480
1033.213;   30.256;  -13.370;  735.420
1033.762;   29.112;  -13.660;  635.620
1034.311;   28.719;  -13.650;  677.220
1034.860;   28.174;  -13.820;  691.000
1035.408;   29.321;  -12.860;  722.720
1035.957;   29.785;  -13.060;  719.540
1036.506;   26.529;  -14.510;  530.800
1037.055;   30.377;  -13.470;  844.320
1037.603;   27.775;  -14.800;  664.000
1038.152;   26.747;  -14.190;  534.760
1038.700;   26.978;  -11.810;  585.740
1039.249;   26.908;  -12.850;  681.220
1039.797;   27.329;  -14.610;  633.360
1040.345;   27.069;  -15.220;  705.420
1040.894;   27.136;  -13.480;  625.300
1041.442;   25.901;  -13.310;  632.200
1041.990;   25.548;  -14.510;  559.160
1042.538;   24.903;  -15.700;  536.180
1043.087;   25.007;  -13.910;  570.860
1043.635;   26.898;  -13.620;  670.500
1044.183;   25.731;  -14.230;  586.400
1044.731;   25.003;  -13.730;  576.000
1045.279;   25.041;  -13.970;  674.920
1045.827;   27.949;  -10.750;  892.400
1046.374;   23.781;  -15.230;  515.420
1046.922;   23.729;  -15.390;  590.580
1047.470;   25.388;  -12.320;  691.300
1048.018;   24.133;  -13.230;  647.960
1048.565;   25.798;  -13.390;  708.600
1049.113;   23.005;  -15.030;  557.000
1049.660;   22.999;  -12.540;  629.660
1050.208;   23.953;  -15.040;  675.640
1050.755;   22.940;  -14.680;  606.580
1051.303;   23.842;  -13.610;  686.820
1051.850;   23.281;  -14.340;  635.120
1052.397;   20.586;  -16.330;  473.960
1052.945;   22.125;  -15.710;  617.760
1053.492;   23.423;  -12.320;  741.840
1054.039;   23.206;  -13.730;  720.180
1054.586;   21.814;  -16.140;  557.240
1055.133;   22.679;  -14.020;  693.140
1055.680;   22.779;  -13.430;  646.620
1056.227;   21.505;  -14.570;  542.780
1056.774;   23.009;  -14.400;  794.980
1057.321;   21.390;  -14.230;  523.260
1057.868;   20.835;  -14.220;  651.320
1058.415;   21.299;  -14.060;  651.980
1058.961;   21.313;  -14.640;  678.940
1059.508;   21.094;  -13.970;  643.820
1060.055;   20.555;  -15.100;  581.780
1060.601;   21.332;  -12.180;  624.300
1061.148;   20.556;  -15.010;  616.820
1061.694;   19.911;  -14.750;  592.580
1062.241;   19.576;  -14.130;  596.320
1062.787;   20.356;  -14.770;  663.140
1063.334;   21.732;  -13.130;  808.560
1063.880;   19.775;  -14.420;  668.360
1064.426;   20.701;  -13.130;  706.820
1064.972;   19.140;  -13.960;  601.340
1065.518;   17.965;  -13.680;  566.640
1066.065;   20.179;  -15.720;  624.460
1066.611;   19.158;  -13.970;  598.800
1067.157;   19.709;  -13.920;  641.860
1067.703;   19.272;  -14.760;  668.480
1068.249;   18.946;  -14.490;  605.220
1068.794;   18.591;  -14.740;  626.880
1069.340;   18.080;  -13.220;  578.960
1069.886;   18.597;  -14.930;  590.700
1070.432;   17.199;  -14.700;  541.720
1070.977;   17.672;  -14.470;  601.080
1071.523;   17.856;  -14.330;  573.060
1072.068;   17.417;  -14.960;  582.000
1072.614;   17.748;  -16.220;  527.760
1073.160;   18.029;  -11.280;  687.040
1073.705;   16.321;  -15.990;  572.520
1074.250;   15.933;  -16.550;  559.900
1074.796;   18.033;  -14.600;  655.160
1075.341;   18.124;  -13.440;  664.100
1075.886;   17.260;  -14.450;  594.240
1076.431;   17.188;  -13.160;  649.880
1076.976;   16.621;  -14.710;  639.220
1077.521;   16.049;  -14.000;  583.080
1078.067;   15.567;  -14.470;  579.400
1078.612;   16.401;  -14.530;  661.620
1079.156;   16.379;  -15.660;  601.540
1079.701;   16.354;  -16.120;  693.260
1080.246;   17.103;  -12.960;  696.300
1080.791;   15.781;  -13.700;  625.020
1081.336;   16.349;  -15.540;  659.320
1081.880;   15.446;  -14.640;  649.680
1082.425;   14.921;  -14.220;  573.480
1082.970;   16.641;  -11.890;  717.040
1083.514;   14.972;  -13.820;  597.000
1084.059;   14.305;  -14.280;  586.720
1084.603;   13.799;  -12.890;  565.840
1085.147;   14.018;  -13.590;  645.220
1085.692;   15.581;  -14.050;  716.800
1086.236;   13.148;  -14.990;  503.140
1086.780;   16.325;  -12.640;  751.440
1087.325;   14.554;  -15.550;  654.620
1087.869;   14.840;  -14.980;  610.700
1088.413;   14.820;  -13.440;  705.040
1088.957;   12.636;  -12.170;  543.400
1089.501;   14.604;  -12.730;  766.640
1090.045;   14.726;  -14.650;  726.480
1090.589;   11.659;  -14.500;  569.920
1091.133;   13.579;  -12.320;  673.340
1091.676;   13.934;  -16.130;  591.940
1092.220;   13.103;  -13.930;  600.920
1092.764;   14.371;  -12.820;  706.960
1093.307;   12.922;  -11.700;  673.780
1093.851;   11.666;  -15.600;  556.540
1094.395;   13.205;  -13.920;  683.140
1094.938;   12.249;  -16.090;  632.520
1095.482;   12.253;  -13.820;  559.800
1096.025;   13.195;  -12.720;  710.880
1096.568;   13.337;  -12.100;  779.280
1097.112;    9.545;  -15.450;  508.180
1097.655;   12.361;  -14.310;  603.000
1098.198;   10.742;  -14.740;  600.180
1098.741;   11.120;  -15.550;  612.860
1099.285;   12.142;  -12.600;  657.300
1099.828;    9.961;  -15.050;  439.400
1100.371;   11.116;  -14.800;  608.160
1100.914;   11.547;  -16.480;  682.660
1101.457;   11.723;  -12.990;  679.900
1101.999;   10.211;  -14.110;  584.680
1102.542;   11.442;  -11.450;  641.440
1103.085;   10.980;  -13.350;  658.500
1103.628;   11.691;  -13.200;  762.060
1104.170;   10.409;  -12.310;  588.280
1104.713;   10.419;  -14.320;  646.700
1105.256;    9.919;  -16.110;  557.440
1105.798;    8.772;  -15.910;  499.980
1106.341;   10.915;  -12.200;  728.900
1106.883;    9.262;  -14.910;  521.340
1107.425;   10.032;  -14.960;  668.180
1107.968;    9.811;  -13.440;  612.380
1108.510;   10.873;  -14.010;  684.960
1109.052;    8.861;  -15.430;  612.620
1109.594;    8.897;  -15.290;  554.440
1110.136;   10.100;  -13.360;  643.220
1110.679;    9.006;  -13.820;  633.080
1111.221;    9.480;  -13.690;  604.460
1111.763;    8.522;  -14.890;  559.220
1112.304;    8.317;  -14.550;  547.140
1112.846;    9.128;  -12.760;  666.240
1113.388;   11.925;  -10.780;  942.180
1113.930;    9.318;  -12.690;  694.200
1114.472;    8.246;  -15.730;  606.540
1115.013;    7.074;  -14.620;  551.280
1115.555;    7.519;  -14.950;  587.100
1116.097;    7.120;  -16.460;  579.480
1116.638;    7.790;  -13.730;  684.600
1117.180;    8.863;  -13.810;  667.740
1117.721;    7.392;  -13.280;  568.580
1118.262;    8.291;  -15.080;  677.960
1118.804;    8.148;  -14.040;  637.340
1119.345;    7.417;  -15.430;  578.400
1119.886;    8.069;  -15.240;  704.040
1120.427;    7.126;  -15.820;  589.020
1120.969;    6.260;  -14.550;  597.920
1121.510;    6.007;  -14.030;  563.060
1122.051;    7.482;  -11.990;  723.580
1122.592;    6.562;  -16.490;  655.420
1123.133;    5.610;  -15.580;  547.940
1123.673;    7.863;  -12.850;  706.480
1124.214;    6.564;  -13.630;  612.460
1124.755;    7.331;  -14.830;  639.460
1125.296;    6.818;  -13.110;  627.320
1125.836;    7.678;  -11.320;  691.500
1126.377;    5.645;  -14.330;  599.660
1126.918;    6.984;  -12.800;  614.980
1127.458;    5.826;  -13.580;  622.220
1127.999;    7.081;  -10.330;  656.980
1128.539;    6.095;  -13.390;  694.240
1129.079;    6.005;  -16.420;  632.720
1129.620;    4.977;  -15.700;  558.100
1130.160;    4.272;  -14.790;  539.480
1130.700;    5.734;  -12.910;  640.840
1131.240;    6.238;  -15.610;  643.700
1131.781;    5.411;  -12.920;  619.680
1132.321;    5.389;  -15.300;  599.120
1132.861;    4.134;  -14.760;  564.200
1133.401;    4.745;  -15.470;  593.940
1133.941;    5.293;  -13.710;  626.280
1134.481;    4.795;  -11.820;  597.580
1135.020;    4.248;  -14.810;  609.160
1135.560;    5.296;  -13.660;  674.940
1136.100;    3.899;  -13.940;  501.160
1136.640;    3.570;  -15.410;  510.480
1137.179;    3.188;  -16.920;  537.960
1137.719;    4.483;  -16.430;  605.400
1138.258;    4.841;  -16.300;  587.360
1138.798;    5.523;  -13.710;  663.780
1139.337;    2.751;  -13.840;  482.840
1139.877;    3.835;  -16.140;  642.360
1140.416;    7.112;  -11.410;  878.060
1140.955;    3.406;  -12.820;  535.380
1141.494;    4.109;  -12.310;  669.280
1142.034;    3.434;  -16.280;  583.520
1142.573;    4.618;  -13.090;  646.280
1143.112;    2.896;  -13.770;  553.480
1143.651;    2.780;  -15.830;  536.480
1144.190;    4.038;  -15.010;  691.640
1144.729;    3.417;  -13.650;  607.420
1145.267;    3.935;  -13.670;  584.900
1145.806;    3.355;  -13.630;  637.040
1146.345;    3.012;  -14.160;  635.020
1146.884;    3.282;  -11.180;  622.500
1147.422;    2.134;  -15.890;  533.060
1147.961;    4.443;  -12.760;  708.460
1148.500;    3.305;  -15.220;  669.720
1149.038;    3.457;  -13.720;  632.500
1149.577;    3.503;  -13.250;  698.640
1150.115;   -0.058;  -16.790;  452.280
1150.653;    1.986;  -15.810;  607.340
1151.192;    2.739;  -14.730;  552.920
1151.730;    2.763;  -13.660;  652.560
1152.268;    1.404;  -15.120;  589.520
1152.806;    1.470;  -15.580;  571.180
1153.344;    1.411;  -16.210;  577.640
1153.882;    2.015;  -12.810;  600.060
1154.421;    0.537;  -14.150;  470.620
1154.958;    1.774;  -15.360;  595.240
1155.496;    3.375;  -14.710;  645.280
1156.034;    2.301;  -13.640;  721.880
1156.572;    2.664;  -13.740;  667.060
1157.110;    0.382;  -16.960;  473.940
1157.647;    2.438;  -11.940;  676.960
1158.185;    0.902;  -14.090;  564.320
1158.723;   -0.136;  -13.610;  509.200
1159.260;    1.388;  -14.760;  701.700
1159.798;    1.502;  -13.700;  658.160
1160.335;    1.130;  -13.820;  631.820

