
Integration time [ms]:   3.276
Averaging Nr. [scans]: 1000
Smoothing Nr. [pixels]: 0
Data measured with spectrometer [name]: 7414430SP
Wave   ;Sample   ;Dark     ;Reference
[nm]   ;[counts] ;[counts] ;[counts] 

288.544;  150.749;    7.793;  793.890
289.143;  154.932;    7.462;  681.602
289.742;  154.187;    8.602;  828.814
290.341;  138.538;    1.321;  789.841
290.940;  129.228;   -0.709;  730.702
291.538;  130.121;    0.881;  881.108
292.137;  129.879;    0.122;  792.581
292.736;  134.108;   -1.929;  975.101
293.335;  131.816;   -8.229;  735.086
293.934;  131.704;   -5.279;  781.677
294.532;  128.844;   -1.369; 1031.958
295.131;  115.109;   -7.641;  834.394
295.730;  116.580;   -8.420;  809.588
296.328;  116.124;   -5.611;  783.442
296.927;  114.696;   -5.781;  779.652
297.525;  116.807;   -6.361;  781.236
298.124;  107.095;  -11.382;  654.009
298.722;  109.961;   -7.641;  761.933
299.321;  108.367;   -6.811;  708.597
299.919;  105.689;   -6.991;  751.918
300.518;  103.823;  -10.362;  689.338
301.116;  105.391;   -9.581;  691.381
301.715;  104.871;   -4.891;  730.222
302.313;  103.336;   -8.801;  704.943
302.911;   99.382;   -8.522;  733.830
303.509;  104.852;   -6.171;  925.627
304.108;  102.045;   -7.311;  760.383
304.706;  101.799;   -8.321;  801.664
305.304;   96.647;  -10.222;  796.707
305.902;  101.722;   -6.021;  784.484
306.500;   96.408;   -4.971;  728.200
307.098;   95.438;   -7.061;  746.560
307.696;   94.046;   -8.801;  780.432
308.294;   94.829;   -6.411;  731.359
308.892;   96.572;   -2.901;  759.769
309.490;   92.297;   -5.041;  712.161
310.088;   91.011;   -5.002;  788.444
310.686;   94.645;   -2.041;  821.749
311.284;   90.540;   -2.351;  766.040
311.882;   88.055;   -4.422;  731.225
312.480;   85.121;   -4.192;  697.167
313.078;   85.926;   -1.172;  808.331
313.675;   86.973;   -2.601;  691.600
314.273;   81.902;   -1.312;  797.837
314.871;   82.274;   -3.942;  589.829
315.468;   79.830;   -2.802;  652.090
316.066;   82.713;   -0.701;  694.427
316.664;   75.546;   -4.362;  656.351
317.261;   79.325;   -2.872;  910.128
317.859;   75.047;   -2.022;  768.735
318.456;   75.160;   -0.531;  830.096
319.054;   70.885;   -3.912;  787.828
319.651;   70.716;   -4.752;  759.928
320.249;   69.426;   -2.602;  810.188
320.846;   66.900;   -0.821;  714.286
321.443;   64.248;   -4.642;  832.135
322.041;   61.985;   -5.002;  812.315
322.638;   59.185;   -3.982;  701.456
323.235;   60.237;   -3.411;  665.683
323.833;   58.048;   -7.361;  740.354
324.430;   53.191;   -8.611;  615.900
325.027;   54.222;   -4.061;  876.855
325.624;   53.397;   -4.031;  644.532
326.221;   50.863;   -7.481;  689.717
326.818;   50.465;   -5.281;  818.332
327.415;   53.478;   -7.460;  748.828
328.012;   52.898;   -5.510;  690.585
328.609;   51.526;   -7.880;  731.389
329.206;   50.065;   -8.331;  778.621
329.803;   49.844;   -5.121;  737.841
330.400;   52.167;   -4.510;  704.260
330.997;   53.967;   -6.441;  817.147
331.594;   52.643;   -8.831;  788.185
332.191;   57.686;   -7.621;  728.722
332.787;   60.996;   -4.591;  844.463
333.384;   59.377;   -7.412;  763.093
333.981;   58.178;   -8.293;  815.687
334.578;   60.845;   -7.052;  708.378
335.174;   63.051;   -3.102;  731.469
335.771;   63.098;   -5.943;  836.456
336.367;   60.293;   -7.393;  710.631
336.964;   63.713;   -4.063;  793.266
337.561;   61.853;   -3.813;  731.112
338.157;   56.524;   -4.654;  911.916
338.754;   55.236;   -7.934;  796.589
339.350;   52.746;   -4.414;  722.493
339.946;   54.115;   -4.664;  773.135
340.543;   46.362;   -6.375;  846.136
341.139;   42.290;   -9.815;  720.836
341.735;   39.504;   -4.526;  772.593
342.332;   37.742;   -4.895;  691.472
342.928;   37.639;   -4.295;  795.394
343.524;   32.136;   -5.476;  761.684
344.120;   29.028;   -5.856;  738.562
344.716;   31.911;   -2.155;  723.717
345.313;   29.612;   -6.275;  795.342
345.909;   24.885;   -8.815;  627.336
346.505;   25.730;   -5.305;  740.247
347.101;   26.699;   -2.674;  827.864
347.697;   27.340;   -4.344;  785.398
348.293;   22.195;   -9.975;  627.244
348.889;   22.566;   -5.774;  745.914
349.485;   21.735;   -5.004;  688.205
350.081;   22.313;   -4.704;  772.592
350.676;   17.380;   -6.635;  691.606
351.272;   22.430;   -4.504;  809.530
351.868;   21.863;   -3.914;  780.497
352.464;   18.319;   -9.044;  723.932
353.059;   15.898;   -8.314;  646.017
353.655;   18.532;   -7.024;  777.063
354.251;   19.009;   -5.343;  759.845
354.846;   14.113;   -8.604;  740.646
355.442;   12.562;   -6.945;  753.071
356.038;   14.313;   -7.564;  751.708
356.633;   13.989;   -5.814;  728.594
357.229;   11.660;   -7.364;  724.757
357.824;   10.455;   -8.024;  703.600
358.420;    9.780;   -9.384;  679.726
359.015;    9.145;   -5.104;  695.357
359.610;   10.169;   -6.854;  763.920
360.206;    4.882;  -10.185;  603.240
360.801;    8.309;   -7.054;  646.503
361.396;    8.993;   -5.034;  725.975
361.992;    4.730;   -8.284;  668.220
362.587;    3.037;   -8.625;  670.160
363.182;    5.140;   -7.674;  689.631
363.777;    5.208;   -5.164;  738.242
364.372;    4.395;   -8.604;  737.314
364.967;    1.754;   -9.055;  680.744
365.563;    5.526;   -6.114;  815.567
366.158;    1.979;   -5.814;  685.161
366.753;    2.872;   -7.854;  649.263
367.348;    1.884;   -7.804;  746.056
367.942;    1.774;   -7.954;  697.298
368.537;    0.404;   -4.984;  754.245
369.132;    0.212;   -8.564;  703.428
369.727;   -3.226;   -8.855;  638.079
370.322;   -1.717;   -6.245;  580.186
370.917;   -3.049;   -6.425;  710.646
371.511;    0.466;   -6.294;  861.834
372.106;   -2.581;   -7.685;  776.964
372.701;   -5.692;   -7.335;  585.988
373.296;   -0.863;   -4.564;  863.135
373.890;   -5.536;  -10.235;  647.840
374.485;   -7.758;   -7.885;  691.199
375.079;   -3.170;   -7.324;  738.685
375.674;   -1.738;   -3.494;  812.970
376.268;   -7.247;   -8.525;  691.759
376.863;  -12.384;  -10.086;  580.327
377.457;   -6.289;   -7.025;  662.490
378.052;   -8.275;   -3.585;  764.884
378.646;   -9.252;   -7.595;  741.167
379.240;   -9.496;   -8.335;  721.176
379.835;   -8.425;   -5.785;  636.978
380.429;  -10.349;   -4.335;  562.557
381.023;  -10.273;   -6.805;  779.205
381.617;  -11.563;   -9.195;  680.106
382.212;   -9.365;   -6.905;  685.303
382.806;   -8.829;   -3.745;  760.690
383.400;  -12.732;   -7.745;  672.281
383.994;  -13.355;   -9.765;  664.870
384.588;   -9.996;   -6.564;  697.701
385.182;   -8.925;   -5.344;  726.624
385.776;  -10.142;   -8.514;  706.875
386.370;  -12.869;   -9.555;  681.968
386.964;  -11.363;   -8.715;  684.155
387.558;  -10.623;   -6.174;  598.360
388.152;  -13.988;   -8.725;  681.959
388.745;  -11.562;   -7.965;  814.707
389.339;  -10.200;   -5.924;  747.642
389.933;   -9.640;   -5.524;  695.370
390.527;  -10.807;   -7.114;  859.029
391.120;  -16.938;  -10.725;  595.318
391.714;  -13.874;   -8.035;  711.633
392.308;  -11.030;   -3.574;  780.253
392.901;  -14.237;   -7.245;  642.460
393.495;  -16.015;   -9.285;  595.414
394.089;  -13.601;   -5.895;  760.452
394.682;  -15.303;   -4.295;  697.188
395.275;  -16.162;   -9.875;  719.927
395.869;  -16.096;   -8.485;  667.314
396.462;  -14.716;   -7.455;  616.609
397.056;  -11.617;   -5.424;  776.621
397.649;  -15.779;   -6.605;  731.575
398.242;  -12.727;   -8.224;  712.645
398.836;  -12.441;   -7.474;  766.408
399.429;  -13.530;   -7.094;  631.041
400.022;  -16.766;   -9.475;  665.902
400.615;  -14.497;   -7.145;  805.609
401.208;  -12.010;   -7.174;  691.451
401.802;  -15.251;   -5.515;  699.329
402.395;  -16.365;   -9.875;  683.502
402.988;  -16.899;   -8.845;  696.627
403.581;  -12.703;   -8.874;  646.878
404.174;  -11.450;   -5.324;  686.568
404.767;  -14.772;   -9.575;  638.583
405.360;  -16.670;  -10.965;  621.445
405.953;  -11.107;   -8.764;  759.034
406.545;  -11.026;   -7.514;  725.342
407.138;  -15.584;  -10.025;  618.350
407.731;  -13.376;  -10.034;  613.303
408.324;   -9.401;   -9.374;  660.554
408.917;  -11.147;   -6.534;  681.864
409.509;  -12.619;   -8.004;  740.396
410.102;  -14.243;   -9.875;  643.948
410.695;   -8.211;   -8.604;  665.758
411.287;  -10.131;   -6.794;  599.821
411.880;  -10.902;   -9.334;  585.421
412.472;  -13.783;  -10.254;  613.092
413.065;  -10.894;   -6.714;  629.408
413.657;   -8.808;   -7.234;  576.678
414.250;   -8.838;  -10.544;  646.681
414.842;  -10.527;   -9.744;  676.353
415.434;   -8.067;   -6.994;  570.463
416.027;   -4.771;   -5.893;  652.196
416.619;   -6.664;   -7.264;  713.400
417.211;   -6.667;  -10.374;  599.352
417.804;   -3.281;   -7.993;  628.499
418.396;   -7.329;   -7.234;  607.643
418.988;   -5.358;   -9.443;  659.238
419.580;   -8.560;  -10.724;  568.276
420.172;   -6.408;  -10.323;  536.196
420.764;   -1.912;   -8.793;  672.482
421.356;   -3.603;  -11.143;  636.898
421.948;   -3.489;   -8.293;  677.661
422.540;    0.696;   -7.893;  680.027
423.132;   -0.168;   -7.082;  600.641
423.724;   -3.836;   -8.653;  561.267
424.316;   -0.670;  -10.213;  621.345
424.908;    2.908;   -9.762;  591.517
425.500;    2.509;   -5.572;  647.978
426.092;    3.170;   -8.422;  648.268
426.683;    3.031;   -9.283;  684.836
427.275;    5.375;   -7.852;  641.471
427.867;    6.538;   -5.272;  668.948
428.458;    6.159;   -7.682;  732.344
429.050;    6.523;  -10.612;  680.749
429.642;    8.245;   -9.882;  743.124
430.233;    8.697;   -6.962;  569.356
430.825;    9.780;   -6.842;  724.809
431.416;    7.535;   -9.672;  698.241
432.008;   10.607;   -6.552;  651.723
432.599;   10.750;   -6.891;  656.073
433.190;    8.037;  -10.912;  637.670
433.782;    7.663;  -11.172;  590.395
434.373;   14.839;   -6.061;  884.765
434.964;   12.936;   -8.251;  602.920
435.556;   11.360;   -9.722;  634.537
436.147;   14.002;   -9.082;  758.490
436.738;   13.984;   -8.041;  701.099
437.329;   19.443;   -7.341;  721.723
437.920;   12.473;   -8.162;  666.688
438.511;   12.447;  -11.802;  564.526
439.103;   19.076;  -10.191;  623.998
439.694;   20.152;   -7.601;  681.583
440.285;   21.588;   -8.541;  764.432
440.876;   19.915;   -9.751;  845.738
441.466;   19.693;   -9.401;  575.162
442.057;   24.495;   -7.760;  665.814
442.648;   23.112;   -9.971;  746.255
443.239;   22.035;  -11.001;  620.477
443.830;   26.756;   -7.990;  704.958
444.421;   28.584;   -7.910;  655.474
445.011;   23.898;   -8.131;  693.619
445.602;   24.620;   -7.111;  743.126
446.193;   26.296;  -10.920;  488.117
446.783;   30.390;   -6.500;  640.397
447.374;   25.564;   -8.671;  692.759
447.964;   27.017;  -10.781;  713.770
448.555;   34.246;   -9.650;  822.742
449.145;   31.299;   -8.660;  662.853
449.736;   31.548;   -8.990;  803.179
450.326;   32.533;   -9.500;  713.626
450.917;   36.994;   -8.680;  675.324
451.507;   36.255;   -7.520;  600.661
452.097;   36.502;   -8.590;  746.267
452.688;   37.369;  -11.340;  742.160
453.278;   37.999;  -10.100;  566.840
453.868;   41.771;   -6.019;  793.550
454.458;   39.609;   -9.440;  651.141
455.048;   40.948;  -10.560;  711.783
455.639;   42.036;  -11.799;  567.096
456.229;   45.009;   -6.899;  710.694
456.819;   46.882;   -7.389;  751.158
457.409;   47.659;  -11.119;  773.993
457.999;   50.183;   -9.289;  737.505
458.589;   49.644;   -6.139;  686.606
459.179;   49.603;   -8.729;  717.658
459.769;   47.995;   -9.789;  627.099
460.358;   53.313;  -10.259;  797.262
460.948;   52.818;   -7.299;  689.503
461.538;   54.178;  -10.289;  660.677
462.128;   52.497;  -11.269;  664.934
462.717;   59.462;   -9.368;  710.326
463.307;   62.351;   -7.908;  705.846
463.897;   57.853;   -9.599;  656.942
464.486;   57.332;   -9.769;  837.128
465.076;   62.127;   -8.048;  733.776
465.666;   64.749;   -9.358;  652.900
466.255;   62.611;   -7.919;  785.651
466.845;   62.419;  -11.689;  666.749
467.434;   65.418;   -7.818;  725.873
468.023;   65.560;   -7.678;  658.357
468.613;   62.873;  -10.939;  713.946
469.202;   67.982;  -10.118;  646.507
469.791;   72.220;   -9.108;  737.811
470.381;   73.480;   -6.058;  742.813
470.970;   73.665;  -10.428;  711.099
471.559;   73.605;  -10.268;  733.291
472.148;   76.526;   -8.448;  675.737
472.738;   78.729;   -6.917;  765.466
473.327;   78.532;  -11.978;  637.529
473.916;   79.362;  -11.888;  737.446
474.505;   82.061;   -9.437;  751.703
475.094;   86.369;   -6.747;  806.570
475.683;   84.136;   -9.367;  797.699
476.272;   85.445;  -12.637;  730.632
476.861;   89.197;  -10.027;  706.754
477.449;   94.872;   -8.716;  728.487
478.038;   88.051;   -9.577;  692.513
478.627;   90.544;   -9.718;  714.852
479.216;   97.297;   -8.947;  769.441
479.805;   99.978;   -6.256;  783.375
480.393;   99.678;   -7.937; 1008.945
480.982;   98.278;   -7.717;  874.501
481.571;  105.401;   -9.266;  858.333
482.159;  104.804;   -7.636;  705.386
482.748;  104.705;   -9.667;  821.385
483.336;  109.554;  -10.376;  858.209
483.925;  110.903;   -7.147;  774.373
484.513;  117.003;   -7.996;  758.962
485.102;  113.178;  -10.027;  810.965
485.690;  122.929;  -10.446; 1011.050
486.278;  123.908;   -8.446;  979.329
486.867;  124.628;   -6.356;  809.662
487.455;  126.532;   -9.136;  898.229
488.043;  128.580;  -10.646;  748.361
488.631;  137.482;   -7.456; 1005.079
489.220;  139.574;   -6.636;  908.626
489.808;  140.207;  -11.036;  741.415
490.396;  148.155;  -10.246;  914.645
490.984;  154.537;   -8.556;  830.161
491.572;  162.637;   -5.886;  940.315
492.160;  167.583;   -9.486;  919.081
492.748;  180.246;  -10.976;  884.341
493.336;  201.497;   -8.776; 1019.693
493.924;  225.888;   -5.465;  958.077
494.512;  253.495;   -9.986; 1066.638
495.100;  288.104;  -10.636; 1103.280
495.687;  343.146;  -10.885; 1206.373
496.275;  401.995;   -8.126; 1150.796
496.863;  470.292;  -10.586; 1281.171
497.451;  566.995;  -11.926; 1386.805
498.038;  694.739;  -10.885; 1556.729
498.626;  800.797;   -6.315; 1741.407
499.214;  947.924;   -7.326; 2016.609
499.801; 1139.968;  -11.906; 2220.633
500.389; 1371.682;  -10.466; 2312.494
500.976; 1655.220;   -5.236; 2744.849
501.564; 2077.004;   -8.936; 3148.565
502.151; 2418.990;  -13.176; 3515.999
502.738; 2810.904;  -10.646; 3971.274
503.326; 3219.278;   -9.525; 4403.796
503.913; 3624.372;  -10.856; 5161.749
504.500; 3998.928;  -11.586; 5986.420
505.088; 4367.182;  -10.336; 6381.201
505.675; 4896.843;   -6.355; 6925.547
506.262; 5555.651;   -9.046; 7619.060
506.849; 6284.924;  -10.416; 8733.969
507.436; 6822.068;  -10.305; 9790.121
508.023; 7365.116;   -5.496; 9985.472
508.610; 7583.685;   -7.856;10434.618
509.197; 8215.395;  -10.097;11198.435
509.784; 9530.695;  -10.886;12391.194
510.371;10710.440;   -9.315;13603.713
510.958;11483.312;   -9.936;14426.586
511.545;12173.729;   -9.326;15243.775
512.132;12956.709;  -10.075;15945.876
512.719;13386.131;   -7.796;16340.369
513.305;14510.063;  -10.606;18011.766
513.892;15219.473;  -11.486;19754.971
514.479;16332.978;   -9.126;20967.805
515.066;17842.027;   -6.026;22299.793
515.652;19534.152;   -8.466;22908.660
516.239;20665.402;  -10.886;23798.875
516.825;21429.027;  -11.496;25567.275
517.412;22328.111;   -5.796;28154.959
517.998;23113.129;  -10.506;28344.111
518.585;23168.357;  -10.076;27134.219
519.171;23800.809;   -8.315;27268.576
519.758;25589.209;   -8.596;28964.129
520.344;27683.768;   -8.466;30664.494
520.930;27505.260;  -11.006;32550.605
521.516;28251.504;  -10.495;35422.895
522.103;29965.082;   -5.526;38280.004
522.689;30432.457;   -8.746;37835.117
523.275;30245.314;  -11.376;37288.613
523.861;32194.877;  -11.156;37281.395
524.447;33902.617;   -8.135;37846.949
525.033;33593.637;   -7.896;38321.949
525.619;33882.184;  -12.476;38579.285
526.205;35290.531;   -9.516;40622.875
526.791;38112.441;   -6.926;42258.836
527.377;38051.379;   -8.346;42966.902
527.963;38847.777;   -8.717;42018.949
528.549;38337.430;  -11.016;42476.828
529.135;37032.566;   -8.536;41854.852
529.721;35846.535;   -9.666;41237.711
530.306;35116.098;  -10.066;41259.445
530.892;35019.324;  -11.356;41506.047
531.478;36145.336;   -6.596;43559.613
532.063;39531.977;   -8.836;47695.563
532.649;40995.133;  -10.047;50808.324
533.235;41307.777;   -9.746;51787.500
533.820;40947.809;   -6.566;52145.035
534.406;42377.973;  -10.817;51133.488
534.991;42557.965;   -9.416;49996.805
535.576;40886.988;   -9.036;48882.852
536.162;41668.430;   -6.156;46942.285
536.747;42832.945;  -11.607;45711.746
537.333;45186.797;  -11.787;48510.180
537.918;48220.328;  -12.437;50439.891
538.503;48072.398;   -7.196;50863.711
539.088;44723.785;  -10.556;50906.922
539.673;44373.633;   -8.767;52621.965
540.259;45272.832;  -10.026;52368.094
540.844;42804.438;   -7.416;50879.109
541.429;44463.129;   -9.467;52077.777
542.014;46459.367;   -9.527;52716.695
542.599;45627.699;   -9.946;52363.281
543.184;42731.191;   -7.927;53187.137
543.769;43395.535;   -9.297;54697.605
544.354;43753.758;  -10.127;53913.914
544.938;42500.738;   -9.267;49680.164
545.523;44074.605;   -6.506;47386.277
546.108;46845.133;   -9.787;49151.949
546.693;48459.879;  -11.587;51384.637
547.278;48864.754;  -10.986;51853.254
547.862;46335.730;   -8.206;51173.750
548.447;42159.281;  -10.067;51691.395
549.031;41203.469;   -9.637;52456.703
549.616;45355.559;   -9.926;52714.516
550.201;45524.848;   -6.347;52414.598
550.785;46638.961;   -7.917;52355.059
551.370;45826.738;  -10.867;54589.453
551.954;45048.254;   -9.047;58267.348
552.538;46054.555;   -7.827;59062.176
553.123;44834.449;  -10.287;58115.285
553.707;42436.051;  -12.178;56556.285
554.291;43849.711;   -8.717;56201.668
554.876;47353.906;   -7.457;55335.762
555.460;47447.602;  -10.387;54155.703
556.044;47239.746;   -9.618;53721.484
556.628;44950.957;  -11.567;53731.016
557.212;43732.227;   -8.097;54312.531
557.796;42900.094;  -11.077;53797.773
558.380;43237.348;  -11.108;56145.984
558.964;43161.355;   -9.057;57277.930
559.548;44297.848;   -6.977;56459.641
560.132;42454.684;  -11.457;54434.543
560.716;40636.160;  -11.378;54800.617
561.300;41537.563;   -9.577;57606.945
561.884;42706.129;   -7.127;58972.445
562.467;40598.480;   -7.118;57327.570
563.051;39965.156;  -13.358;54962.434
563.635;41866.820;  -10.178;52594.473
564.219;42389.773;   -7.837;50610.410
564.802;42882.801;  -11.398;49551.180
565.386;42315.250;  -12.788;48370.953
565.969;41652.672;   -9.077;48178.871
566.553;40322.832;   -6.207;49957.305
567.136;41250.031;   -8.568;50369.594
567.720;38525.664;  -11.868;49492.004
568.303;36603.574;   -8.268;50616.352
568.887;36637.996;   -8.698;50727.148
569.470;37249.395;   -6.808;51698.379
570.053;36544.188;  -13.188;52122.078
570.637;34149.281;  -12.037;52536.438
571.220;33929.957;   -8.577;51186.098
571.803;35121.594;   -8.498;51032.762
572.386;37012.563;  -10.498;49609.887
572.969;39296.785;   -9.388;48285.926
573.552;37892.211;   -8.338;47624.285
574.135;36376.293;   -8.518;45498.641
574.718;33893.781;  -13.628;41970.434
575.301;33317.336;  -10.893;41447.137
575.884;32740.891;   -8.158;40923.836
576.467;33935.621;  -10.328;45267.723
577.050;35021.598;  -13.058;48175.543
577.633;35953.484;   -9.458;47729.328
578.216;35268.613;   -8.928;47579.793
578.799;34427.234;   -9.358;47820.996
579.381;33495.719;  -11.388;48115.551
579.964;31067.984;  -11.718;47333.766
580.547;33123.164;   -8.588;46668.969
581.129;33897.473;   -8.859;44466.141
581.712;34719.523;  -10.729;44164.922
582.294;35109.219;  -11.118;46477.855
582.877;35120.629;   -5.218;48244.254
583.459;33365.480;   -8.679;47437.895
584.042;31214.908;  -10.709;46943.219
584.624;30632.764;  -11.669;46792.227
585.206;29975.320;   -8.218;46557.250
585.789;29294.332;  -10.569;45793.773
586.371;29530.834;  -11.859;43836.391
586.953;27951.146;  -10.719;42972.492
587.536;27842.836;   -7.198;42487.211
588.118;30957.113;   -8.720;42086.414
588.700;30742.951;  -10.439;43389.930
589.282;31420.781;   -9.198;43646.039
589.864;32983.398;   -9.199;43438.109
590.446;34587.258;  -11.319;43151.926
591.028;34791.094;  -11.159;42781.867
591.610;33420.684;  -11.779;42839.098
592.192;30540.551;   -7.668;42820.402
592.774;29177.707;  -11.949;40724.277
593.356;28183.922;  -12.129;39874.789
593.937;27092.963;  -10.669;39980.648
594.519;29231.611;   -6.509;42069.633
595.101;31304.531;  -10.849;42976.031
595.683;31359.715;  -11.679;44084.441
596.264;32026.916;   -9.049;43478.797
596.846;32056.600;   -8.849;43803.672
597.427;32073.447;   -9.570;42986.934
598.009;33260.711;  -12.620;42832.219
598.591;33465.398;  -10.039;42580.086
599.172;33182.559;  -10.369;43061.805
599.753;33450.371;   -9.140;41691.469
600.335;34696.449;  -11.430;40692.520
600.916;32917.914;   -9.939;39982.422
601.498;30836.809;   -8.479;40318.617
602.079;29378.488;  -10.920;40670.609
602.660;28854.414;  -11.480;41450.898
603.241;30604.652;  -11.699;41137.738
603.823;29480.301;   -9.579;38868.797
604.404;28267.400;  -10.620;38182.785
604.985;29997.240;  -10.450;38078.047
605.566;30435.016;   -9.129;38056.633
606.147;30379.750;   -7.510;37020.418
606.728;31785.521;  -10.660;37883.359
607.309;30394.438;  -11.740;38748.273
607.890;30344.766;   -9.759;38850.230
608.471;29938.980;   -8.250;37457.918
609.051;29231.914;   -9.240;36066.457
609.632;27982.494;  -12.120;35991.074
610.213;27976.670;   -9.110;37402.641
610.794;28787.971;   -8.030;38383.363
611.374;28785.813;   -8.110;40562.387
611.955;29777.596;  -13.560;38533.727
612.536;31155.350;  -11.400;36951.789
613.116;30604.082;   -8.070;37197.891
613.697;31042.354;  -10.830;38411.125
614.277;29170.223;  -11.641;38673.938
614.858;29692.055;  -13.310;37075.863
615.438;29506.693;   -7.460;35092.906
616.019;27716.594;   -7.601;33666.301
616.599;27853.621;  -12.020;34189.023
617.179;29335.898;  -11.780;36952.047
617.760;30439.668;   -8.570;39582.574
618.340;31162.109;  -11.471;38943.977
618.920;32047.262;  -11.170;37594.156
619.500;32015.836;  -11.071;37866.938
620.080;30901.434;   -7.750;37869.043
620.660;31822.248;  -12.711;36868.617
621.241;33664.688;  -10.211;36352.309
621.821;34442.055;  -10.961;35459.520
622.401;33215.059;   -7.720;35207.414
622.980;31970.564;   -8.981;35980.422
623.560;30549.686;   -9.331;37351.328
624.140;29179.631;   -9.850;34388.582
624.720;24625.678;   -7.451;32368.764
625.300;21417.727;   -9.070;32638.629
625.880;24712.559;  -12.601;34599.035
626.459;28743.539;  -11.751;36831.738
627.039;31476.432;   -9.281;38299.098
627.619;31377.176;   -8.801;38289.574
628.198;30070.385;  -12.071;37220.695
628.778;29129.520;   -9.461;37632.563
629.357;29596.996;   -8.491;38003.012
629.937;29919.084;   -9.721;38402.039
630.516;29438.432;   -9.951;37868.801
631.096;29325.082;  -11.731;35760.410
631.675;31060.543;   -8.572;35225.219
632.254;36143.242;  -11.282;35130.289
632.834;35955.055;  -13.322;35794.570
633.413;34449.027;  -10.301;35788.922
633.992;32165.801;   -8.582;34532.863
634.571;32395.982;   -8.352;33590.113
635.151;34876.176;  -11.912;34943.863
635.730;33767.188;  -10.511;35352.523
636.309;30597.813;   -7.731;35366.605
636.888;27914.719;   -9.952;36165.637
637.467;28006.721;  -11.672;37515.902
638.046;29262.588;   -8.901;39288.695
638.625;32010.371;   -7.912;38279.699
639.204;32016.830;  -10.022;37741.598
639.782;30984.057;  -12.252;38364.551
640.361;27481.385;  -10.041;36740.621
640.940;24862.828;  -11.161;34950.082
641.519;25602.416;   -9.701;34137.398
642.097;28512.906;  -11.271;35654.258
642.676;31098.955;   -8.651;35637.957
643.255;32571.551;   -8.711;36567.074
643.833;31988.605;   -9.581;37809.434
644.412;31930.285;  -13.711;37337.293
644.990;30854.873;  -11.811;37018.531
645.569;30427.457;   -9.411;36518.469
646.147;30107.043;  -10.291;36186.430
646.726;30513.400;  -12.401;36267.688
647.304;31477.127;  -10.411;36647.625
647.882;32505.275;   -9.651;39286.742
648.461;34070.352;   -9.631;39157.703
649.039;32838.328;  -11.881;35412.883
649.617;31838.816;   -9.661;34744.918
650.195;30796.471;   -9.301;35403.098
650.773;29545.695;  -10.511;35053.797
651.352;27372.479;  -11.521;33756.816
651.930;24995.293;  -12.211;31868.773
652.508;23523.045;   -9.171;33121.551
653.086;27332.678;   -9.371;33564.793
653.663;30595.338;  -13.161;34054.668
654.241;29049.830;  -13.031;35693.309
654.819;30088.311;   -9.371;36422.906
655.397;29923.553;  -10.511;38213.484
655.975;29476.527;  -10.371;39507.625
656.553;29296.281;  -10.051;39498.223
657.130;28004.850;  -10.061;40395.480
657.708;27159.725;   -9.561;39242.020
658.286;27230.848;  -11.511;38920.020
658.863;28470.990;  -10.261;40202.898
659.441;31822.873;   -7.531;39677.938
660.018;32009.537;   -9.501;40413.355
660.596;30629.703;  -13.301;39931.414
661.173;31947.113;  -11.211;39604.531
661.750;32446.174;   -9.951;39700.070
662.328;31253.602;   -9.390;39292.809
662.905;30254.395;  -11.330;38235.648
663.482;26391.535;   -9.050;36212.305
664.060;24408.592;   -8.240;35944.945
664.637;27236.383;  -10.050;35170.785
665.214;28515.475;  -11.760;34197.523
665.791;30183.170;  -10.530;34549.520
666.368;29685.119;   -9.690;35118.578
666.945;30014.891;   -9.320;36019.418
667.522;31441.723;  -11.860;36048.438
668.099;31182.482;  -10.770;36243.914
668.676;29791.822;   -6.260;35958.875
669.253;28516.051;   -7.000;37384.730
669.830;28598.289;  -10.190;36779.629
670.407;28669.721;   -9.550;35231.289
670.984;28489.762;   -9.260;35544.270
671.560;29430.719;   -9.280;35466.867
672.137;28931.479;  -11.810;34280.863
672.714;29889.725;  -11.490;34632.863
673.290;31252.219;   -7.740;35135.422
673.867;31209.467;  -10.660;36114.480
674.443;31142.633;  -12.230;36152.859
675.020;29159.518;  -10.450;35327.238
675.596;29796.111;   -9.260;35795.176
676.173;30419.816;  -10.780;35430.355
676.749;30062.961;  -13.690;33549.516
677.326;29805.244;  -11.980;32210.012
677.902;29548.346;   -8.630;32068.871
678.478;29088.629;  -10.730;32583.891
679.054;28143.059;  -10.520;32088.928
679.631;28445.801;  -11.920;30978.848
680.207;29894.879;   -7.490;33160.887
680.783;31454.648;   -9.860;35570.363
681.359;30657.057;  -13.380;36125.184
681.935;30433.408;  -12.480;35240.922
682.511;30524.500;   -7.900;34429.961
683.087;30936.242;   -7.710;34463.680
683.663;29988.799;  -11.480;34648.898
684.239;28559.975;  -14.090;34546.457
684.815;27909.658;   -7.560;35586.375
685.390;27765.535;   -9.910;35821.895
685.966;28241.734;  -11.159;35085.871
686.542;30575.967;  -11.169;34198.230
687.118;33175.195;   -5.959;32847.707
687.693;34065.047;  -10.329;32794.027
688.269;33783.645;  -12.059;33072.367
688.844;32002.396;  -10.909;33141.664
689.420;30000.299;   -8.019;33965.742
689.995;28300.527;   -8.399;34655.523
690.571;26781.566;  -10.949;33576.742
691.146;26691.908;   -9.619;32657.219
691.722;26709.018;   -8.999;32526.979
692.297;26134.982;  -11.589;33014.617
692.872;27236.176;  -11.739;34012.254
693.448;27195.182;  -11.059;34237.434
694.023;26205.422;  -10.139;34142.672
694.598;27983.803;   -9.029;34132.031
695.173;28928.398;  -13.319;34205.250
695.748;27868.443;  -10.169;32882.488
696.323;27722.746;   -8.339;32864.906
696.898;27946.992;   -8.169;33170.004
697.473;28305.250;  -12.309;32432.984
698.048;27718.895;  -10.989;31649.303
698.623;27305.850;   -9.329;30778.141
699.198;28542.258;   -9.849;31140.119
699.773;30103.797;  -12.329;31764.299
700.348;28965.275;  -10.389;31780.816
700.922;28865.332;   -9.269;32046.375
701.497;30067.387;   -9.329;32603.574
702.072;30552.607;  -10.789;34799.871
702.646;29035.604;  -10.839;35793.172
703.221;26549.816;   -9.099;35201.590
703.795;28296.256;  -10.939;34764.527
704.370;28932.670;  -12.859;34307.367
704.944;29022.965;  -11.559;33509.887
705.519;29527.219;   -7.939;31388.584
706.093;30691.598;  -10.499;31340.104
706.668;31324.660;  -11.289;32630.281
707.242;30293.053;  -11.509;32728.779
707.816;29107.088;   -9.639;32947.238
708.390;27514.979;  -11.429;33277.855
708.965;27770.990;  -11.869;33834.336
709.539;27629.623;  -11.689;33709.273
710.113;27701.764;  -10.478;33044.313
710.687;27404.674;  -10.228;31953.992
711.261;25996.975;  -13.698;30505.949
711.835;25759.021;  -13.378;30262.369
712.409;25909.764;   -9.698;31254.447
712.983;27950.307;  -11.898;32754.986
713.557;29416.111;  -15.138;34018.824
714.131;29386.971;  -14.098;34579.625
714.704;28400.965;   -9.958;33890.262
715.278;25858.234;  -10.028;33531.102
715.852;24542.916;  -11.148;33601.660
716.425;25599.848;   -9.068;33515.117
716.999;26744.805;  -10.038;33185.555
717.573;27540.801;   -9.798;33905.996
718.146;28585.389;  -12.378;35199.293
718.720;28792.588;  -11.918;35060.551
719.293;28644.619;   -8.088;34973.230
719.867;31595.369;  -10.888;36394.449
720.440;31692.277;  -11.938;36663.008
721.013;30003.270;  -12.818;35102.426
721.587;28307.527;  -10.298;33985.266
722.160;26981.379;  -10.048;33524.965
722.733;25880.334;  -12.108;32987.043
723.306;26011.193;  -10.818;33066.301
723.880;28186.289;   -8.908;33399.500
724.453;30814.943;   -9.878;33468.297
725.026;30364.234;  -11.188;33816.637
725.599;27375.463;  -11.678;32797.996
726.172;26824.184;   -9.618;33187.434
726.745;27642.492;   -8.258;35136.613
727.318;28824.037;  -12.978;35751.730
727.891;29794.609;  -12.148;35890.430
728.463;29450.680;   -8.968;34822.090
729.036;27994.184;  -10.188;32895.086
729.609;28439.100;  -11.788;31823.225
730.182;25827.682;  -11.788;31445.283
730.754;23586.805;  -10.268;32373.223
731.327;24007.488;   -9.998;33676.820
731.900;24359.984;  -12.228;33417.000
732.472;24840.227;  -13.848;31978.498
733.045;26296.707;   -8.698;30368.777
733.617;26441.162;  -10.607;30574.215
734.190;26928.104;  -11.507;31280.975
734.762;24924.471;  -13.647;31674.412
735.334;22956.219;   -9.767;31247.291
735.907;23144.586;   -9.897;29876.211
736.479;23560.492;  -11.637;29808.488
737.051;23232.109;   -9.567;30233.547
737.623;23691.863;   -8.187;31469.086
738.195;23825.680;  -11.187;31784.225
738.768;25722.537;  -12.337;32120.523
739.340;26914.621;  -12.227;32094.342
739.912;26212.141;  -11.057;31312.680
740.484;24749.488;  -10.207;31946.238
741.056;22967.721;  -10.047;32984.059
741.628;23940.732;  -13.627;33897.715
742.199;26076.904;   -7.177;33213.016
742.771;24879.816;  -10.797;31369.113
743.343;22858.541;  -11.997;31865.473
743.915;21952.283;  -12.867;32388.631
744.487;21903.441;   -7.617;31079.568
745.058;22014.885;   -9.557;30570.107
745.630;22646.883;   -9.877;29970.127
746.201;24116.197;  -14.177;29186.766
746.773;25078.232;   -9.237;28805.723
747.344;24777.863;   -9.847;29591.223
747.916;22717.896;  -11.657;31412.201
748.487;22533.666;  -10.587;32194.898
749.059;23907.068;   -8.707;32533.719
749.630;24676.697;  -10.537;32158.518
750.201;23763.250;  -11.687;30855.395
750.773;22038.389;  -11.647;28622.555
751.344;21671.781;   -7.147;28405.732
751.915;22525.930;   -9.757;28461.551
752.486;22934.123;  -12.427;27842.850
753.057;21042.379;  -12.227;27845.008
753.628;19672.215;  -10.417;27728.107
754.199;20422.932;  -11.767;27381.086
754.770;21486.420;  -11.187;25882.203
755.341;21789.227;  -10.507;25886.184
755.912;22120.600;   -9.387;26050.861
756.483;21716.305;  -10.647;26798.779
757.054;20008.705;  -11.837;27048.238
757.625;18545.115;  -12.716;26294.838
758.195;18252.768;   -9.666;26142.076
758.766;17871.775;   -8.656;26392.234
759.337;18327.715;  -12.856;26334.594
759.907;19656.342;  -13.366;27579.652
760.478;20634.039;   -8.576;28352.770
761.048;20320.189;  -10.526;27325.088
761.619;19329.682;  -11.116;26460.428
762.189;19311.377;  -12.136;26029.826
762.760;20229.475;   -9.456;26430.145
763.330;21507.512;   -7.136;26670.902
763.900;21254.643;  -11.786;26603.021
764.471;18960.498;  -11.546;25542.740
765.041;17584.824;   -8.096;24358.459
765.611;17314.639;   -8.876;23991.297
766.181;17397.686;  -12.196;24470.236
766.751;18522.639;  -11.636;24845.975
767.321;18487.998;  -10.156;24533.633
767.891;16491.102;  -11.766;24916.492
768.461;15795.302;  -14.936;24776.771
769.031;16197.554;  -12.356;24757.988
769.601;17968.803;   -7.526;24181.088
770.171;18226.445;  -10.766;23670.387
770.741;17160.918;  -13.176;22960.045
771.311;16984.129;  -10.616;22917.523
771.880;17718.957;   -9.576;23562.941
772.450;17824.377;  -10.336;24216.500
773.020;17762.953;  -13.516;24140.398
773.589;16835.602;  -13.466;24414.857
774.159;15993.722;   -8.686;23858.717
774.729;15516.822;   -9.476;22942.135
775.298;15222.520;  -13.666;22324.033
775.867;14814.633;  -11.716;21140.313
776.437;15066.271;   -9.906;20838.092
777.006;14879.051;  -12.166;20599.510
777.576;14418.527;  -12.356;20508.809
778.145;14274.158;  -11.646;20732.947
778.714;14432.355;   -8.226;21062.465
779.283;14053.933;   -9.556;20949.664
779.853;13508.507;  -14.116;20508.623
780.422;13881.203;  -11.506;20649.082
780.991;13448.973;   -9.556;21527.520
781.560;12077.021;   -9.095;22632.658
782.129;11788.728;  -12.135;23048.277
782.698;11776.748;  -10.865;23438.555
783.267;11439.994;   -9.335;23267.734
783.836;11393.782;  -11.045;22415.133
784.404;12375.937;  -13.865;20443.152
784.973;13123.863;  -13.095;19699.150
785.542;13227.105;  -11.575;19763.828
786.111;12964.072;   -9.705;20341.408
786.679;12523.194;  -12.105;20207.967
787.248;12290.984;  -12.455;19516.465
787.817;12122.303;  -11.535;18900.363
788.385;11826.020;   -9.765;17879.121
788.954;11301.416;  -14.005;17658.301
789.522;10594.676;  -11.955;17788.879
790.090;10887.118;  -10.135;18118.277
790.659;11540.904;  -10.975;18338.736
791.227;11252.701;  -13.375;18508.615
791.795;11635.855;  -12.375;17898.254
792.364;11971.577;  -10.725;17295.133
792.932;12360.276;   -9.715;16822.051
793.500;12664.586;  -12.675;17040.148
794.068;12822.104;  -13.495;17179.787
794.636;12998.881;  -10.885;16664.246
795.204;12241.740;  -11.045;16524.545
795.772;12166.301;  -13.175;17274.564
796.340;11730.481;  -12.445;17891.002
796.908;11453.272;   -9.735;17648.561
797.476;11302.360;   -9.815;17064.080
798.044;10890.254;  -13.985;16672.777
798.612;10163.604;  -13.115;17023.996
799.180; 9796.811;  -10.185;16561.615
799.747; 9651.734;   -9.055;15962.773
800.315; 9327.408;  -12.385;15296.992
800.883; 9149.350;  -15.035;14801.771
801.450; 9406.085;  -10.365;14534.430
802.018; 9563.056;   -9.855;14173.248
802.585; 9561.998;  -11.905;14029.547
803.153; 9512.684;  -11.585;13836.846
803.720; 9302.071;   -9.095;13567.324
804.287; 8814.445;   -9.135;13360.622
804.855; 8285.528;  -11.604;13681.981
805.422; 8121.046;  -11.794;13536.560
805.989; 8228.263;  -10.734;13355.958
806.556; 8423.523;  -10.444;13747.896
807.124; 8672.396;  -12.764;13987.376
807.691; 8630.802;  -12.964;14038.674
808.258; 8464.349;  -11.134;14120.152
808.825; 8151.240;   -9.854;13860.111
809.392; 8266.412;  -10.504;13268.790
809.959; 7787.823;  -13.054;12680.389
810.526; 7255.399;   -8.294;12427.308
811.093; 7182.660;   -8.394;12030.105
811.659; 7842.602;  -12.304;11653.664
812.226; 8500.427;  -13.944;11637.183
812.793; 8299.124;  -10.484;11611.521
813.360; 7636.676;  -10.144;11885.181
813.926; 7276.250;  -11.684;12770.539
814.493; 7077.031;  -13.644;12677.638
815.060; 6708.912;   -9.724;11974.336
815.626; 6606.823;   -9.854;11594.715
816.193; 6934.704;  -13.254;11579.474
816.759; 6987.363;  -13.204;11666.972
817.325; 6994.738;   -9.434;11325.530
817.892; 7295.607;  -10.134;11105.369
818.458; 7735.200;  -13.474;10843.928
819.024; 7448.680;  -11.854;10714.406
819.591; 7145.318;  -10.244;10469.165
820.157; 6953.851;  -10.704;10235.523
820.723; 6441.656;  -12.324;10847.563
821.289; 6093.001;   -9.444;11040.980
821.855; 6030.102;   -8.374;10357.100
822.421; 6045.912;  -10.234; 9978.918
822.987; 6048.222;  -13.294; 9754.177
823.553; 5622.142;  -10.884;10065.755
824.119; 5342.845;   -8.884;10036.294
824.685; 5467.940;   -6.784;10029.192
825.251; 5625.650;  -12.004;10199.230
825.816; 5577.814;  -11.474; 9820.189
826.382; 5282.096;   -9.174; 9297.248
826.948; 5384.695;   -9.214; 9381.347
827.513; 5807.898;  -10.774; 9450.726
828.079; 5742.848;  -11.924; 9472.444
828.645; 5139.061;  -10.543; 9292.643
829.210; 4900.417;  -10.533; 9065.341
829.776; 4869.959;  -10.753; 9132.620
830.341; 4756.649;  -10.173; 9092.878
830.906; 4887.167;  -10.743; 9078.557
831.472; 5239.977;  -11.113; 8534.535
832.037; 5092.043;  -10.603; 8677.874
832.602; 4589.150;  -13.323; 8628.692
833.167; 4318.735;  -10.823; 8879.031
833.733; 4247.033;  -10.113; 9189.790
834.298; 4373.424;  -13.583; 9052.608
834.863; 4532.111;  -12.703; 8895.087
835.428; 4565.232;  -10.523; 8824.266
835.993; 4417.990;   -6.963; 8845.385
836.558; 4227.106;  -10.763; 8888.563
837.123; 4277.525;   -9.903; 8966.582
837.688; 4525.382;   -9.913; 8617.860
838.253; 4806.822;  -10.283; 8590.699
838.817; 5016.505;  -12.963; 8443.797
839.382; 4956.421;  -14.243; 8799.356
839.947; 4649.611;  -10.733; 8810.595
840.511; 4353.081;   -9.383; 8796.394
841.076; 3968.152;  -12.563; 8347.231
841.641; 3997.405;  -12.953; 8224.330
842.205; 4116.296;   -7.043; 8223.349
842.770; 4122.984;   -8.163; 8622.107
843.334; 4221.297;  -12.503; 8410.386
843.898; 4176.169;  -11.693; 8337.465
844.463; 4175.784;  -10.203; 8506.283
845.027; 3980.579;   -9.533; 8280.962
845.591; 3794.977;  -13.443; 8231.141
846.156; 3820.836;  -13.143; 7969.179
846.720; 3746.161;   -9.433; 7768.278
847.284; 3642.467;  -11.033; 7630.957
847.848; 3505.069;  -10.403; 7472.395
848.412; 3412.052;  -11.553; 7437.394
848.976; 3451.204;   -8.393; 7674.592
849.540; 3355.281;   -8.713; 7836.011
850.104; 3370.169;  -12.463; 7913.669
850.668; 3734.123;  -12.973; 7694.508
851.232; 3933.790;  -10.793; 7756.887
851.796; 3813.944;  -10.662; 7926.545
852.359; 3494.140;  -13.082; 7827.844
852.923; 3292.245;  -12.192; 7641.163
853.487; 3152.271;  -11.912; 7342.501
854.050; 3133.995;  -10.892; 7042.820
854.614; 3272.376;  -13.992; 7151.338
855.177; 3386.020;  -11.732; 7105.077
855.741; 3420.695;   -8.962; 6989.675
856.304; 3314.933;   -9.442; 6596.634
856.868; 3288.994;  -14.192; 6356.272
857.431; 3414.857;  -12.702; 6468.571
857.995; 3550.329;   -9.942; 6373.210
858.558; 3593.126;   -9.112; 6324.448
859.121; 3330.987;  -12.932; 6408.327
859.684; 3133.590;  -13.442; 6347.886
860.247; 3229.521;  -10.632; 6321.264
860.810; 3280.268;  -11.272; 6301.903
861.374; 3040.681;   -9.832; 6607.881
861.937; 2768.310;  -11.762; 6408.200
862.500; 2752.784;   -9.722; 6572.639
863.062; 2894.443;  -10.512; 6387.297
863.625; 3030.683;  -11.232; 6190.836
864.188; 3189.478;  -14.112; 5807.254
864.751; 3290.300;  -11.302; 5682.413
865.314; 3230.205;  -10.112; 5547.492
865.876; 2992.819;  -12.182; 5500.150
866.439; 2931.746;  -10.722; 5415.909
867.002; 2892.913;   -9.252; 5501.567
867.564; 2720.890;   -9.572; 5413.946
868.127; 2517.069;  -13.142; 5160.325
868.689; 2390.177;  -12.902; 5133.183
869.252; 2284.129;   -9.732; 5252.382
869.814; 2179.313;   -9.432; 5297.141
870.377; 2170.650;  -11.552; 5390.919
870.939; 2224.265;   -9.052; 5599.898
871.501; 2302.705;  -10.982; 5248.336
872.063; 2333.985;  -12.292; 4854.235
872.626; 2274.363;  -14.912; 4817.074
873.188; 2257.020;  -13.112; 4987.732
873.750; 2227.889;  -13.442; 4868.651
874.312; 2142.844;   -9.402; 4779.330
874.874; 2066.479;  -11.062; 4866.348
875.436; 1983.004;  -13.931; 4718.887
875.998; 1972.039;   -9.561; 4660.005
876.560; 2001.537;  -11.321; 4462.964
877.122; 1947.088;  -12.221; 4145.042
877.683; 1836.330;  -12.191; 4056.481
878.245; 1748.632;  -12.101; 3950.740
878.807; 1780.550;   -8.971; 4058.958
879.369; 1809.244;  -12.071; 3954.677
879.930; 1721.798;  -14.621; 3941.495
880.492; 1649.447;  -10.311; 4067.014
881.053; 1627.132;  -10.901; 3859.633
881.615; 1538.722;  -14.411; 3776.071
882.176; 1436.254;  -13.761; 3734.750
882.738; 1373.995;   -9.181; 3678.489
883.299; 1345.233;  -11.791; 3405.407
883.860; 1326.333;  -13.121; 3351.106
884.422; 1309.943;  -11.211; 3394.044
884.983; 1274.564;  -10.091; 3166.443
885.544; 1210.839;   -8.461; 3189.802
886.105; 1136.738;  -12.361; 3160.360
886.666; 1069.739;  -14.141; 3093.059
887.227; 1005.214;  -11.361; 2941.957
887.788;  940.535;  -11.401; 2974.836
888.349;  870.955;  -13.791; 2721.214
888.910;  859.681;  -13.191; 2696.493
889.471;  865.074;   -9.881; 2560.172
890.032;  849.800;   -9.881; 2558.190
890.593;  820.520;  -10.371; 2567.669
891.153;  791.864;  -13.301; 2460.307
891.714;  744.431;  -11.431; 2372.046
892.275;  711.335;  -11.291; 2309.505
892.835;  682.377;  -11.471; 2382.543
893.396;  634.011;  -11.541; 2295.502
893.956;  574.525;  -11.181; 2162.420
894.517;  528.625;  -11.741; 2125.439
895.077;  517.883;  -11.671; 2086.978
895.638;  521.762;  -11.311; 2126.316
896.198;  496.120;   -9.831; 1838.275
896.758;  453.672;   -8.421; 1892.813
897.319;  420.000;  -12.351; 1792.232
897.879;  405.019;  -13.511; 1762.751
898.439;  381.053;  -12.001; 1661.149
898.999;  354.328;  -10.180; 1781.468
899.559;  344.276;  -12.030; 1703.347
900.119;  339.217;  -15.710; 1537.525
900.679;  334.191;   -8.900; 1638.384
901.239;  320.273;   -8.340; 1527.902
901.799;  310.587;  -13.910; 1456.441
902.359;  304.224;  -13.460; 1357.140
902.919;  297.799;  -11.490; 1331.118
903.479;  284.404;  -12.110; 1317.257
904.038;  263.778;  -11.720; 1262.595
904.598;  248.581;  -13.610; 1152.034
905.158;  244.827;  -11.040; 1240.893
905.717;  238.957;  -10.900; 1233.691
906.277;  228.123;  -15.080; 1217.330
906.836;  218.704;  -13.380; 1222.408
907.396;  210.402;  -10.780; 1193.047
907.955;  202.138;   -8.500; 1182.526
908.515;  195.893;  -12.760; 1099.364
909.074;  190.528;  -11.900; 1092.863
909.633;  183.559;   -8.950; 1069.121
910.192;  178.665;   -8.770; 1196.460
910.752;  173.375;  -12.390; 1029.960
911.311;  169.572;  -13.680; 1009.780
911.870;  166.333;  -12.370;  971.460
912.429;  167.490;  -10.900; 1094.080
912.988;  166.211;  -11.690; 1081.060
913.547;  162.493;  -13.240;  940.380
914.106;  157.316;  -11.990;  999.420
914.665;  153.177;   -9.990;  984.020
915.224;  153.188;  -12.880; 1035.760
915.782;  153.077;  -12.350;  922.560
916.341;  152.754;   -9.110; 1049.840
916.900;  148.160;   -9.270;  925.260
917.458;  146.093;  -13.240;  884.220
918.017;  146.839;  -13.550;  942.600
918.576;  146.133;  -12.320;  904.440
919.134;  143.287;  -11.490;  837.980
919.693;  142.109;  -13.670;  893.060
920.251;  140.457;  -15.470;  876.500
920.809;  139.763;  -11.290;  839.580
921.368;  139.396;  -10.210;  885.360
921.926;  138.629;  -12.140;  842.940
922.484;  137.232;  -13.080;  903.360
923.042;  136.948;  -11.720;  880.340
923.601;  139.356;   -7.480;  998.680
924.159;  137.576;  -11.570;  935.560
924.717;  134.961;  -13.840;  841.080
925.275;  134.403;  -10.640;  903.240
925.833;  133.748;  -11.540;  779.320
926.391;  134.806;  -12.960;  938.380
926.949;  133.154;  -14.130;  857.680
927.506;  133.855;  -11.750;  903.500
928.064;  133.813;  -10.250;  877.580
928.622;  132.675;  -13.030;  880.100
929.180;  133.164;  -13.400;  814.180
929.737;  133.796;  -10.700;  808.540
930.295;  137.003;  -10.070;  928.480
930.853;  138.561;  -11.960;  849.100
931.410;  140.304;  -13.120;  821.120
931.968;  138.688;  -10.770;  940.660
932.525;  138.722;  -10.680;  909.380
933.082;  139.698;  -13.130;  811.440
933.640;  141.337;  -13.210;  925.900
934.197;  139.016;  -11.060;  886.360
934.754;  140.261;   -9.580;  897.780
935.312;  142.474;  -14.000;  863.340
935.869;  148.223;  -10.710; 1012.980
936.426;  147.766;   -9.860;  872.800
936.983;  148.277;   -9.710;  889.020
937.540;  149.585;  -13.990;  838.280
938.097;  148.676;  -14.040;  940.120
938.654;  149.249;  -10.310;  898.860
939.211;  150.681;  -10.560;  952.480
939.768;  154.495;  -13.900;  915.420
940.324;  159.491;  -14.760;  904.200
940.881;  160.141;  -10.370;  878.500
941.438;  160.503;   -8.260; 1021.200
941.995;  156.839;  -12.540;  992.560
942.551;  154.126;  -14.670;  875.620
943.108;  153.507;  -10.450;  937.920
943.664;  155.770;  -10.750;  869.340
944.221;  159.235;  -11.550; 1088.140
944.777;  157.623;  -14.770;  869.680
945.334;  156.974;  -12.820;  884.840
945.890;  158.569;  -10.130;  946.480
946.446;  158.442;  -13.470;  947.020
947.003;  161.527;  -12.120;  964.940
947.559;  164.305;   -9.980; 1063.040
948.115;  164.033;   -9.080; 1026.540
948.671;  161.335;  -10.830;  967.300
949.227;  158.081;  -12.440;  859.560
949.783;  157.316;  -12.910;  858.900
950.339;  158.292;  -10.270;  991.000
950.895;  158.490;  -13.630; 1023.840
951.451;  157.908;  -15.100;  925.280
952.007;  157.191;  -11.330;  998.540
952.563;  157.134;  -10.580;  937.780
953.118;  154.920;  -13.440;  904.940
953.674;  155.042;  -12.710;  935.780
954.230;  154.566;  -10.350;  949.640
954.785;  152.681;   -9.190;  936.640
955.341;  150.602;  -11.200;  998.160
955.897;  149.773;  -16.560;  834.660
956.452;  152.019;  -12.570;  953.840
957.008;  151.296;   -7.970; 1083.640
957.563;  148.652;  -11.940; 1009.540
958.118;  143.124;  -13.450;  877.700
958.674;  143.659;  -12.030;  946.780
959.229;  144.101;   -9.410; 1013.980
959.784;  143.306;  -12.000;  832.400
960.339;  141.651;  -14.780; 1001.280
960.894;  138.570;   -9.860;  963.760
961.449;  133.800;   -9.970;  859.960
962.004;  134.671;  -10.900; 1212.840
962.559;  129.947;  -13.150;  860.140
963.114;  126.825;  -13.740;  742.480
963.669;  126.472;   -9.820;  915.500
964.224;  124.383;  -13.890;  874.340
964.779;  124.032;  -12.600;  828.420
965.334;  124.720;  -10.950; 1017.860
965.888;  123.875;  -11.170;  875.360
966.443;  126.630;  -12.540;  972.380
966.998;  128.767;  -15.780;  819.460
967.552;  126.584;   -9.760;  908.380
968.107;  122.267;   -9.060;  868.300
968.661;  123.708;  -11.950;  922.440
969.216;  124.422;  -12.800;  856.280
969.770;  124.467;  -11.210;  917.200
970.324;  123.339;  -11.610;  923.140
970.879;  119.855;  -11.370;  947.180
971.433;  117.857;  -12.540;  952.720
971.987;  112.686;  -11.320;  895.340
972.541;  109.366;  -10.720;  917.100
973.095;  108.079;   -9.680; 1009.460
973.649;  107.084;  -11.440;  809.480
974.203;  105.756;  -11.210;  829.040
974.757;  105.637;  -10.240;  855.220
975.311;  105.649;  -13.720;  872.600
975.865;  104.707;  -13.770;  881.820
976.419;  102.358;  -11.690;  857.400
976.973;  100.775;   -9.510;  849.620
977.526;   99.116;  -12.620;  949.920
978.080;   92.578;  -12.010;  796.780
978.634;   86.076;  -10.170;  921.320
979.187;   77.179;   -9.020;  905.400
979.741;   75.793;   -9.820; 1018.380
980.294;   74.151;  -14.870;  789.160
980.848;   73.515;  -12.380;  717.220
981.401;   76.628;  -10.350;  816.540
981.955;   79.412;  -13.720;  844.300
982.508;   79.765;  -11.490;  746.340
983.061;   82.375;  -10.000;  915.260
983.615;   80.190;  -11.480;  798.800
984.168;   78.063;  -13.220;  770.080
984.721;   78.345;  -13.960;  880.760
985.274;   77.330;  -10.870;  867.500
985.827;   75.754;   -9.790;  834.220
986.380;   74.414;  -13.120;  721.340
986.933;   75.174;  -12.450;  864.800
987.486;   74.241;  -10.210;  861.920
988.039;   72.801;   -8.430;  863.100
988.591;   71.681;  -10.520;  893.260
989.144;   70.754;  -14.860;  737.260
989.697;   69.031;  -13.080;  758.740
990.250;   69.622;  -10.150;  858.100
990.802;   68.561;  -13.430;  755.860
991.355;   69.911;  -12.750;  974.880
991.907;   67.936;  -12.040;  864.320
992.460;   65.961;  -11.330;  753.760
993.012;   64.620;  -13.610;  749.540
993.565;   63.949;  -13.460;  711.360
994.117;   65.073;   -9.360;  950.780
994.669;   60.622;  -11.300;  701.320
995.221;   59.057;  -13.540;  791.920
995.774;   58.612;  -13.430;  787.580
996.326;   57.946;  -12.520;  740.220
996.878;   57.182;  -10.950;  838.420
997.430;   55.530;  -14.300;  699.860
997.982;   55.151;  -13.760;  750.140
998.534;   53.697;  -11.530;  739.060
999.086;   52.390;  -10.310;  738.220
999.638;   50.865;  -12.530;  661.380
1000.190;   51.835;  -11.840;  699.320
1000.741;   50.277;  -10.260;  742.700
1001.293;   50.059;   -8.860;  686.020
1001.845;   48.628;  -13.700;  676.640
1002.396;   49.583;  -12.100;  743.400
1002.948;   49.043;  -12.760;  737.400
1003.500;   47.436;  -10.380;  723.780
1004.051;   47.933;  -11.900;  907.580
1004.603;   46.698;  -12.250;  791.820
1005.154;   42.961;  -13.210;  608.980
1005.705;   42.010;  -10.950;  723.960
1006.257;   41.940;  -13.880;  707.220
1006.808;   41.502;  -12.840;  685.460
1007.359;   40.982;  -10.570;  763.240
1007.910;   39.595;   -9.620;  646.640
1008.461;   39.314;  -13.630;  732.940
1009.013;   39.159;  -17.200;  588.340
1009.564;   39.844;  -10.200;  793.520
1010.115;   36.893;  -12.570;  597.040
1010.665;   36.893;  -15.150;  602.160
1011.216;   37.830;  -14.480;  667.920
1011.767;   37.278;  -11.340;  697.920
1012.318;   36.286;   -9.780;  736.980
1012.869;   35.385;  -12.380;  679.000
1013.419;   35.122;  -15.560;  603.120
1013.970;   35.975;  -11.010;  666.640
1014.521;   33.950;  -11.610;  620.620
1015.071;   34.678;  -13.450;  670.380
1015.622;   35.024;  -13.870;  635.460
1016.172;   34.158;  -11.610;  596.820
1016.723;   33.341;  -12.120;  614.380
1017.273;   32.549;  -13.620;  604.160
1017.823;   34.203;  -14.140;  650.340
1018.374;   33.112;  -12.800;  611.760
1018.924;   32.175;  -12.340;  716.880
1019.474;   32.598;  -11.410;  718.880
1020.024;   31.785;  -14.770;  657.580
1020.574;   32.782;   -9.780;  726.160
1021.124;   32.327;   -8.560;  673.580
1021.674;   31.147;  -15.190;  559.120
1022.224;   32.107;  -13.530;  708.940
1022.774;   31.850;  -13.280;  668.820
1023.324;   31.772;  -10.690;  753.520
1023.874;   32.181;  -10.240;  875.760
1024.423;   30.933;  -12.540;  613.700
1024.973;   30.771;  -10.010;  610.760
1025.523;   29.748;  -10.550;  620.960
1026.072;   29.573;  -13.560;  606.420
1026.622;   29.695;  -15.120;  675.740
1027.172;   30.678;  -11.260;  715.660
1027.721;   28.361;  -11.410;  601.220
1028.270;   29.582;  -13.530;  663.400
1028.820;   30.013;  -13.680;  638.080
1029.369;   28.927;  -13.520;  612.700
1029.918;   29.009;  -10.980;  649.840
1030.468;   27.775;  -13.530;  564.780
1031.017;   29.384;  -13.170;  634.800
1031.566;   28.111;  -12.200;  608.900
1032.115;   27.817;   -9.960;  694.500
1032.664;   27.103;  -13.210;  596.480
1033.213;   28.391;  -12.500;  735.420
1033.762;   28.306;  -11.910;  635.620
1034.311;   26.333;   -9.640;  677.220
1034.860;   27.181;  -13.310;  691.000
1035.408;   27.075;  -11.830;  722.720
1035.957;   27.920;  -12.000;  719.540
1036.506;   25.293;  -11.690;  530.800
1037.055;   27.473;  -10.990;  844.320
1037.603;   26.325;  -15.120;  664.000
1038.152;   25.102;  -12.450;  534.760
1038.700;   24.950;  -10.560;  585.740
1039.249;   24.240;  -11.080;  681.220
1039.797;   25.714;  -12.540;  633.360
1040.345;   25.743;  -11.920;  705.420
1040.894;   24.409;  -11.410;  625.300
1041.442;   24.084;  -14.320;  632.200
1041.990;   23.507;  -16.240;  559.160
1042.538;   23.456;  -11.680;  536.180
1043.087;   23.131;  -10.760;  570.860
1043.635;   24.228;  -11.850;  670.500
1044.183;   23.812;  -15.480;  586.400
1044.731;   23.379;  -11.770;  576.000
1045.279;   23.542;  -13.090;  674.920
1045.827;   24.323;  -12.440;  892.400
1046.374;   22.128;  -13.840;  515.420
1046.922;   21.870;  -13.220;  590.580
1047.470;   23.229;  -10.230;  691.300
1048.018;   23.273;  -14.590;  647.960
1048.565;   24.340;  -12.050;  708.600
1049.113;   21.790;  -11.650;  557.000
1049.660;   21.253;  -10.510;  629.660
1050.208;   22.073;  -13.310;  675.640
1050.755;   21.537;  -15.900;  606.580
1051.303;   21.899;  -11.430;  686.820
1051.850;   21.216;   -8.480;  635.120
1052.397;   19.135;  -15.010;  473.960
1052.945;   20.805;  -13.960;  617.760
1053.492;   21.954;  -13.150;  741.840
1054.039;   21.838;   -9.630;  720.180
1054.586;   20.301;  -13.680;  557.240
1055.133;   21.577;  -14.570;  693.140
1055.680;   20.553;  -13.820;  646.620
1056.227;   19.230;  -11.730;  542.780
1056.774;   21.288;  -12.480;  794.980
1057.321;   19.700;  -13.930;  523.260
1057.868;   20.241;  -11.690;  651.320
1058.415;   19.549;   -9.520;  651.980
1058.961;   19.860;  -13.160;  678.940
1059.508;   19.884;  -12.920;  643.820
1060.055;   19.779;  -11.920;  581.780
1060.601;   20.246;  -11.500;  624.300
1061.148;   19.383;  -14.330;  616.820
1061.694;   18.936;  -16.870;  592.580
1062.241;   19.021;  -10.330;  596.320
1062.787;   19.121;  -10.620;  663.140
1063.334;   20.580;  -10.110;  808.560
1063.880;   19.131;  -13.400;  668.360
1064.426;   19.286;  -10.680;  706.820
1064.972;   17.514;   -9.920;  601.340
1065.518;   16.338;  -10.980;  566.640
1066.065;   17.859;  -14.890;  624.460
1066.611;   17.812;  -12.870;  598.800
1067.157;   17.697;  -12.950;  641.860
1067.703;   17.619;  -13.540;  668.480
1068.249;   17.967;  -13.540;  605.220
1068.794;   17.129;  -12.600;  626.880
1069.340;   16.447;  -10.620;  578.960
1069.886;   17.003;  -12.830;  590.700
1070.432;   16.083;  -14.870;  541.720
1070.977;   16.376;  -11.980;  601.080
1071.523;   16.433;   -8.200;  573.060
1072.068;   16.308;  -12.330;  582.000
1072.614;   16.088;  -16.370;  527.760
1073.160;   17.459;  -11.100;  687.040
1073.705;   15.233;  -10.480;  572.520
1074.250;   15.755;  -14.520;  559.900
1074.796;   17.100;  -11.460;  655.160
1075.341;   16.844;  -11.950;  664.100
1075.886;   15.312;  -11.460;  594.240
1076.431;   14.255;  -13.770;  649.880
1076.976;   15.392;  -12.680;  639.220
1077.521;   14.861;  -13.170;  583.080
1078.067;   14.281;  -10.860;  579.400
1078.612;   15.156;  -13.920;  661.620
1079.156;   15.443;  -13.880;  601.540
1079.701;   15.500;  -13.120;  693.260
1080.246;   14.653;   -9.940;  696.300
1080.791;   14.338;  -14.740;  625.020
1081.336;   15.052;  -13.750;  659.320
1081.880;   14.968;  -13.400;  649.680
1082.425;   13.486;  -12.220;  573.480
1082.970;   14.791;  -11.610;  717.040
1083.514;   13.950;  -13.580;  597.000
1084.059;   13.245;  -12.810;  586.720
1084.603;   12.834;  -12.320;  565.840
1085.147;   12.976;  -13.190;  645.220
1085.692;   14.529;  -12.480;  716.800
1086.236;   12.333;  -13.020;  503.140
1086.780;   14.361;   -9.190;  751.440
1087.325;   13.191;  -12.480;  654.620
1087.869;   13.777;  -12.450;  610.700
1088.413;   13.587;  -12.240;  705.040
1088.957;   11.464;   -9.020;  543.400
1089.501;   13.393;  -10.320;  766.640
1090.045;   13.084;  -12.720;  726.480
1090.589;   11.238;  -13.690;  569.920
1091.133;   11.842;  -10.020;  673.340
1091.676;   12.277;  -12.330;  591.940
1092.220;   11.889;  -14.970;  600.920
1092.764;   13.367;  -12.430;  706.960
1093.307;   12.214;   -9.800;  673.780
1093.851;   10.409;  -14.970;  556.540
1094.395;   12.222;  -15.310;  683.140
1094.938;   11.631;  -10.370;  632.520
1095.482;   10.668;  -11.050;  559.800
1096.025;   11.485;  -11.840;  710.880
1096.568;   12.311;  -12.840;  779.280
1097.112;   10.124;  -14.700;  508.180
1097.655;   11.200;   -8.720;  603.000
1098.198;    9.733;  -13.610;  600.180
1098.741;    9.965;  -13.350;  612.860
1099.285;   11.066;  -11.230;  657.300
1099.828;    8.374;  -11.840;  439.400
1100.371;    9.858;  -10.840;  608.160
1100.914;   10.663;  -14.190;  682.660
1101.457;   11.126;  -11.240;  679.900
1101.999;    8.781;  -11.270;  584.680
1102.542;    9.346;  -11.480;  641.440
1103.085;    9.799;  -11.750;  658.500
1103.628;   10.351;  -11.400;  762.060
1104.170;    9.107;  -10.490;  588.280
1104.713;   10.087;  -10.600;  646.700
1105.256;    9.475;  -14.360;  557.440
1105.798;    8.572;  -13.210;  499.980
1106.341;    9.951;  -10.270;  728.900
1106.883;    8.693;  -12.200;  521.340
1107.425;    8.671;  -13.110;  668.180
1107.968;    8.353;  -12.840;  612.380
1108.510;    8.826;   -6.480;  684.960
1109.052;    7.348;  -13.940;  612.620
1109.594;    8.579;  -13.690;  554.440
1110.136;    9.056;  -11.880;  643.220
1110.679;    7.217;   -9.500;  633.080
1111.221;    8.308;  -14.160;  604.460
1111.763;    7.729;  -13.980;  559.220
1112.304;    7.567;  -13.880;  547.140
1112.846;    8.413;  -12.210;  666.240
1113.388;    9.780;  -11.390;  942.180
1113.930;    7.627;  -14.540;  694.200
1114.472;    7.009;  -12.640;  606.540
1115.013;    6.099;  -11.620;  551.280
1115.555;    6.028;  -13.640;  587.100
1116.097;    6.497;  -15.380;  579.480
1116.638;    7.698;  -12.640;  684.600
1117.180;    7.286;   -9.850;  667.740
1117.721;    6.295;  -13.690;  568.580
1118.262;    7.516;  -12.680;  677.960
1118.804;    7.782;  -12.530;  637.340
1119.345;    6.187;  -11.690;  578.400
1119.886;    7.508;  -13.380;  704.040
1120.427;    5.873;  -14.070;  589.020
1120.969;    5.927;  -13.500;  597.920
1121.510;    5.052;  -11.480;  563.060
1122.051;    6.128;  -12.830;  723.580
1122.592;    5.993;  -14.290;  655.420
1123.133;    4.903;  -12.400;  547.940
1123.673;    6.307;  -10.130;  706.480
1124.214;    5.012;  -12.930;  612.460
1124.755;    6.411;  -14.380;  639.460
1125.296;    5.693;  -14.000;  627.320
1125.836;    6.208;  -10.070;  691.500
1126.377;    5.248;  -12.640;  599.660
1126.918;    5.543;  -12.960;  614.980
1127.458;    4.853;  -13.350;  622.220
1127.999;    5.208;  -10.750;  656.980
1128.539;    5.651;  -12.350;  694.240
1129.079;    4.964;  -14.860;  632.720
1129.620;    4.662;  -13.840;  558.100
1130.160;    3.806;  -12.330;  539.480
1130.700;    4.200;  -14.530;  640.840
1131.240;    5.416;  -12.530;  643.700
1131.781;    4.714;  -14.450;  619.680
1132.321;    4.227;   -9.790;  599.120
1132.861;    3.232;  -14.860;  564.200
1133.401;    2.944;  -14.290;  593.940
1133.941;    4.509;  -11.750;  626.280
1134.481;    2.926;   -9.920;  597.580
1135.020;    3.013;  -12.290;  609.160
1135.560;    4.351;  -11.650;  674.940
1136.100;    3.729;  -16.270;  501.160
1136.640;    3.000;  -10.890;  510.480
1137.179;    2.776;  -14.180;  537.960
1137.719;    3.502;  -16.250;  605.400
1138.258;    3.373;  -14.230;  587.360
1138.798;    3.534;   -9.090;  663.780
1139.337;    1.103;  -15.130;  482.840
1139.877;    3.592;  -13.680;  642.360
1140.416;    4.702;  -11.320;  878.060
1140.955;    2.199;  -10.860;  535.380
1141.494;    2.968;  -12.920;  669.280
1142.034;    2.811;  -13.930;  583.520
1142.573;    3.640;  -11.440;  646.280
1143.112;    2.372;  -12.000;  553.480
1143.651;    1.862;  -13.670;  536.480
1144.190;    3.517;  -12.730;  691.640
1144.729;    2.784;  -14.560;  607.420
1145.267;    2.600;  -11.830;  584.900
1145.806;    2.500;  -12.230;  637.040
1146.345;    1.600;  -14.130;  635.020
1146.884;    2.739;  -11.590;  622.500
1147.422;    1.378;  -12.550;  533.060
1147.961;    2.867;  -11.180;  708.460
1148.500;    2.683;  -11.510;  669.720
1149.038;    3.097;  -11.640;  632.500
1149.577;    2.239;  -10.130;  698.640
1150.115;   -0.313;  -13.970;  452.280
1150.653;    1.978;  -14.520;  607.340
1151.192;    2.043;  -12.810;  552.920
1151.730;    1.837;   -9.100;  652.560
1152.268;    0.972;  -12.220;  589.520
1152.806;    1.206;  -14.140;  571.180
1153.344;    0.014;  -12.350;  577.640
1153.882;    1.363;   -8.980;  600.060
1154.421;   -0.699;  -15.190;  470.620
1154.958;    0.324;  -15.210;  595.240
1155.496;    2.609;  -12.850;  645.280
1156.034;    0.949;   -9.940;  721.880
1156.572;    2.226;  -13.570;  667.060
1157.110;   -0.302;  -14.590;  473.940
1157.647;    1.371;  -13.030;  676.960
1158.185;   -0.472;  -12.140;  564.320
1158.723;   -1.277;  -14.390;  509.200
1159.260;    0.706;  -14.090;  701.700
1159.798;    1.331;  -11.920;  658.160
1160.335;   -0.278;  -11.110;  631.820

