
Integration time [ms]:   3.276
Averaging Nr. [scans]: 1000
Smoothing Nr. [pixels]: 0
Data measured with spectrometer [name]: 7414430SP
Wave   ;Sample   ;Dark     ;Reference
[nm]   ;[counts] ;[counts] ;[counts] 

288.544;  151.450;    7.793;  793.890
289.143;  155.185;    7.462;  681.602
289.742;  155.639;    8.602;  828.814
290.341;  140.714;    1.321;  789.841
290.940;  129.856;   -0.709;  730.702
291.538;  130.916;    0.881;  881.108
292.137;  130.585;    0.122;  792.581
292.736;  134.931;   -1.929;  975.101
293.335;  132.083;   -8.229;  735.086
293.934;  131.732;   -5.279;  781.677
294.532;  130.850;   -1.369; 1031.958
295.131;  116.721;   -7.641;  834.394
295.730;  116.710;   -8.420;  809.588
296.328;  116.014;   -5.611;  783.442
296.927;  116.267;   -5.781;  779.652
297.525;  116.951;   -6.361;  781.236
298.124;  106.647;  -11.382;  654.009
298.722;  110.656;   -7.641;  761.933
299.321;  109.872;   -6.811;  708.597
299.919;  106.802;   -6.991;  751.918
300.518;  104.046;  -10.362;  689.338
301.116;  106.070;   -9.581;  691.381
301.715;  105.992;   -4.891;  730.222
302.313;  104.872;   -8.801;  704.943
302.911;  100.366;   -8.522;  733.830
303.509;  105.939;   -6.171;  925.627
304.108;  102.698;   -7.311;  760.383
304.706;  102.262;   -8.321;  801.664
305.304;   96.520;  -10.222;  796.707
305.902;  101.841;   -6.021;  784.484
306.500;   98.495;   -4.971;  728.200
307.098;   95.897;   -7.061;  746.560
307.696;   93.634;   -8.801;  780.432
308.294;   94.257;   -6.411;  731.359
308.892;   97.005;   -2.901;  759.769
309.490;   93.267;   -5.041;  712.161
310.088;   91.178;   -5.002;  788.444
310.686;   95.912;   -2.041;  821.749
311.284;   91.804;   -2.351;  766.040
311.882;   89.272;   -4.422;  731.225
312.480;   85.390;   -4.192;  697.167
313.078;   87.203;   -1.172;  808.331
313.675;   88.369;   -2.601;  691.600
314.273;   82.845;   -1.312;  797.837
314.871;   82.513;   -3.942;  589.829
315.468;   79.906;   -2.802;  652.090
316.066;   82.835;   -0.701;  694.427
316.664;   75.762;   -4.362;  656.351
317.261;   79.770;   -2.872;  910.128
317.859;   75.997;   -2.022;  768.735
318.456;   76.485;   -0.531;  830.096
319.054;   71.686;   -3.912;  787.828
319.651;   70.904;   -4.752;  759.928
320.249;   69.420;   -2.602;  810.188
320.846;   67.314;   -0.821;  714.286
321.443;   65.541;   -4.642;  832.135
322.041;   61.765;   -5.002;  812.315
322.638;   59.321;   -3.982;  701.456
323.235;   61.430;   -3.411;  665.683
323.833;   58.138;   -7.361;  740.354
324.430;   53.200;   -8.611;  615.900
325.027;   54.856;   -4.061;  876.855
325.624;   55.283;   -4.031;  644.532
326.221;   51.426;   -7.481;  689.717
326.818;   50.911;   -5.281;  818.332
327.415;   54.267;   -7.460;  748.828
328.012;   54.324;   -5.510;  690.585
328.609;   52.752;   -7.880;  731.389
329.206;   50.510;   -8.331;  778.621
329.803;   51.057;   -5.121;  737.841
330.400;   53.673;   -4.510;  704.260
330.997;   55.230;   -6.441;  817.147
331.594;   53.769;   -8.831;  788.185
332.191;   58.540;   -7.621;  728.722
332.787;   61.056;   -4.591;  844.463
333.384;   59.757;   -7.412;  763.093
333.981;   58.661;   -8.293;  815.687
334.578;   60.385;   -7.052;  708.378
335.174;   64.441;   -3.102;  731.469
335.771;   63.984;   -5.943;  836.456
336.367;   59.810;   -7.393;  710.631
336.964;   63.415;   -4.063;  793.266
337.561;   62.231;   -3.813;  731.112
338.157;   57.996;   -4.654;  911.916
338.754;   55.624;   -7.934;  796.589
339.350;   53.225;   -4.414;  722.493
339.946;   55.546;   -4.664;  773.135
340.543;   46.897;   -6.375;  846.136
341.139;   42.026;   -9.815;  720.836
341.735;   39.799;   -4.526;  772.593
342.332;   38.585;   -4.895;  691.472
342.928;   39.212;   -4.295;  795.394
343.524;   33.578;   -5.476;  761.684
344.120;   29.427;   -5.856;  738.562
344.716;   32.446;   -2.155;  723.717
345.313;   30.230;   -6.275;  795.342
345.909;   24.853;   -8.815;  627.336
346.505;   26.301;   -5.305;  740.247
347.101;   27.897;   -2.674;  827.864
347.697;   27.703;   -4.344;  785.398
348.293;   22.408;   -9.975;  627.244
348.889;   23.008;   -5.774;  745.914
349.485;   22.119;   -5.004;  688.205
350.081;   23.213;   -4.704;  772.592
350.676;   18.123;   -6.635;  691.606
351.272;   22.911;   -4.504;  809.530
351.868;   22.550;   -3.914;  780.497
352.464;   19.678;   -9.044;  723.932
353.059;   15.702;   -8.314;  646.017
353.655;   19.026;   -7.024;  777.063
354.251;   20.579;   -5.343;  759.845
354.846;   14.524;   -8.604;  740.646
355.442;   12.843;   -6.945;  753.071
356.038;   14.052;   -7.564;  751.708
356.633;   14.315;   -5.814;  728.594
357.229;   12.364;   -7.364;  724.757
357.824;   10.282;   -8.024;  703.600
358.420;    9.904;   -9.384;  679.726
359.015;   10.826;   -5.104;  695.357
359.610;   11.378;   -6.854;  763.920
360.206;    5.513;  -10.185;  603.240
360.801;    8.047;   -7.054;  646.503
361.396;   10.690;   -5.034;  725.975
361.992;    5.400;   -8.284;  668.220
362.587;    2.759;   -8.625;  670.160
363.182;    4.972;   -7.674;  689.631
363.777;    5.715;   -5.164;  738.242
364.372;    5.432;   -8.604;  737.314
364.967;    2.280;   -9.055;  680.744
365.563;    5.812;   -6.114;  815.567
366.158;    3.396;   -5.814;  685.161
366.753;    3.782;   -7.854;  649.263
367.348;    0.862;   -7.804;  746.056
367.942;    1.477;   -7.954;  697.298
368.537;    1.166;   -4.984;  754.245
369.132;    0.800;   -8.564;  703.428
369.727;   -3.029;   -8.855;  638.079
370.322;   -1.774;   -6.245;  580.186
370.917;   -1.475;   -6.425;  710.646
371.511;    1.745;   -6.294;  861.834
372.106;   -2.702;   -7.685;  776.964
372.701;   -5.236;   -7.335;  585.988
373.296;   -0.152;   -4.564;  863.135
373.890;   -4.647;  -10.235;  647.840
374.485;   -8.124;   -7.885;  691.199
375.079;   -2.914;   -7.324;  738.685
375.674;   -1.372;   -3.494;  812.970
376.268;   -5.771;   -8.525;  691.759
376.863;  -11.698;  -10.086;  580.327
377.457;   -6.277;   -7.025;  662.490
378.052;   -7.739;   -3.585;  764.884
378.646;   -7.388;   -7.595;  741.167
379.240;   -9.048;   -8.335;  721.176
379.835;   -7.133;   -5.785;  636.978
380.429;   -9.838;   -4.335;  562.557
381.023;   -9.763;   -6.805;  779.205
381.617;  -11.842;   -9.195;  680.106
382.212;   -9.156;   -6.905;  685.303
382.806;   -8.657;   -3.745;  760.690
383.400;  -12.118;   -7.745;  672.281
383.994;  -12.487;   -9.765;  664.870
384.588;   -9.164;   -6.564;  697.701
385.182;   -7.171;   -5.344;  726.624
385.776;   -9.174;   -8.514;  706.875
386.370;  -13.124;   -9.555;  681.968
386.964;  -11.300;   -8.715;  684.155
387.558;   -9.405;   -6.174;  598.360
388.152;  -13.263;   -8.725;  681.959
388.745;  -11.044;   -7.965;  814.707
389.339;   -9.331;   -5.924;  747.642
389.933;   -8.684;   -5.524;  695.370
390.527;   -9.922;   -7.114;  859.029
391.120;  -16.282;  -10.725;  595.318
391.714;  -13.491;   -8.035;  711.633
392.308;   -9.543;   -3.574;  780.253
392.901;  -13.948;   -7.245;  642.460
393.495;  -15.348;   -9.285;  595.414
394.089;  -13.597;   -5.895;  760.452
394.682;  -13.689;   -4.295;  697.188
395.275;  -15.029;   -9.875;  719.927
395.869;  -16.012;   -8.485;  667.314
396.462;  -13.826;   -7.455;  616.609
397.056;  -10.174;   -5.424;  776.621
397.649;  -15.418;   -6.605;  731.575
398.242;  -12.148;   -8.224;  712.645
398.836;  -11.372;   -7.474;  766.408
399.429;  -12.614;   -7.094;  631.041
400.022;  -16.481;   -9.475;  665.902
400.615;  -14.430;   -7.145;  805.609
401.208;  -11.780;   -7.174;  691.451
401.802;  -13.974;   -5.515;  699.329
402.395;  -14.737;   -9.875;  683.502
402.988;  -16.382;   -8.845;  696.627
403.581;  -12.850;   -8.874;  646.878
404.174;  -10.808;   -5.324;  686.568
404.767;  -13.854;   -9.575;  638.583
405.360;  -16.939;  -10.965;  621.445
405.953;  -10.804;   -8.764;  759.034
406.545;   -9.941;   -7.514;  725.342
407.138;  -14.494;  -10.025;  618.350
407.731;  -13.856;  -10.034;  613.303
408.324;   -9.293;   -9.374;  660.554
408.917;  -10.623;   -6.534;  681.864
409.509;  -12.920;   -8.004;  740.396
410.102;  -14.075;   -9.875;  643.948
410.695;   -7.732;   -8.604;  665.758
411.287;   -8.769;   -6.794;  599.821
411.880;  -10.406;   -9.334;  585.421
412.472;  -12.487;  -10.254;  613.092
413.065;  -11.115;   -6.714;  629.408
413.657;   -8.480;   -7.234;  576.678
414.250;   -8.054;  -10.544;  646.681
414.842;  -11.005;   -9.744;  676.353
415.434;   -7.587;   -6.994;  570.463
416.027;   -3.855;   -5.893;  652.196
416.619;   -5.928;   -7.264;  713.400
417.211;   -6.321;  -10.374;  599.352
417.804;   -2.709;   -7.993;  628.499
418.396;   -7.008;   -7.234;  607.643
418.988;   -4.187;   -9.443;  659.238
419.580;   -7.965;  -10.724;  568.276
420.172;   -5.490;  -10.323;  536.196
420.764;   -1.091;   -8.793;  672.482
421.356;   -2.454;  -11.143;  636.898
421.948;   -3.567;   -8.293;  677.661
422.540;    1.375;   -7.893;  680.027
423.132;    0.915;   -7.082;  600.641
423.724;   -2.377;   -8.653;  561.267
424.316;   -0.826;  -10.213;  621.345
424.908;    2.564;   -9.762;  591.517
425.500;    4.254;   -5.572;  647.978
426.092;    4.473;   -8.422;  648.268
426.683;    3.022;   -9.283;  684.836
427.275;    5.575;   -7.852;  641.471
427.867;    7.882;   -5.272;  668.948
428.458;    7.926;   -7.682;  732.344
429.050;    5.542;  -10.612;  680.749
429.642;    8.429;   -9.882;  743.124
430.233;    8.769;   -6.962;  569.356
430.825;   10.560;   -6.842;  724.809
431.416;    7.416;   -9.672;  698.241
432.008;   11.400;   -6.552;  651.723
432.599;   12.838;   -6.891;  656.073
433.190;    9.018;  -10.912;  637.670
433.782;    8.846;  -11.172;  590.395
434.373;   15.398;   -6.061;  884.765
434.964;   15.339;   -8.251;  602.920
435.556;   11.902;   -9.722;  634.537
436.147;   14.593;   -9.082;  758.490
436.738;   14.696;   -8.041;  701.099
437.329;   20.624;   -7.341;  721.723
437.920;   13.847;   -8.162;  666.688
438.511;   12.597;  -11.802;  564.526
439.103;   19.896;  -10.191;  623.998
439.694;   21.772;   -7.601;  681.583
440.285;   22.858;   -8.541;  764.432
440.876;   20.199;   -9.751;  845.738
441.466;   19.875;   -9.401;  575.162
442.057;   24.882;   -7.760;  665.814
442.648;   23.774;   -9.971;  746.255
443.239;   21.582;  -11.001;  620.477
443.830;   27.291;   -7.990;  704.958
444.421;   29.319;   -7.910;  655.474
445.011;   25.659;   -8.131;  693.619
445.602;   25.228;   -7.111;  743.126
446.193;   27.415;  -10.920;  488.117
446.783;   31.537;   -6.500;  640.397
447.374;   26.927;   -8.671;  692.759
447.964;   27.829;  -10.781;  713.770
448.555;   36.273;   -9.650;  822.742
449.145;   32.005;   -8.660;  662.853
449.736;   33.617;   -8.990;  803.179
450.326;   32.793;   -9.500;  713.626
450.917;   37.662;   -8.680;  675.324
451.507;   37.079;   -7.520;  600.661
452.097;   37.502;   -8.590;  746.267
452.688;   38.426;  -11.340;  742.160
453.278;   38.858;  -10.100;  566.840
453.868;   43.348;   -6.019;  793.550
454.458;   40.760;   -9.440;  651.141
455.048;   40.954;  -10.560;  711.783
455.639;   42.619;  -11.799;  567.096
456.229;   46.258;   -6.899;  710.694
456.819;   48.770;   -7.389;  751.158
457.409;   48.019;  -11.119;  773.993
457.999;   51.150;   -9.289;  737.505
458.589;   51.535;   -6.139;  686.606
459.179;   51.221;   -8.729;  717.658
459.769;   49.616;   -9.789;  627.099
460.358;   53.548;  -10.259;  797.262
460.948;   54.179;   -7.299;  689.503
461.538;   55.645;  -10.289;  660.677
462.128;   53.702;  -11.269;  664.934
462.717;   59.810;   -9.368;  710.326
463.307;   63.821;   -7.908;  705.846
463.897;   59.124;   -9.599;  656.942
464.486;   58.190;   -9.769;  837.128
465.076;   63.244;   -8.048;  733.776
465.666;   65.737;   -9.358;  652.900
466.255;   64.361;   -7.919;  785.651
466.845;   63.157;  -11.689;  666.749
467.434;   66.815;   -7.818;  725.873
468.023;   67.024;   -7.678;  658.357
468.613;   65.307;  -10.939;  713.946
469.202;   69.138;  -10.118;  646.507
469.791;   73.426;   -9.108;  737.811
470.381;   75.311;   -6.058;  742.813
470.970;   75.368;  -10.428;  711.099
471.559;   74.278;  -10.268;  733.291
472.148;   77.317;   -8.448;  675.737
472.738;   79.899;   -6.917;  765.466
473.327;   79.905;  -11.978;  637.529
473.916;   79.713;  -11.888;  737.446
474.505;   84.209;   -9.437;  751.703
475.094;   86.964;   -6.747;  806.570
475.683;   86.171;   -9.367;  797.699
476.272;   86.334;  -12.637;  730.632
476.861;   89.780;  -10.027;  706.754
477.449;   97.539;   -8.716;  728.487
478.038;   90.382;   -9.577;  692.513
478.627;   92.067;   -9.718;  714.852
479.216;   98.687;   -8.947;  769.441
479.805;  101.979;   -6.256;  783.375
480.393;  101.730;   -7.937; 1008.945
480.982;   99.933;   -7.717;  874.501
481.571;  106.462;   -9.266;  858.333
482.159;  108.376;   -7.636;  705.386
482.748;  106.835;   -9.667;  821.385
483.336;  111.378;  -10.376;  858.209
483.925;  111.782;   -7.147;  774.373
484.513;  119.892;   -7.996;  758.962
485.102;  116.007;  -10.027;  810.965
485.690;  124.256;  -10.446; 1011.050
486.278;  127.126;   -8.446;  979.329
486.867;  126.833;   -6.356;  809.662
487.455;  128.408;   -9.136;  898.229
488.043;  129.611;  -10.646;  748.361
488.631;  138.885;   -7.456; 1005.079
489.220;  142.575;   -6.636;  908.626
489.808;  143.456;  -11.036;  741.415
490.396;  150.430;  -10.246;  914.645
490.984;  156.656;   -8.556;  830.161
491.572;  166.164;   -5.886;  940.315
492.160;  172.063;   -9.486;  919.081
492.748;  183.093;  -10.976;  884.341
493.336;  206.258;   -8.776; 1019.693
493.924;  232.262;   -5.465;  958.077
494.512;  259.633;   -9.986; 1066.638
495.100;  294.909;  -10.636; 1103.280
495.687;  350.085;  -10.885; 1206.373
496.275;  411.883;   -8.126; 1150.796
496.863;  481.203;  -10.586; 1281.171
497.451;  578.833;  -11.926; 1386.805
498.038;  711.228;  -10.885; 1556.729
498.626;  816.442;   -6.315; 1741.407
499.214;  969.811;   -7.326; 2016.609
499.801; 1170.423;  -11.906; 2220.633
500.389; 1413.775;  -10.466; 2312.494
500.976; 1698.248;   -5.236; 2744.849
501.564; 2128.567;   -8.936; 3148.565
502.151; 2477.075;  -13.176; 3515.999
502.738; 2887.461;  -10.646; 3971.274
503.326; 3300.426;   -9.525; 4403.796
503.913; 3703.102;  -10.856; 5161.749
504.500; 4091.504;  -11.586; 5986.420
505.088; 4480.285;  -10.336; 6381.201
505.675; 5019.903;   -6.355; 6925.547
506.262; 5691.725;   -9.046; 7619.060
506.849; 6407.546;  -10.416; 8733.969
507.436; 6950.281;  -10.305; 9790.121
508.023; 7539.256;   -5.496; 9985.472
508.610; 7791.699;   -7.856;10434.618
509.197; 8381.273;  -10.097;11198.435
509.784; 9702.266;  -10.886;12391.194
510.371;10878.164;   -9.315;13603.713
510.958;11639.650;   -9.936;14426.586
511.545;12338.172;   -9.326;15243.775
512.132;13138.296;  -10.075;15945.876
512.719;13618.091;   -7.796;16340.369
513.305;14693.388;  -10.606;18011.766
513.892;15436.649;  -11.486;19754.971
514.479;16602.035;   -9.126;20967.805
515.066;18145.576;   -6.026;22299.793
515.652;19896.006;   -8.466;22908.660
516.239;21060.998;  -10.886;23798.875
516.825;21738.836;  -11.496;25567.275
517.412;22702.781;   -5.796;28154.959
517.998;23611.678;  -10.506;28344.111
518.585;23711.346;  -10.076;27134.219
519.171;24207.459;   -8.315;27268.576
519.758;25994.086;   -8.596;28964.129
520.344;28025.561;   -8.466;30664.494
520.930;27683.541;  -11.006;32550.605
521.516;28581.727;  -10.495;35422.895
522.103;30364.365;   -5.526;38280.004
522.689;30784.791;   -8.746;37835.117
523.275;30454.738;  -11.376;37288.613
523.861;32145.633;  -11.156;37281.395
524.447;33911.242;   -8.135;37846.949
525.033;33752.527;   -7.896;38321.949
525.619;33900.508;  -12.476;38579.285
526.205;35194.586;   -9.516;40622.875
526.791;38020.555;   -6.926;42258.836
527.377;37861.668;   -8.346;42966.902
527.963;38581.980;   -8.717;42018.949
528.549;37782.176;  -11.016;42476.828
529.135;36209.652;   -8.536;41854.852
529.721;34841.508;   -9.666;41237.711
530.306;33563.020;  -10.066;41259.445
530.892;32065.553;  -11.356;41506.047
531.478;31836.525;   -6.596;43559.613
532.063;34954.660;   -8.836;47695.563
532.649;37447.129;  -10.047;50808.324
533.235;38357.316;   -9.746;51787.500
533.820;37287.559;   -6.566;52145.035
534.406;36242.000;  -10.817;51133.488
534.991;33178.262;   -9.416;49996.805
535.576;29917.734;   -9.036;48882.852
536.162;32415.717;   -6.156;46942.285
536.747;39025.137;  -11.607;45711.746
537.333;46137.453;  -11.787;48510.180
537.918;51276.297;  -12.437;50439.891
538.503;51206.520;   -7.196;50863.711
539.088;47494.246;  -10.556;50906.922
539.673;46996.516;   -8.767;52621.965
540.259;47791.734;  -10.026;52368.094
540.844;45192.457;   -7.416;50879.109
541.429;47045.395;   -9.467;52077.777
542.014;49055.586;   -9.527;52716.695
542.599;47858.859;   -9.946;52363.281
543.184;44716.172;   -7.927;53187.137
543.769;45831.422;   -9.297;54697.605
544.354;45999.973;  -10.127;53913.914
544.938;44505.922;   -9.267;49680.164
545.523;46128.754;   -6.506;47386.277
546.108;49150.391;   -9.787;49151.949
546.693;50984.258;  -11.587;51384.637
547.278;51242.246;  -10.986;51853.254
547.862;48374.223;   -8.206;51173.750
548.447;43836.801;  -10.067;51691.395
549.031;42977.469;   -9.637;52456.703
549.616;47403.680;   -9.926;52714.516
550.201;47263.512;   -6.347;52414.598
550.785;48688.836;   -7.917;52355.059
551.370;47729.242;  -10.867;54589.453
551.954;46947.840;   -9.047;58267.348
552.538;47624.387;   -7.827;59062.176
553.123;46075.957;  -10.287;58115.285
553.707;43784.652;  -12.178;56556.285
554.291;45629.406;   -8.717;56201.668
554.876;49304.992;   -7.457;55335.762
555.460;49428.480;  -10.387;54155.703
556.044;49359.551;   -9.618;53721.484
556.628;47072.750;  -11.567;53731.016
557.212;45456.535;   -8.097;54312.531
557.796;44200.758;  -11.077;53797.773
558.380;44611.410;  -11.108;56145.984
558.964;44884.637;   -9.057;57277.930
559.548;46138.285;   -6.977;56459.641
560.132;44183.180;  -11.457;54434.543
560.716;42239.656;  -11.378;54800.617
561.300;43232.004;   -9.577;57606.945
561.884;44360.945;   -7.127;58972.445
562.467;42100.020;   -7.118;57327.570
563.051;41497.133;  -13.358;54962.434
563.635;43206.867;  -10.178;52594.473
564.219;43762.609;   -7.837;50610.410
564.802;44541.055;  -11.398;49551.180
565.386;43931.242;  -12.788;48370.953
565.969;43022.520;   -9.077;48178.871
566.553;41586.133;   -6.207;49957.305
567.136;42753.637;   -8.568;50369.594
567.720;39829.172;  -11.868;49492.004
568.303;37845.137;   -8.268;50616.352
568.887;37914.336;   -8.698;50727.148
569.470;38492.402;   -6.808;51698.379
570.053;37751.832;  -13.188;52122.078
570.637;35165.461;  -12.037;52536.438
571.220;34808.809;   -8.577;51186.098
571.803;35987.762;   -8.498;51032.762
572.386;38063.391;  -10.498;49609.887
572.969;40277.320;   -9.388;48285.926
573.552;38925.246;   -8.338;47624.285
574.135;37378.984;   -8.518;45498.641
574.718;34983.723;  -13.628;41970.434
575.301;34434.367;  -10.893;41447.137
575.884;33885.008;   -8.158;40923.836
576.467;35127.922;  -10.328;45267.723
577.050;36474.484;  -13.058;48175.543
577.633;37313.688;   -9.458;47729.328
578.216;36550.332;   -8.928;47579.793
578.799;35746.754;   -9.358;47820.996
579.381;34895.410;  -11.388;48115.551
579.964;32718.930;  -11.718;47333.766
580.547;34820.898;   -8.588;46668.969
581.129;35841.625;   -8.859;44466.141
581.712;36851.273;  -10.729;44164.922
582.294;37226.879;  -11.118;46477.855
582.877;37069.742;   -5.218;48244.254
583.459;35495.465;   -8.679;47437.895
584.042;33359.516;  -10.709;46943.219
584.624;32989.617;  -11.669;46792.227
585.206;32862.039;   -8.218;46557.250
585.789;33085.465;  -10.569;45793.773
586.371;35386.281;  -11.859;43836.391
586.953;36194.195;  -10.719;42972.492
587.536;37173.359;   -7.198;42487.211
588.118;37724.582;   -8.720;42086.414
588.700;33367.148;  -10.439;43389.930
589.282;32360.133;   -9.198;43646.039
589.864;33637.469;   -9.199;43438.109
590.446;35050.184;  -11.319;43151.926
591.028;35034.055;  -11.159;42781.867
591.610;33619.648;  -11.779;42839.098
592.192;30722.068;   -7.668;42820.402
592.774;29321.779;  -11.949;40724.277
593.356;28302.506;  -12.129;39874.789
593.937;27388.584;  -10.669;39980.648
594.519;29607.486;   -6.509;42069.633
595.101;31591.006;  -10.849;42976.031
595.683;31631.748;  -11.679;44084.441
596.264;32347.480;   -9.049;43478.797
596.846;32391.113;   -8.849;43803.672
597.427;32581.859;   -9.570;42986.934
598.009;33916.910;  -12.620;42832.219
598.591;33995.520;  -10.039;42580.086
599.172;33565.613;  -10.369;43061.805
599.753;33639.930;   -9.140;41691.469
600.335;34981.801;  -11.430;40692.520
600.916;33286.887;   -9.939;39982.422
601.498;31154.789;   -8.479;40318.617
602.079;29706.898;  -10.920;40670.609
602.660;29284.191;  -11.480;41450.898
603.241;30985.326;  -11.699;41137.738
603.823;29866.594;   -9.579;38868.797
604.404;28695.561;  -10.620;38182.785
604.985;30511.203;  -10.450;38078.047
605.566;30927.838;   -9.129;38056.633
606.147;30937.057;   -7.510;37020.418
606.728;32095.354;  -10.660;37883.359
607.309;30570.777;  -11.740;38748.273
607.890;30584.133;   -9.759;38850.230
608.471;30239.330;   -8.250;37457.918
609.051;29451.582;   -9.240;36066.457
609.632;28203.080;  -12.120;35991.074
610.213;28243.986;   -9.110;37402.641
610.794;28977.096;   -8.030;38383.363
611.374;29089.775;   -8.110;40562.387
611.955;30447.176;  -13.560;38533.727
612.536;31846.914;  -11.400;36951.789
613.116;31009.697;   -8.070;37197.891
613.697;31195.533;  -10.830;38411.125
614.277;29316.363;  -11.641;38673.938
614.858;30131.771;  -13.310;37075.863
615.438;29805.549;   -7.460;35092.906
616.019;27755.166;   -7.601;33666.301
616.599;27863.156;  -12.020;34189.023
617.179;29449.152;  -11.780;36952.047
617.760;30750.994;   -8.570;39582.574
618.340;31402.053;  -11.471;38943.977
618.920;32318.287;  -11.170;37594.156
619.500;32590.725;  -11.071;37866.938
620.080;31477.385;   -7.750;37869.043
620.660;32302.520;  -12.711;36868.617
621.241;34003.598;  -10.211;36352.309
621.821;34834.539;  -10.961;35459.520
622.401;33640.637;   -7.720;35207.414
622.980;32376.271;   -8.981;35980.422
623.560;30907.031;   -9.331;37351.328
624.140;29447.133;   -9.850;34388.582
624.720;24830.090;   -7.451;32368.764
625.300;21632.197;   -9.070;32638.629
625.880;24964.613;  -12.601;34599.035
626.459;28970.256;  -11.751;36831.738
627.039;31829.648;   -9.281;38299.098
627.619;31753.412;   -8.801;38289.574
628.198;30378.920;  -12.071;37220.695
628.778;29352.672;   -9.461;37632.563
629.357;29729.488;   -8.491;38003.012
629.937;29969.172;   -9.721;38402.039
630.516;29716.889;   -9.951;37868.801
631.096;29639.734;  -11.731;35760.410
631.675;31499.957;   -8.572;35225.219
632.254;36593.539;  -11.282;35130.289
632.834;36252.215;  -13.322;35794.570
633.413;34533.039;  -10.301;35788.922
633.992;32134.826;   -8.582;34532.863
634.571;32485.125;   -8.352;33590.113
635.151;35085.020;  -11.912;34943.863
635.730;33931.023;  -10.511;35352.523
636.309;30852.189;   -7.731;35366.605
636.888;28108.070;   -9.952;36165.637
637.467;28307.111;  -11.672;37515.902
638.046;29612.756;   -8.901;39288.695
638.625;32360.988;   -7.912;38279.699
639.204;32312.207;  -10.022;37741.598
639.782;31415.271;  -12.252;38364.551
640.361;27845.344;  -10.041;36740.621
640.940;25246.791;  -11.161;34950.082
641.519;26208.197;   -9.701;34137.398
642.097;29078.824;  -11.271;35654.258
642.676;31446.838;   -8.651;35637.957
643.255;32644.164;   -8.711;36567.074
643.833;32142.727;   -9.581;37809.434
644.412;32138.344;  -13.711;37337.293
644.990;31043.951;  -11.811;37018.531
645.569;30655.977;   -9.411;36518.469
646.147;30303.781;  -10.291;36186.430
646.726;30793.475;  -12.401;36267.688
647.304;31787.686;  -10.411;36647.625
647.882;32927.957;   -9.651;39286.742
648.461;34492.531;   -9.631;39157.703
649.039;33029.535;  -11.881;35412.883
649.617;31798.535;   -9.661;34744.918
650.195;30757.176;   -9.301;35403.098
650.773;29532.377;  -10.511;35053.797
651.352;27458.762;  -11.521;33756.816
651.930;25226.164;  -12.211;31868.773
652.508;23661.666;   -9.171;33121.551
653.086;27386.164;   -9.371;33564.793
653.663;30638.943;  -13.161;34054.668
654.241;29205.049;  -13.031;35693.309
654.819;30250.484;   -9.371;36422.906
655.397;30138.738;  -10.511;38213.484
655.975;29713.215;  -10.371;39507.625
656.553;29602.598;  -10.051;39498.223
657.130;28219.086;  -10.061;40395.480
657.708;27349.641;   -9.561;39242.020
658.286;27485.791;  -11.511;38920.020
658.863;28810.654;  -10.261;40202.898
659.441;32294.332;   -7.531;39677.938
660.018;32436.352;   -9.501;40413.355
660.596;30849.666;  -13.301;39931.414
661.173;32037.400;  -11.211;39604.531
661.750;32434.279;   -9.951;39700.070
662.328;31393.434;   -9.390;39292.809
662.905;30671.453;  -11.330;38235.648
663.482;26720.740;   -9.050;36212.305
664.060;24785.494;   -8.240;35944.945
664.637;27499.227;  -10.050;35170.785
665.214;28839.883;  -11.760;34197.523
665.791;30496.270;  -10.530;34549.520
666.368;29652.443;   -9.690;35118.578
666.945;30070.131;   -9.320;36019.418
667.522;31719.635;  -11.860;36048.438
668.099;31483.980;  -10.770;36243.914
668.676;30068.748;   -6.260;35958.875
669.253;28713.869;   -7.000;37384.730
669.830;28909.092;  -10.190;36779.629
670.407;28951.590;   -9.550;35231.289
670.984;28835.166;   -9.260;35544.270
671.560;29811.100;   -9.280;35466.867
672.137;29247.869;  -11.810;34280.863
672.714;30064.451;  -11.490;34632.863
673.290;31155.932;   -7.740;35135.422
673.867;31200.766;  -10.660;36114.480
674.443;31076.223;  -12.230;36152.859
675.020;28994.699;  -10.450;35327.238
675.596;29801.621;   -9.260;35795.176
676.173;30423.881;  -10.780;35430.355
676.749;30207.314;  -13.690;33549.516
677.326;30098.813;  -11.980;32210.012
677.902;30041.350;   -8.630;32068.871
678.478;29547.813;  -10.730;32583.891
679.054;28470.564;  -10.520;32088.928
679.631;28617.043;  -11.920;30978.848
680.207;30064.689;   -7.490;33160.887
680.783;31547.893;   -9.860;35570.363
681.359;30646.111;  -13.380;36125.184
681.935;30461.422;  -12.480;35240.922
682.511;30788.563;   -7.900;34429.961
683.087;31429.617;   -7.710;34463.680
683.663;30445.883;  -11.480;34648.898
684.239;28755.707;  -14.090;34546.457
684.815;28013.508;   -7.560;35586.375
685.390;28219.602;   -9.910;35821.895
685.966;28806.996;  -11.159;35085.871
686.542;31051.859;  -11.169;34198.230
687.118;33556.426;   -5.959;32847.707
687.693;34183.535;  -10.329;32794.027
688.269;33714.797;  -12.059;33072.367
688.844;31980.934;  -10.909;33141.664
689.420;30082.139;   -8.019;33965.742
689.995;28300.488;   -8.399;34655.523
690.571;26792.637;  -10.949;33576.742
691.146;26700.660;   -9.619;32657.219
691.722;26690.352;   -8.999;32526.979
692.297;26141.105;  -11.589;33014.617
692.872;27286.168;  -11.739;34012.254
693.448;27219.758;  -11.059;34237.434
694.023;26337.029;  -10.139;34142.672
694.598;28270.080;   -9.029;34132.031
695.173;29032.738;  -13.319;34205.250
695.748;27779.303;  -10.169;32882.488
696.323;27609.242;   -8.339;32864.906
696.898;28039.396;   -8.169;33170.004
697.473;28525.932;  -12.309;32432.984
698.048;28015.621;  -10.989;31649.303
698.623;27623.557;   -9.329;30778.141
699.198;28882.885;   -9.849;31140.119
699.773;30204.545;  -12.329;31764.299
700.348;28946.738;  -10.389;31780.816
700.922;28987.271;   -9.269;32046.375
701.497;30259.477;   -9.329;32603.574
702.072;30686.938;  -10.789;34799.871
702.646;29076.930;  -10.839;35793.172
703.221;26647.701;   -9.099;35201.590
703.795;28361.969;  -10.939;34764.527
704.370;28847.314;  -12.859;34307.367
704.944;29205.945;  -11.559;33509.887
705.519;29814.422;   -7.939;31388.584
706.093;30888.416;  -10.499;31340.104
706.668;31465.594;  -11.289;32630.281
707.242;30436.055;  -11.509;32728.779
707.816;29167.707;   -9.639;32947.238
708.390;27630.336;  -11.429;33277.855
708.965;28009.188;  -11.869;33834.336
709.539;27972.654;  -11.689;33709.273
710.113;28021.189;  -10.478;33044.313
710.687;27569.354;  -10.228;31953.992
711.261;26078.457;  -13.698;30505.949
711.835;25711.055;  -13.378;30262.369
712.409;25879.723;   -9.698;31254.447
712.983;28017.791;  -11.898;32754.986
713.557;29447.150;  -15.138;34018.824
714.131;29414.082;  -14.098;34579.625
714.704;28554.021;   -9.958;33890.262
715.278;25929.688;  -10.028;33531.102
715.852;24599.086;  -11.148;33601.660
716.425;25676.076;   -9.068;33515.117
716.999;26933.771;  -10.038;33185.555
717.573;27964.135;   -9.798;33905.996
718.146;29060.852;  -12.378;35199.293
718.720;29164.732;  -11.918;35060.551
719.293;29102.080;   -8.088;34973.230
719.867;32138.695;  -10.888;36394.449
720.440;31859.504;  -11.938;36663.008
721.013;30010.680;  -12.818;35102.426
721.587;28400.318;  -10.298;33985.266
722.160;27077.803;  -10.048;33524.965
722.733;25946.617;  -12.108;32987.043
723.306;26161.246;  -10.818;33066.301
723.880;28390.441;   -8.908;33399.500
724.453;30897.668;   -9.878;33468.297
725.026;30381.844;  -11.188;33816.637
725.599;27399.268;  -11.678;32797.996
726.172;27015.859;   -9.618;33187.434
726.745;28000.854;   -8.258;35136.613
727.318;29163.021;  -12.978;35751.730
727.891;29892.355;  -12.148;35890.430
728.463;29479.486;   -8.968;34822.090
729.036;28222.219;  -10.188;32895.086
729.609;28763.510;  -11.788;31823.225
730.182;26140.646;  -11.788;31445.283
730.754;23877.631;  -10.268;32373.223
731.327;24295.117;   -9.998;33676.820
731.900;24567.857;  -12.228;33417.000
732.472;24980.688;  -13.848;31978.498
733.045;26222.689;   -8.698;30368.777
733.617;26242.770;  -10.607;30574.215
734.190;26744.785;  -11.507;31280.975
734.762;24750.479;  -13.647;31674.412
735.334;22926.746;   -9.767;31247.291
735.907;23344.520;   -9.897;29876.211
736.479;23732.996;  -11.637;29808.488
737.051;23362.113;   -9.567;30233.547
737.623;23844.859;   -8.187;31469.086
738.195;24035.199;  -11.187;31784.225
738.768;25892.643;  -12.337;32120.523
739.340;26935.820;  -12.227;32094.342
739.912;26340.033;  -11.057;31312.680
740.484;24839.971;  -10.207;31946.238
741.056;22922.695;  -10.047;32984.059
741.628;23854.713;  -13.627;33897.715
742.199;25859.725;   -7.177;33213.016
742.771;24688.621;  -10.797;31369.113
743.343;22839.982;  -11.997;31865.473
743.915;21929.537;  -12.867;32388.631
744.487;21815.588;   -7.617;31079.568
745.058;21930.410;   -9.557;30570.107
745.630;22620.846;   -9.877;29970.127
746.201;24000.871;  -14.177;29186.766
746.773;24801.830;   -9.237;28805.723
747.344;24564.400;   -9.847;29591.223
747.916;22676.514;  -11.657;31412.201
748.487;22593.188;  -10.587;32194.898
749.059;23880.701;   -8.707;32533.719
749.630;24624.801;  -10.537;32158.518
750.201;23513.201;  -11.687;30855.395
750.773;21777.100;  -11.647;28622.555
751.344;21423.912;   -7.147;28405.732
751.915;22238.338;   -9.757;28461.551
752.486;22557.182;  -12.427;27842.850
753.057;20867.531;  -12.227;27845.008
753.628;19680.775;  -10.417;27728.107
754.199;20561.400;  -11.767;27381.086
754.770;21666.645;  -11.187;25882.203
755.341;21925.789;  -10.507;25886.184
755.912;22052.014;   -9.387;26050.861
756.483;21530.738;  -10.647;26798.779
757.054;19696.518;  -11.837;27048.238
757.625;18300.086;  -12.716;26294.838
758.195;18090.623;   -9.666;26142.076
758.766;17757.766;   -8.656;26392.234
759.337;18363.033;  -12.856;26334.594
759.907;19786.504;  -13.366;27579.652
760.478;20655.115;   -8.576;28352.770
761.048;20158.154;  -10.526;27325.088
761.619;19127.436;  -11.116;26460.428
762.189;19160.760;  -12.136;26029.826
762.760;20174.828;   -9.456;26430.145
763.330;21450.352;   -7.136;26670.902
763.900;21182.281;  -11.786;26603.021
764.471;18895.189;  -11.546;25542.740
765.041;17490.340;   -8.096;24358.459
765.611;17179.412;   -8.876;23991.297
766.181;17305.400;  -12.196;24470.236
766.751;18388.172;  -11.636;24845.975
767.321;18315.240;  -10.156;24533.633
767.891;16397.824;  -11.766;24916.492
768.461;15775.535;  -14.936;24776.771
769.031;16212.926;  -12.356;24757.988
769.601;17910.301;   -7.526;24181.088
770.171;18067.752;  -10.766;23670.387
770.741;17084.229;  -13.176;22960.045
771.311;17004.818;  -10.616;22917.523
771.880;17681.953;   -9.576;23562.941
772.450;17703.178;  -10.336;24216.500
773.020;17551.623;  -13.516;24140.398
773.589;16577.066;  -13.466;24414.857
774.159;15798.877;   -8.686;23858.717
774.729;15521.065;   -9.476;22942.135
775.298;15307.081;  -13.666;22324.033
775.867;14863.957;  -11.716;21140.313
776.437;15052.869;   -9.906;20838.092
777.006;14865.484;  -12.166;20599.510
777.576;14412.877;  -12.356;20508.809
778.145;14290.354;  -11.646;20732.947
778.714;14400.555;   -8.226;21062.465
779.283;13945.265;   -9.556;20949.664
779.853;13374.521;  -14.116;20508.623
780.422;13737.313;  -11.506;20649.082
780.991;13322.078;   -9.556;21527.520
781.560;12012.230;   -9.095;22632.658
782.129;11817.243;  -12.135;23048.277
782.698;11846.482;  -10.865;23438.555
783.267;11500.593;   -9.335;23267.734
783.836;11400.015;  -11.045;22415.133
784.404;12351.304;  -13.865;20443.152
784.973;13059.959;  -13.095;19699.150
785.542;13162.172;  -11.575;19763.828
786.111;12995.151;   -9.705;20341.408
786.679;12552.164;  -12.105;20207.967
787.248;12253.431;  -12.455;19516.465
787.817;12051.109;  -11.535;18900.363
788.385;11754.597;   -9.765;17879.121
788.954;11256.628;  -14.005;17658.301
789.522;10559.368;  -11.955;17788.879
790.090;10900.989;  -10.135;18118.277
790.659;11525.707;  -10.975;18338.736
791.227;11176.332;  -13.375;18508.615
791.795;11541.376;  -12.375;17898.254
792.364;11869.801;  -10.725;17295.133
792.932;12210.682;   -9.715;16822.051
793.500;12487.163;  -12.675;17040.148
794.068;12676.079;  -13.495;17179.787
794.636;12853.278;  -10.885;16664.246
795.204;12153.310;  -11.045;16524.545
795.772;12092.905;  -13.175;17274.564
796.340;11586.865;  -12.445;17891.002
796.908;11305.782;   -9.735;17648.561
797.476;11231.455;   -9.815;17064.080
798.044;10936.447;  -13.985;16672.777
798.612;10217.849;  -13.115;17023.996
799.180; 9803.072;  -10.185;16561.615
799.747; 9625.447;   -9.055;15962.773
800.315; 9298.084;  -12.385;15296.992
800.883; 9093.409;  -15.035;14801.771
801.450; 9319.342;  -10.365;14534.430
802.018; 9456.405;   -9.855;14173.248
802.585; 9481.067;  -11.905;14029.547
803.153; 9458.960;  -11.585;13836.846
803.720; 9276.611;   -9.095;13567.324
804.287; 8788.075;   -9.135;13360.622
804.855; 8236.681;  -11.604;13681.981
805.422; 8075.316;  -11.794;13536.560
805.989; 8175.941;  -10.734;13355.958
806.556; 8371.369;  -10.444;13747.896
807.124; 8617.429;  -12.764;13987.376
807.691; 8568.958;  -12.964;14038.674
808.258; 8395.604;  -11.134;14120.152
808.825; 8108.050;   -9.854;13860.111
809.392; 8234.714;  -10.504;13268.790
809.959; 7749.696;  -13.054;12680.389
810.526; 7196.303;   -8.294;12427.308
811.093; 7152.221;   -8.394;12030.105
811.659; 7821.923;  -12.304;11653.664
812.226; 8473.611;  -13.944;11637.183
812.793; 8261.098;  -10.484;11611.521
813.360; 7596.913;  -10.144;11885.181
813.926; 7250.716;  -11.684;12770.539
814.493; 7046.098;  -13.644;12677.638
815.060; 6658.707;   -9.724;11974.336
815.626; 6591.228;   -9.854;11594.715
816.193; 6931.249;  -13.254;11579.474
816.759; 6951.315;  -13.204;11666.972
817.325; 6968.286;   -9.434;11325.530
817.892; 7327.418;  -10.134;11105.369
818.458; 7796.457;  -13.474;10843.928
819.024; 7475.925;  -11.854;10714.406
819.591; 7159.006;  -10.244;10469.165
820.157; 6936.736;  -10.704;10235.523
820.723; 6388.012;  -12.324;10847.563
821.289; 6063.393;   -9.444;11040.980
821.855; 6004.606;   -8.374;10357.100
822.421; 6030.637;  -10.234; 9978.918
822.987; 6055.815;  -13.294; 9754.177
823.553; 5654.563;  -10.884;10065.755
824.119; 5387.770;   -8.884;10036.294
824.685; 5504.548;   -6.784;10029.192
825.251; 5646.569;  -12.004;10199.230
825.816; 5604.191;  -11.474; 9820.189
826.382; 5312.311;   -9.174; 9297.248
826.948; 5438.244;   -9.214; 9381.347
827.513; 5867.918;  -10.774; 9450.726
828.079; 5782.400;  -11.924; 9472.444
828.645; 5170.381;  -10.543; 9292.643
829.210; 4937.676;  -10.533; 9065.341
829.776; 4882.447;  -10.753; 9132.620
830.341; 4744.743;  -10.173; 9092.878
830.906; 4873.237;  -10.743; 9078.557
831.472; 5231.894;  -11.113; 8534.535
832.037; 5077.204;  -10.603; 8677.874
832.602; 4570.863;  -13.323; 8628.692
833.167; 4310.894;  -10.823; 8879.031
833.733; 4268.083;  -10.113; 9189.790
834.298; 4414.684;  -13.583; 9052.608
834.863; 4571.003;  -12.703; 8895.087
835.428; 4595.197;  -10.523; 8824.266
835.993; 4425.060;   -6.963; 8845.385
836.558; 4215.367;  -10.763; 8888.563
837.123; 4265.882;   -9.903; 8966.582
837.688; 4524.242;   -9.913; 8617.860
838.253; 4823.119;  -10.283; 8590.699
838.817; 5023.719;  -12.963; 8443.797
839.382; 4923.043;  -14.243; 8799.356
839.947; 4615.557;  -10.733; 8810.595
840.511; 4328.122;   -9.383; 8796.394
841.076; 3962.648;  -12.563; 8347.231
841.641; 4020.878;  -12.953; 8224.330
842.205; 4142.946;   -7.043; 8223.349
842.770; 4150.205;   -8.163; 8622.107
843.334; 4232.942;  -12.503; 8410.386
843.898; 4170.635;  -11.693; 8337.465
844.463; 4176.557;  -10.203; 8506.283
845.027; 3981.759;   -9.533; 8280.962
845.591; 3802.574;  -13.443; 8231.141
846.156; 3822.139;  -13.143; 7969.179
846.720; 3745.678;   -9.433; 7768.278
847.284; 3648.355;  -11.033; 7630.957
847.848; 3518.001;  -10.403; 7472.395
848.412; 3427.367;  -11.553; 7437.394
848.976; 3468.713;   -8.393; 7674.592
849.540; 3363.585;   -8.713; 7836.011
850.104; 3396.331;  -12.463; 7913.669
850.668; 3755.783;  -12.973; 7694.508
851.232; 3940.839;  -10.793; 7756.887
851.796; 3816.552;  -10.662; 7926.545
852.359; 3500.043;  -13.082; 7827.844
852.923; 3311.828;  -12.192; 7641.163
853.487; 3179.190;  -11.912; 7342.501
854.050; 3167.090;  -10.892; 7042.820
854.614; 3293.358;  -13.992; 7151.338
855.177; 3384.295;  -11.732; 7105.077
855.741; 3411.935;   -8.962; 6989.675
856.304; 3301.460;   -9.442; 6596.634
856.868; 3280.562;  -14.192; 6356.272
857.431; 3408.883;  -12.702; 6468.571
857.995; 3544.358;   -9.942; 6373.210
858.558; 3589.362;   -9.112; 6324.448
859.121; 3337.629;  -12.932; 6408.327
859.684; 3150.212;  -13.442; 6347.886
860.247; 3250.604;  -10.632; 6321.264
860.810; 3300.249;  -11.272; 6301.903
861.374; 3067.443;   -9.832; 6607.881
861.937; 2796.955;  -11.762; 6408.200
862.500; 2795.398;   -9.722; 6572.639
863.062; 2934.550;  -10.512; 6387.297
863.625; 3073.599;  -11.232; 6190.836
864.188; 3243.265;  -14.112; 5807.254
864.751; 3334.540;  -11.302; 5682.413
865.314; 3250.280;  -10.112; 5547.492
865.876; 3011.166;  -12.182; 5500.150
866.439; 2956.361;  -10.722; 5415.909
867.002; 2917.405;   -9.252; 5501.567
867.564; 2746.768;   -9.572; 5413.946
868.127; 2548.541;  -13.142; 5160.325
868.689; 2420.618;  -12.902; 5133.183
869.252; 2312.830;   -9.732; 5252.382
869.814; 2209.030;   -9.432; 5297.141
870.377; 2204.926;  -11.552; 5390.919
870.939; 2260.099;   -9.052; 5599.898
871.501; 2334.865;  -10.982; 5248.336
872.063; 2356.724;  -12.292; 4854.235
872.626; 2298.496;  -14.912; 4817.074
873.188; 2283.427;  -13.112; 4987.732
873.750; 2260.889;  -13.442; 4868.651
874.312; 2183.048;   -9.402; 4779.330
874.874; 2105.150;  -11.062; 4866.348
875.436; 2023.153;  -13.931; 4718.887
875.998; 2014.406;   -9.561; 4660.005
876.560; 2052.924;  -11.321; 4462.964
877.122; 1996.687;  -12.221; 4145.042
877.683; 1886.463;  -12.191; 4056.481
878.245; 1798.663;  -12.101; 3950.740
878.807; 1843.018;   -8.971; 4058.958
879.369; 1882.009;  -12.071; 3954.677
879.930; 1798.221;  -14.621; 3941.495
880.492; 1729.063;  -10.311; 4067.014
881.053; 1703.947;  -10.901; 3859.633
881.615; 1611.438;  -14.411; 3776.071
882.176; 1506.778;  -13.761; 3734.750
882.738; 1441.293;   -9.181; 3678.489
883.299; 1415.345;  -11.791; 3405.407
883.860; 1405.606;  -13.121; 3351.106
884.422; 1409.749;  -11.211; 3394.044
884.983; 1406.251;  -10.091; 3166.443
885.544; 1390.520;   -8.461; 3189.802
886.105; 1352.394;  -12.361; 3160.360
886.666; 1225.656;  -14.141; 3093.059
887.227;  977.759;  -11.361; 2941.957
887.788;  712.233;  -11.401; 2974.836
888.349;  548.923;  -13.791; 2721.214
888.910;  519.456;  -13.191; 2696.493
889.471;  545.901;   -9.881; 2560.172
890.032;  570.614;   -9.881; 2558.190
890.593;  588.005;  -10.371; 2567.669
891.153;  599.799;  -13.301; 2460.307
891.714;  591.965;  -11.431; 2372.046
892.275;  586.570;  -11.291; 2309.505
892.835;  576.977;  -11.471; 2382.543
893.396;  546.355;  -11.541; 2295.502
893.956;  505.086;  -11.181; 2162.420
894.517;  474.017;  -11.741; 2125.439
895.077;  469.407;  -11.671; 2086.978
895.638;  475.596;  -11.311; 2126.316
896.198;  453.282;   -9.831; 1838.275
896.758;  419.394;   -8.421; 1892.813
897.319;  391.057;  -12.351; 1792.232
897.879;  377.806;  -13.511; 1762.751
898.439;  355.405;  -12.001; 1661.149
898.999;  334.236;  -10.180; 1781.468
899.559;  326.226;  -12.030; 1703.347
900.119;  322.691;  -15.710; 1537.525
900.679;  319.004;   -8.900; 1638.384
901.239;  305.312;   -8.340; 1527.902
901.799;  296.440;  -13.910; 1456.441
902.359;  290.981;  -13.460; 1357.140
902.919;  285.182;  -11.490; 1331.118
903.479;  273.428;  -12.110; 1317.257
904.038;  254.831;  -11.720; 1262.595
904.598;  241.148;  -13.610; 1152.034
905.158;  237.941;  -11.040; 1240.893
905.717;  231.692;  -10.900; 1233.691
906.277;  219.931;  -15.080; 1217.330
906.836;  210.487;  -13.380; 1222.408
907.396;  201.596;  -10.780; 1193.047
907.955;  194.412;   -8.500; 1182.526
908.515;  190.046;  -12.760; 1099.364
909.074;  184.275;  -11.900; 1092.863
909.633;  179.385;   -8.950; 1069.121
910.192;  176.091;   -8.770; 1196.460
910.752;  171.061;  -12.390; 1029.960
911.311;  166.700;  -13.680; 1009.780
911.870;  164.061;  -12.370;  971.460
912.429;  165.043;  -10.900; 1094.080
912.988;  164.543;  -11.690; 1081.060
913.547;  160.090;  -13.240;  940.380
914.106;  155.502;  -11.990;  999.420
914.665;  152.574;   -9.990;  984.020
915.224;  151.255;  -12.880; 1035.760
915.782;  151.021;  -12.350;  922.560
916.341;  151.354;   -9.110; 1049.840
916.900;  146.799;   -9.270;  925.260
917.458;  144.616;  -13.240;  884.220
918.017;  144.692;  -13.550;  942.600
918.576;  144.310;  -12.320;  904.440
919.134;  142.632;  -11.490;  837.980
919.693;  141.121;  -13.670;  893.060
920.251;  139.148;  -15.470;  876.500
920.809;  139.250;  -11.290;  839.580
921.368;  138.686;  -10.210;  885.360
921.926;  137.403;  -12.140;  842.940
922.484;  136.408;  -13.080;  903.360
923.042;  136.198;  -11.720;  880.340
923.601;  137.949;   -7.480;  998.680
924.159;  136.773;  -11.570;  935.560
924.717;  132.571;  -13.840;  841.080
925.275;  133.702;  -10.640;  903.240
925.833;  132.728;  -11.540;  779.320
926.391;  133.194;  -12.960;  938.380
926.949;  132.228;  -14.130;  857.680
927.506;  133.142;  -11.750;  903.500
928.064;  132.870;  -10.250;  877.580
928.622;  131.715;  -13.030;  880.100
929.180;  130.447;  -13.400;  814.180
929.737;  132.568;  -10.700;  808.540
930.295;  135.395;  -10.070;  928.480
930.853;  137.108;  -11.960;  849.100
931.410;  138.077;  -13.120;  821.120
931.968;  138.196;  -10.770;  940.660
932.525;  137.737;  -10.680;  909.380
933.082;  138.161;  -13.130;  811.440
933.640;  139.592;  -13.210;  925.900
934.197;  137.944;  -11.060;  886.360
934.754;  138.517;   -9.580;  897.780
935.312;  140.927;  -14.000;  863.340
935.869;  145.377;  -10.710; 1012.980
936.426;  145.918;   -9.860;  872.800
936.983;  146.120;   -9.710;  889.020
937.540;  146.070;  -13.990;  838.280
938.097;  145.904;  -14.040;  940.120
938.654;  145.604;  -10.310;  898.860
939.211;  147.925;  -10.560;  952.480
939.768;  151.895;  -13.900;  915.420
940.324;  155.017;  -14.760;  904.200
940.881;  157.078;  -10.370;  878.500
941.438;  158.186;   -8.260; 1021.200
941.995;  154.211;  -12.540;  992.560
942.551;  151.297;  -14.670;  875.620
943.108;  150.602;  -10.450;  937.920
943.664;  152.672;  -10.750;  869.340
944.221;  155.786;  -11.550; 1088.140
944.777;  153.060;  -14.770;  869.680
945.334;  153.169;  -12.820;  884.840
945.890;  154.605;  -10.130;  946.480
946.446;  155.032;  -13.470;  947.020
947.003;  156.737;  -12.120;  964.940
947.559;  158.844;   -9.980; 1063.040
948.115;  159.578;   -9.080; 1026.540
948.671;  157.732;  -10.830;  967.300
949.227;  155.098;  -12.440;  859.560
949.783;  153.226;  -12.910;  858.900
950.339;  154.969;  -10.270;  991.000
950.895;  155.045;  -13.630; 1023.840
951.451;  153.724;  -15.100;  925.280
952.007;  152.844;  -11.330;  998.540
952.563;  152.604;  -10.580;  937.780
953.118;  150.834;  -13.440;  904.940
953.674;  150.210;  -12.710;  935.780
954.230;  150.043;  -10.350;  949.640
954.785;  148.102;   -9.190;  936.640
955.341;  145.595;  -11.200;  998.160
955.897;  143.758;  -16.560;  834.660
956.452;  145.874;  -12.570;  953.840
957.008;  146.197;   -7.970; 1083.640
957.563;  143.302;  -11.940; 1009.540
958.118;  137.632;  -13.450;  877.700
958.674;  137.757;  -12.030;  946.780
959.229;  140.271;   -9.410; 1013.980
959.784;  137.894;  -12.000;  832.400
960.339;  136.653;  -14.780; 1001.280
960.894;  132.902;   -9.860;  963.760
961.449;  129.577;   -9.970;  859.960
962.004;  129.475;  -10.900; 1212.840
962.559;  124.260;  -13.150;  860.140
963.114;  121.220;  -13.740;  742.480
963.669;  121.557;   -9.820;  915.500
964.224;  120.348;  -13.890;  874.340
964.779;  119.752;  -12.600;  828.420
965.334;  119.133;  -10.950; 1017.860
965.888;  119.481;  -11.170;  875.360
966.443;  122.378;  -12.540;  972.380
966.998;  122.635;  -15.780;  819.460
967.552;  120.990;   -9.760;  908.380
968.107;  118.018;   -9.060;  868.300
968.661;  118.795;  -11.950;  922.440
969.216;  117.441;  -12.800;  856.280
969.770;  117.743;  -11.210;  917.200
970.324;  117.003;  -11.610;  923.140
970.879;  114.101;  -11.370;  947.180
971.433;  110.860;  -12.540;  952.720
971.987;  106.551;  -11.320;  895.340
972.541;  103.975;  -10.720;  917.100
973.095;  103.054;   -9.680; 1009.460
973.649;  100.974;  -11.440;  809.480
974.203;  100.489;  -11.210;  829.040
974.757;  101.137;  -10.240;  855.220
975.311;  101.144;  -13.720;  872.600
975.865;   99.561;  -13.770;  881.820
976.419;   98.351;  -11.690;  857.400
976.973;   98.453;   -9.510;  849.620
977.526;   99.395;  -12.620;  949.920
978.080;   99.156;  -12.010;  796.780
978.634;  100.489;  -10.170;  921.320
979.187;   97.905;   -9.020;  905.400
979.741;   96.748;   -9.820; 1018.380
980.294;   90.629;  -14.870;  789.160
980.848;   88.291;  -12.380;  717.220
981.401;   90.894;  -10.350;  816.540
981.955;   93.258;  -13.720;  844.300
982.508;   91.941;  -11.490;  746.340
983.061;   91.909;  -10.000;  915.260
983.615;   88.582;  -11.480;  798.800
984.168;   85.503;  -13.220;  770.080
984.721;   84.733;  -13.960;  880.760
985.274;   83.705;  -10.870;  867.500
985.827;   81.888;   -9.790;  834.220
986.380;   80.359;  -13.120;  721.340
986.933;   79.012;  -12.450;  864.800
987.486;   77.703;  -10.210;  861.920
988.039;   76.675;   -8.430;  863.100
988.591;   75.795;  -10.520;  893.260
989.144;   72.218;  -14.860;  737.260
989.697;   72.715;  -13.080;  758.740
990.250;   72.588;  -10.150;  858.100
990.802;   71.239;  -13.430;  755.860
991.355;   71.689;  -12.750;  974.880
991.907;   69.431;  -12.040;  864.320
992.460;   67.173;  -11.330;  753.760
993.012;   66.347;  -13.610;  749.540
993.565;   65.293;  -13.460;  711.360
994.117;   67.656;   -9.360;  950.780
994.669;   63.033;  -11.300;  701.320
995.221;   61.306;  -13.540;  791.920
995.774;   59.905;  -13.430;  787.580
996.326;   58.961;  -12.520;  740.220
996.878;   58.945;  -10.950;  838.420
997.430;   56.436;  -14.300;  699.860
997.982;   55.784;  -13.760;  750.140
998.534;   54.957;  -11.530;  739.060
999.086;   53.858;  -10.310;  738.220
999.638;   52.788;  -12.530;  661.380
1000.190;   51.279;  -11.840;  699.320
1000.741;   51.560;  -10.260;  742.700
1001.293;   51.638;   -8.860;  686.020
1001.845;   50.321;  -13.700;  676.640
1002.396;   50.204;  -12.100;  743.400
1002.948;   48.914;  -12.760;  737.400
1003.500;   47.907;  -10.380;  723.780
1004.051;   48.994;  -11.900;  907.580
1004.603;   47.361;  -12.250;  791.820
1005.154;   43.445;  -13.210;  608.980
1005.705;   42.443;  -10.950;  723.960
1006.257;   42.048;  -13.880;  707.220
1006.808;   40.827;  -12.840;  685.460
1007.359;   40.364;  -10.570;  763.240
1007.910;   39.700;   -9.620;  646.640
1008.461;   40.231;  -13.630;  732.940
1009.013;   38.770;  -17.200;  588.340
1009.564;   39.564;  -10.200;  793.520
1010.115;   37.946;  -12.570;  597.040
1010.665;   36.693;  -15.150;  602.160
1011.216;   37.315;  -14.480;  667.920
1011.767;   37.005;  -11.340;  697.920
1012.318;   36.769;   -9.780;  736.980
1012.869;   35.947;  -12.380;  679.000
1013.419;   35.099;  -15.560;  603.120
1013.970;   35.585;  -11.010;  666.640
1014.521;   35.213;  -11.610;  620.620
1015.071;   35.623;  -13.450;  670.380
1015.622;   34.395;  -13.870;  635.460
1016.172;   33.923;  -11.610;  596.820
1016.723;   33.982;  -12.120;  614.380
1017.273;   33.283;  -13.620;  604.160
1017.823;   33.514;  -14.140;  650.340
1018.374;   32.814;  -12.800;  611.760
1018.924;   32.663;  -12.340;  716.880
1019.474;   33.464;  -11.410;  718.880
1020.024;   31.733;  -14.770;  657.580
1020.574;   32.563;   -9.780;  726.160
1021.124;   33.071;   -8.560;  673.580
1021.674;   31.637;  -15.190;  559.120
1022.224;   32.682;  -13.530;  708.940
1022.774;   31.646;  -13.280;  668.820
1023.324;   32.914;  -10.690;  753.520
1023.874;   32.998;  -10.240;  875.760
1024.423;   30.549;  -12.540;  613.700
1024.973;   30.067;  -10.010;  610.760
1025.523;   29.783;  -10.550;  620.960
1026.072;   29.559;  -13.560;  606.420
1026.622;   29.125;  -15.120;  675.740
1027.172;   30.347;  -11.260;  715.660
1027.721;   29.193;  -11.410;  601.220
1028.270;   29.837;  -13.530;  663.400
1028.820;   28.892;  -13.680;  638.080
1029.369;   29.037;  -13.520;  612.700
1029.918;   29.136;  -10.980;  649.840
1030.468;   28.539;  -13.530;  564.780
1031.017;   28.755;  -13.170;  634.800
1031.566;   27.867;  -12.200;  608.900
1032.115;   28.544;   -9.960;  694.500
1032.664;   26.797;  -13.210;  596.480
1033.213;   27.798;  -12.500;  735.420
1033.762;   26.759;  -11.910;  635.620
1034.311;   26.978;   -9.640;  677.220
1034.860;   27.778;  -13.310;  691.000
1035.408;   27.430;  -11.830;  722.720
1035.957;   27.305;  -12.000;  719.540
1036.506;   26.008;  -11.690;  530.800
1037.055;   28.008;  -10.990;  844.320
1037.603;   25.724;  -15.120;  664.000
1038.152;   24.663;  -12.450;  534.760
1038.700;   25.039;  -10.560;  585.740
1039.249;   25.077;  -11.080;  681.220
1039.797;   25.719;  -12.540;  633.360
1040.345;   26.291;  -11.920;  705.420
1040.894;   24.890;  -11.410;  625.300
1041.442;   24.797;  -14.320;  632.200
1041.990;   23.248;  -16.240;  559.160
1042.538;   23.262;  -11.680;  536.180
1043.087;   24.041;  -10.760;  570.860
1043.635;   24.444;  -11.850;  670.500
1044.183;   22.702;  -15.480;  586.400
1044.731;   23.457;  -11.770;  576.000
1045.279;   23.380;  -13.090;  674.920
1045.827;   25.536;  -12.440;  892.400
1046.374;   21.998;  -13.840;  515.420
1046.922;   21.347;  -13.220;  590.580
1047.470;   23.380;  -10.230;  691.300
1048.018;   23.090;  -14.590;  647.960
1048.565;   22.967;  -12.050;  708.600
1049.113;   21.539;  -11.650;  557.000
1049.660;   22.018;  -10.510;  629.660
1050.208;   22.446;  -13.310;  675.640
1050.755;   21.244;  -15.900;  606.580
1051.303;   21.938;  -11.430;  686.820
1051.850;   21.683;   -8.480;  635.120
1052.397;   19.361;  -15.010;  473.960
1052.945;   20.190;  -13.960;  617.760
1053.492;   22.629;  -13.150;  741.840
1054.039;   22.080;   -9.630;  720.180
1054.586;   20.719;  -13.680;  557.240
1055.133;   20.749;  -14.570;  693.140
1055.680;   21.067;  -13.820;  646.620
1056.227;   20.047;  -11.730;  542.780
1056.774;   22.007;  -12.480;  794.980
1057.321;   18.827;  -13.930;  523.260
1057.868;   19.371;  -11.690;  651.320
1058.415;   19.664;   -9.520;  651.980
1058.961;   19.742;  -13.160;  678.940
1059.508;   19.135;  -12.920;  643.820
1060.055;   18.847;  -11.920;  581.780
1060.601;   20.007;  -11.500;  624.300
1061.148;   18.996;  -14.330;  616.820
1061.694;   18.115;  -16.870;  592.580
1062.241;   18.310;  -10.330;  596.320
1062.787;   19.304;  -10.620;  663.140
1063.334;   20.375;  -10.110;  808.560
1063.880;   18.616;  -13.400;  668.360
1064.426;   18.760;  -10.680;  706.820
1064.972;   18.439;   -9.920;  601.340
1065.518;   17.495;  -10.980;  566.640
1066.065;   17.804;  -14.890;  624.460
1066.611;   17.200;  -12.870;  598.800
1067.157;   17.947;  -12.950;  641.860
1067.703;   17.664;  -13.540;  668.480
1068.249;   17.105;  -13.540;  605.220
1068.794;   17.367;  -12.600;  626.880
1069.340;   15.917;  -10.620;  578.960
1069.886;   17.457;  -12.830;  590.700
1070.432;   15.710;  -14.870;  541.720
1070.977;   15.794;  -11.980;  601.080
1071.523;   16.877;   -8.200;  573.060
1072.068;   16.882;  -12.330;  582.000
1072.614;   15.626;  -16.370;  527.760
1073.160;   17.290;  -11.100;  687.040
1073.705;   15.747;  -10.480;  572.520
1074.250;   15.536;  -14.520;  559.900
1074.796;   16.809;  -11.460;  655.160
1075.341;   16.093;  -11.950;  664.100
1075.886;   16.395;  -11.460;  594.240
1076.431;   15.525;  -13.770;  649.880
1076.976;   14.889;  -12.680;  639.220
1077.521;   14.762;  -13.170;  583.080
1078.067;   14.571;  -10.860;  579.400
1078.612;   14.888;  -13.920;  661.620
1079.156;   14.181;  -13.880;  601.540
1079.701;   14.925;  -13.120;  693.260
1080.246;   15.714;   -9.940;  696.300
1080.791;   14.879;  -14.740;  625.020
1081.336;   14.646;  -13.750;  659.320
1081.880;   14.585;  -13.400;  649.680
1082.425;   14.394;  -12.220;  573.480
1082.970;   15.342;  -11.610;  717.040
1083.514;   13.233;  -13.580;  597.000
1084.059;   13.587;  -12.810;  586.720
1084.603;   12.815;  -12.320;  565.840
1085.147;   13.476;  -13.190;  645.220
1085.692;   14.242;  -12.480;  716.800
1086.236;   11.357;  -13.020;  503.140
1086.780;   14.412;   -9.190;  751.440
1087.325;   13.709;  -12.480;  654.620
1087.869;   13.346;  -12.450;  610.700
1088.413;   14.051;  -12.240;  705.040
1088.957;   12.283;   -9.020;  543.400
1089.501;   13.806;  -10.320;  766.640
1090.045;   12.333;  -12.720;  726.480
1090.589;   10.676;  -13.690;  569.920
1091.133;   12.678;  -10.020;  673.340
1091.676;   12.683;  -12.330;  591.940
1092.220;   11.025;  -14.970;  600.920
1092.764;   12.491;  -12.430;  706.960
1093.307;   12.478;   -9.800;  673.780
1093.851;   11.152;  -14.970;  556.540
1094.395;   11.224;  -15.310;  683.140
1094.938;   10.973;  -10.370;  632.520
1095.482;   11.911;  -11.050;  559.800
1096.025;   12.328;  -11.840;  710.880
1096.568;   11.762;  -12.840;  779.280
1097.112;    9.314;  -14.700;  508.180
1097.655;   11.622;   -8.720;  603.000
1098.198;    9.675;  -13.610;  600.180
1098.741;   10.193;  -13.350;  612.860
1099.285;   10.984;  -11.230;  657.300
1099.828;    9.100;  -11.840;  439.400
1100.371;   10.030;  -10.840;  608.160
1100.914;   10.157;  -14.190;  682.660
1101.457;   10.607;  -11.240;  679.900
1101.999;    9.179;  -11.270;  584.680
1102.542;   10.008;  -11.480;  641.440
1103.085;    9.041;  -11.750;  658.500
1103.628;   10.231;  -11.400;  762.060
1104.170;    9.728;  -10.490;  588.280
1104.713;   10.124;  -10.600;  646.700
1105.256;    8.594;  -14.360;  557.440
1105.798;    8.274;  -13.210;  499.980
1106.341;   10.234;  -10.270;  728.900
1106.883;    8.796;  -12.200;  521.340
1107.425;    8.332;  -13.110;  668.180
1107.968;    8.643;  -12.840;  612.380
1108.510;    9.904;   -6.480;  684.960
1109.052;    7.244;  -13.940;  612.620
1109.594;    7.471;  -13.690;  554.440
1110.136;    8.990;  -11.880;  643.220
1110.679;    8.028;   -9.500;  633.080
1111.221;    8.219;  -14.160;  604.460
1111.763;    7.454;  -13.980;  559.220
1112.304;    7.158;  -13.880;  547.140
1112.846;    8.480;  -12.210;  666.240
1113.388;   10.584;  -11.390;  942.180
1113.930;    7.768;  -14.540;  694.200
1114.472;    6.646;  -12.640;  606.540
1115.013;    5.987;  -11.620;  551.280
1115.555;    6.453;  -13.640;  587.100
1116.097;    5.735;  -15.380;  579.480
1116.638;    7.358;  -12.640;  684.600
1117.180;    7.800;   -9.850;  667.740
1117.721;    7.069;  -13.690;  568.580
1118.262;    7.251;  -12.680;  677.960
1118.804;    7.263;  -12.530;  637.340
1119.345;    6.219;  -11.690;  578.400
1119.886;    7.342;  -13.380;  704.040
1120.427;    5.869;  -14.070;  589.020
1120.969;    5.623;  -13.500;  597.920
1121.510;    5.363;  -11.480;  563.060
1122.051;    6.169;  -12.830;  723.580
1122.592;    5.351;  -14.290;  655.420
1123.133;    4.087;  -12.400;  547.940
1123.673;    7.157;  -10.130;  706.480
1124.214;    5.745;  -12.930;  612.460
1124.755;    5.686;  -14.380;  639.460
1125.296;    5.713;  -14.000;  627.320
1125.836;    6.675;  -10.070;  691.500
1126.377;    4.843;  -12.640;  599.660
1126.918;    5.998;  -12.960;  614.980
1127.458;    4.366;  -13.350;  622.220
1127.999;    5.422;  -10.750;  656.980
1128.539;    5.464;  -12.350;  694.240
1129.079;    4.656;  -14.860;  632.720
1129.620;    4.243;  -13.840;  558.100
1130.160;    3.776;  -12.330;  539.480
1130.700;    5.360;  -14.530;  640.840
1131.240;    5.205;  -12.530;  643.700
1131.781;    4.058;  -14.450;  619.680
1132.321;    4.815;   -9.790;  599.120
1132.861;    3.057;  -14.860;  564.200
1133.401;    3.028;  -14.290;  593.940
1133.941;    3.365;  -11.750;  626.280
1134.481;    3.911;   -9.920;  597.580
1135.020;    3.091;  -12.290;  609.160
1135.560;    3.337;  -11.650;  674.940
1136.100;    3.331;  -16.270;  501.160
1136.640;    3.080;  -10.890;  510.480
1137.179;    3.351;  -14.180;  537.960
1137.719;    3.637;  -16.250;  605.400
1138.258;    3.290;  -14.230;  587.360
1138.798;    3.758;   -9.090;  663.780
1139.337;    1.764;  -15.130;  482.840
1139.877;    3.364;  -13.680;  642.360
1140.416;    4.255;  -11.320;  878.060
1140.955;    2.399;  -10.860;  535.380
1141.494;    2.340;  -12.920;  669.280
1142.034;    2.743;  -13.930;  583.520
1142.573;    3.311;  -11.440;  646.280
1143.112;    2.911;  -12.000;  553.480
1143.651;    2.465;  -13.670;  536.480
1144.190;    3.150;  -12.730;  691.640
1144.729;    2.197;  -14.560;  607.420
1145.267;    2.227;  -11.830;  584.900
1145.806;    2.809;  -12.230;  637.040
1146.345;    1.979;  -14.130;  635.020
1146.884;    1.728;  -11.590;  622.500
1147.422;    1.669;  -12.550;  533.060
1147.961;    3.137;  -11.180;  708.460
1148.500;    2.708;  -11.510;  669.720
1149.038;    2.377;  -11.640;  632.500
1149.577;    2.683;  -10.130;  698.640
1150.115;    0.431;  -13.970;  452.280
1150.653;    1.458;  -14.520;  607.340
1151.192;    1.594;  -12.810;  552.920
1151.730;    1.645;   -9.100;  652.560
1152.268;    1.100;  -12.220;  589.520
1152.806;    0.924;  -14.140;  571.180
1153.344;    0.111;  -12.350;  577.640
1153.882;    1.207;   -8.980;  600.060
1154.421;   -0.723;  -15.190;  470.620
1154.958;   -0.158;  -15.210;  595.240
1155.496;    2.537;  -12.850;  645.280
1156.034;    0.714;   -9.940;  721.880
1156.572;    2.377;  -13.570;  667.060
1157.110;   -0.703;  -14.590;  473.940
1157.647;    1.188;  -13.030;  676.960
1158.185;   -0.549;  -12.140;  564.320
1158.723;   -1.034;  -14.390;  509.200
1159.260;    0.499;  -14.090;  701.700
1159.798;    0.225;  -11.920;  658.160
1160.335;    0.769;  -11.110;  631.820

