
Integration time [ms]:   3.882
Averaging Nr. [scans]: 1000
Smoothing Nr. [pixels]: 0
Data measured with spectrometer [name]: 7414430SP
Wave   ;Sample   ;Dark     ;Reference
[nm]   ;[counts] ;[counts] ;[counts] 

288.544;  138.561;    7.153;  793.890
289.143;  142.319;    8.402;  681.602
289.742;  144.724;    7.062;  828.814
290.341;  131.753;    0.191;  789.841
290.940;  121.566;    0.321;  730.702
291.538;  122.369;    3.811;  881.108
292.137;  121.199;   -3.438;  792.581
292.736;  124.473;   -2.809;  975.101
293.335;  120.665;   -5.239;  735.086
293.934;  122.200;   -4.939;  781.677
294.532;  123.949;   -2.199; 1031.958
295.131;  109.457;   -6.831;  834.394
295.730;  108.759;   -6.620;  809.588
296.328;  106.131;   -6.471;  783.442
296.927;  105.745;   -6.571;  779.652
297.525;  106.947;   -7.391;  781.236
298.124;   98.198;   -9.402;  654.009
298.722;  103.189;   -5.781;  761.933
299.321;  101.203;   -6.351;  708.597
299.919;   98.198;   -8.661;  751.918
300.518;   94.303;  -11.922;  689.338
301.116;   95.053;   -6.941;  691.381
301.715;   96.804;   -5.471;  730.222
302.313;   95.524;   -8.361;  704.943
302.911;   90.975;   -9.082;  733.830
303.509;   95.936;   -4.571;  925.627
304.108;   94.227;   -7.111;  760.383
304.706;   93.213;   -7.681;  801.664
305.304;   88.038;   -9.162;  796.707
305.902;   92.412;   -6.761;  784.484
306.500;   90.117;   -6.921;  728.200
307.098;   88.147;   -6.491;  746.560
307.696;   85.674;   -6.941;  780.432
308.294;   86.401;   -6.301;  731.359
308.892;   87.767;   -4.771;  759.769
309.490;   84.001;   -5.141;  712.161
310.088;   82.983;   -2.912;  788.444
310.686;   86.886;   -0.421;  821.749
311.284;   83.485;   -3.461;  766.040
311.882;   80.740;   -6.282;  731.225
312.480;   77.485;   -3.632;  697.167
313.078;   79.994;   -2.112;  808.331
313.675;   81.079;   -1.931;  691.600
314.273;   76.116;   -1.442;  797.837
314.871;   74.319;   -3.002;  589.829
315.468;   72.594;   -2.252;  652.090
316.066;   76.265;   -1.091;  694.427
316.664;   68.547;   -4.512;  656.351
317.261;   73.726;   -0.062;  910.128
317.859;   68.461;   -0.952;  768.735
318.456;   70.918;    0.719;  830.096
319.054;   65.382;   -4.002;  787.828
319.651;   63.610;   -4.972;  759.928
320.249;   63.190;   -1.162;  810.188
320.846;   61.680;   -2.651;  714.286
321.443;   59.582;   -3.832;  832.135
322.041;   56.640;   -4.312;  812.315
322.638;   54.893;   -3.872;  701.456
323.235;   56.375;   -4.361;  665.683
323.833;   53.521;   -4.821;  740.354
324.430;   49.359;   -6.971;  615.900
325.027;   50.833;   -4.361;  876.855
325.624;   50.288;   -5.581;  644.532
326.221;   47.094;   -6.601;  689.717
326.818;   47.110;   -7.301;  818.332
327.415;   49.125;   -6.180;  748.828
328.012;   48.840;   -5.920;  690.585
328.609;   46.701;   -8.390;  731.389
329.206;   44.959;   -6.121;  778.621
329.803;   45.385;   -5.241;  737.841
330.400;   47.148;   -7.420;  704.260
330.997;   47.774;   -5.931;  817.147
331.594;   44.999;   -5.641;  788.185
332.191;   51.045;   -6.451;  728.722
332.787;   54.543;   -4.651;  844.463
333.384;   52.489;   -5.472;  763.093
333.981;   49.431;   -6.303;  815.687
334.578;   52.204;   -5.892;  708.378
335.174;   55.647;   -4.102;  731.469
335.771;   55.054;   -8.053;  836.456
336.367;   51.839;   -7.363;  710.631
336.964;   54.624;   -6.243;  793.266
337.561;   54.380;   -5.653;  731.112
338.157;   49.820;   -7.074;  911.916
338.754;   47.695;   -5.474;  796.589
339.350;   46.220;   -5.624;  722.493
339.946;   48.936;   -5.054;  773.135
340.543;   40.635;   -6.695;  846.136
341.139;   35.820;   -6.215;  720.836
341.735;   34.535;   -5.746;  772.593
342.332;   32.582;   -7.335;  691.472
342.928;   32.718;   -4.835;  795.394
343.524;   27.185;   -4.586;  761.684
344.120;   23.940;   -3.946;  738.562
344.716;   27.444;   -4.835;  723.717
345.313;   24.791;   -5.325;  795.342
345.909;   19.817;   -6.535;  627.336
346.505;   22.448;   -4.725;  740.247
347.101;   23.123;   -4.164;  827.864
347.697;   23.328;   -5.274;  785.398
348.293;   17.071;   -7.145;  627.244
348.889;   18.054;   -4.364;  745.914
349.485;   18.024;   -6.404;  688.205
350.081;   18.357;   -7.534;  772.592
350.676;   13.491;   -6.995;  691.606
351.272;   18.269;   -3.544;  809.530
351.868;   18.344;   -5.324;  780.497
352.464;   15.511;   -7.204;  723.932
353.059;   10.538;   -6.894;  646.017
353.655;   14.925;   -3.754;  777.063
354.251;   16.107;   -6.143;  759.845
354.846;   10.070;   -9.464;  740.646
355.442;    8.043;   -7.555;  753.071
356.038;   10.416;   -5.474;  751.708
356.633;   10.000;   -5.914;  728.594
357.229;    8.305;   -8.944;  724.757
357.824;    6.350;   -6.794;  703.600
358.420;    5.747;   -5.754;  679.726
359.015;    6.705;   -5.664;  695.357
359.610;    7.132;   -8.004;  763.920
360.206;    1.734;   -8.815;  603.240
360.801;    4.695;   -8.834;  646.503
361.396;    6.703;   -6.274;  725.975
361.992;    1.408;   -8.574;  668.220
362.587;   -1.218;   -9.265;  670.160
363.182;    1.649;   -5.484;  689.631
363.777;    2.595;   -5.164;  738.242
364.372;    2.052;   -6.954;  737.314
364.967;   -1.941;   -7.065;  680.744
365.563;    2.844;   -5.684;  815.567
366.158;   -0.206;   -6.484;  685.161
366.753;    0.395;   -8.004;  649.263
367.348;   -1.428;  -10.114;  746.056
367.942;   -1.449;   -7.764;  697.298
368.537;   -2.037;   -4.554;  754.245
369.132;   -2.539;   -7.664;  703.428
369.727;   -6.380;   -8.905;  638.079
370.322;   -5.087;   -4.945;  580.186
370.917;   -4.998;   -7.095;  710.646
371.511;   -2.145;   -6.574;  861.834
372.106;   -5.707;   -6.515;  776.964
372.701;   -9.166;   -8.225;  585.988
373.296;   -3.202;   -4.494;  863.135
373.890;   -8.249;   -7.965;  647.840
374.485;   -9.889;   -9.745;  691.199
375.079;   -6.434;   -5.554;  738.685
375.674;   -4.031;   -4.724;  812.970
376.268;   -9.309;   -8.365;  691.759
376.863;  -15.244;   -8.126;  580.327
377.457;   -8.446;   -6.045;  662.490
378.052;   -9.505;   -6.835;  764.884
378.646;  -10.409;   -9.375;  741.167
379.240;  -11.701;   -6.185;  721.176
379.835;  -10.608;   -6.135;  636.978
380.429;  -12.114;   -8.365;  562.557
381.023;  -11.959;   -7.935;  779.205
381.617;  -14.465;   -8.325;  680.106
382.212;  -11.470;   -7.405;  685.303
382.806;  -10.322;   -4.155;  760.690
383.400;  -14.800;   -8.945;  672.281
383.994;  -15.264;   -8.365;  664.870
384.588;  -11.563;   -7.824;  697.701
385.182;  -10.087;   -7.984;  726.624
385.776;  -12.697;  -10.404;  706.875
386.370;  -14.701;   -7.335;  681.968
386.964;  -14.178;   -7.485;  684.155
387.558;  -12.172;   -8.174;  598.360
388.152;  -15.892;  -10.415;  681.959
388.745;  -13.907;   -9.595;  814.707
389.339;  -12.079;   -6.454;  747.642
389.933;  -11.307;   -5.804;  695.370
390.527;  -12.248;   -6.854;  859.029
391.120;  -18.427;   -7.665;  595.318
391.714;  -15.697;   -7.245;  711.633
392.308;  -11.709;   -4.514;  780.253
392.901;  -16.187;   -7.935;  642.460
393.495;  -17.306;   -8.585;  595.414
394.089;  -15.739;   -5.245;  760.452
394.682;  -16.122;   -6.305;  697.188
395.275;  -16.918;   -9.335;  719.927
395.869;  -19.004;   -7.375;  667.314
396.462;  -17.058;   -7.055;  616.609
397.056;  -12.600;   -5.434;  776.621
397.649;  -17.519;   -9.525;  731.575
398.242;  -14.428;   -7.574;  712.645
398.836;  -13.480;   -5.134;  766.408
399.429;  -14.475;   -6.544;  631.041
400.022;  -18.230;   -9.215;  665.902
400.615;  -14.709;   -8.105;  805.609
401.208;  -13.823;   -7.614;  691.451
401.802;  -16.179;   -8.085;  699.329
402.395;  -17.435;   -9.575;  683.502
402.988;  -18.528;   -9.285;  696.627
403.581;  -15.254;   -7.514;  646.878
404.174;  -12.465;   -6.404;  686.568
404.767;  -15.572;   -8.775;  638.583
405.360;  -18.010;   -7.415;  621.445
405.953;  -12.790;   -5.624;  759.034
406.545;  -12.200;   -6.474;  725.342
407.138;  -16.784;   -8.445;  618.350
407.731;  -15.780;  -10.044;  613.303
408.324;  -10.869;   -8.484;  660.554
408.917;  -12.346;   -7.624;  681.864
409.509;  -14.056;   -8.304;  740.396
410.102;  -16.482;   -8.495;  643.948
410.695;  -10.235;   -7.824;  665.758
411.287;  -11.189;   -7.754;  599.821
411.880;  -12.311;   -9.294;  585.421
412.472;  -15.622;   -8.814;  613.092
413.065;  -11.778;   -6.674;  629.408
413.657;  -10.454;   -9.664;  576.678
414.250;   -9.348;  -10.264;  646.681
414.842;  -12.737;   -8.664;  676.353
415.434;   -9.384;   -8.584;  570.463
416.027;   -5.083;   -9.423;  652.196
416.619;   -8.188;  -10.764;  713.400
417.211;   -8.533;   -7.404;  599.352
417.804;   -4.241;   -7.383;  628.499
418.396;   -8.878;   -8.334;  607.643
418.988;   -7.197;   -9.633;  659.238
419.580;   -9.945;  -10.554;  568.276
420.172;   -8.065;   -8.683;  536.196
420.764;   -3.092;   -9.713;  672.482
421.356;   -4.369;  -11.303;  636.898
421.948;   -5.279;   -8.453;  677.661
422.540;   -0.502;   -5.793;  680.027
423.132;   -0.647;   -7.162;  600.641
423.724;   -4.428;   -7.933;  561.267
424.316;   -3.044;   -9.083;  621.345
424.908;    1.518;   -8.392;  591.517
425.500;    1.420;   -8.062;  647.978
426.092;    3.035;   -9.692;  648.268
426.683;    1.098;   -8.223;  684.836
427.275;    3.927;   -8.602;  641.471
427.867;    6.218;   -8.382;  668.948
428.458;    5.840;  -10.472;  732.344
429.050;    4.305;   -9.112;  680.749
429.642;    6.403;   -7.752;  743.124
430.233;    6.425;   -8.832;  569.356
430.825;    8.650;   -8.292;  724.809
431.416;    4.953;   -7.522;  698.241
432.008;    9.374;   -9.262;  651.723
432.599;    9.736;   -6.441;  656.073
433.190;    6.820;   -9.222;  637.670
433.782;    6.167;  -11.832;  590.395
434.373;   13.964;   -7.121;  884.765
434.964;   12.249;   -9.141;  602.920
435.556;    9.894;   -9.332;  634.537
436.147;   12.693;   -8.892;  758.490
436.738;   12.556;   -8.151;  701.099
437.329;   17.694;   -8.281;  721.723
437.920;   10.337;   -9.062;  666.688
438.511;   10.733;  -11.182;  564.526
439.103;   17.015;   -7.461;  623.998
439.694;   19.594;   -8.541;  681.583
440.285;   20.031;   -7.351;  764.432
440.876;   18.917;   -8.201;  845.738
441.466;   17.985;  -10.381;  575.162
442.057;   23.221;   -7.620;  665.814
442.648;   21.168;   -8.461;  746.255
443.239;   19.888;   -8.991;  620.477
443.830;   25.165;   -7.910;  704.958
444.421;   26.785;   -7.340;  655.474
445.011;   23.074;   -8.981;  693.619
445.602;   22.619;   -9.341;  743.126
446.193;   24.791;  -11.390;  488.117
446.783;   29.376;  -11.240;  640.397
447.374;   24.538;   -8.471;  692.759
447.964;   25.169;   -8.471;  713.770
448.555;   33.623;   -6.590;  822.742
449.145;   29.461;   -8.200;  662.853
449.736;   31.389;  -11.040;  803.179
450.326;   30.548;   -9.640;  713.626
450.917;   35.624;   -9.480;  675.324
451.507;   35.310;   -8.020;  600.661
452.097;   35.320;  -10.210;  746.267
452.688;   36.041;   -7.810;  742.160
453.278;   36.577;   -9.360;  566.840
453.868;   41.991;   -8.669;  793.550
454.458;   39.171;  -10.950;  651.141
455.048;   38.656;  -10.200;  711.783
455.639;   39.821;   -9.369;  567.096
456.229;   44.030;   -7.739;  710.694
456.819;   45.919;   -8.939;  751.158
457.409;   46.389;   -7.169;  773.993
457.999;   48.644;   -7.779;  737.505
458.589;   49.306;   -7.039;  686.606
459.179;   47.789;   -9.019;  717.658
459.769;   45.940;   -8.909;  627.099
460.358;   51.529;   -8.659;  797.262
460.948;   51.319;   -8.209;  689.503
461.538;   52.275;   -9.879;  660.677
462.128;   50.500;   -9.379;  664.934
462.717;   57.539;   -9.158;  710.326
463.307;   60.069;   -8.638;  705.846
463.897;   56.586;   -8.869;  656.942
464.486;   55.696;   -7.409;  837.128
465.076;   59.903;   -9.618;  733.776
465.666;   63.737;   -7.578;  652.900
466.255;   61.327;   -9.369;  785.651
466.845;   60.088;  -10.049;  666.749
467.434;   63.430;   -8.168;  725.873
468.023;   64.228;   -9.188;  658.357
468.613;   62.135;   -9.849;  713.946
469.202;   66.547;  -12.958;  646.507
469.791;   70.166;   -9.488;  737.811
470.381;   72.851;   -6.468;  742.813
470.970;   71.405;  -10.248;  711.099
471.559;   71.149;  -11.428;  733.291
472.148;   74.072;   -9.738;  675.737
472.738;   77.125;   -7.877;  765.466
473.327;   76.555;  -11.868;  637.529
473.916;   76.180;   -8.578;  737.446
474.505;   80.508;  -11.137;  751.703
475.094;   83.132;   -9.407;  806.570
475.683;   82.960;   -9.977;  797.699
476.272;   83.046;  -10.807;  730.632
476.861;   86.286;  -11.017;  706.754
477.449;   92.720;  -10.316;  728.487
478.038;   87.304;  -10.187;  692.513
478.627;   87.452;  -12.458;  714.852
479.216;   95.344;  -10.127;  769.441
479.805;   98.040;   -6.256;  783.375
480.393;   97.477;   -8.737; 1008.945
480.982;   96.065;   -9.087;  874.501
481.571;  101.930;   -7.806;  858.333
482.159;  102.425;  -10.596;  705.386
482.748;  102.288;  -11.507;  821.385
483.336;  106.992;   -8.366;  858.209
483.925;  107.335;   -7.497;  774.373
484.513;  114.363;   -8.326;  758.962
485.102;  110.748;  -10.277;  810.965
485.690;  119.392;   -8.256; 1011.050
486.278;  120.821;   -7.146;  979.329
486.867;  121.044;   -7.986;  809.662
487.455;  123.518;   -9.926;  898.229
488.043;  124.368;  -10.026;  748.361
488.631;  133.358;   -7.226; 1005.079
489.220;  137.453;   -8.696;  908.626
489.808;  136.237;  -12.276;  741.415
490.396;  143.498;   -9.386;  914.645
490.984;  149.289;   -8.506;  830.161
491.572;  159.269;   -8.226;  940.315
492.160;  164.037;   -9.836;  919.081
492.748;  174.353;  -10.316;  884.341
493.336;  193.719;   -7.146; 1019.693
493.924;  216.040;   -7.965;  958.077
494.512;  243.652;  -10.316; 1066.638
495.100;  275.117;  -10.186; 1103.280
495.687;  329.719;   -7.805; 1206.373
496.275;  387.138;   -9.686; 1150.796
496.863;  467.179;  -11.566; 1281.171
497.451;  546.573;  -11.406; 1386.805
498.038;  645.323;   -8.235; 1556.729
498.626;  762.042;   -7.485; 1741.407
499.214;  914.924;   -8.646; 2016.609
499.801; 1155.947;   -9.936; 2220.633
500.389; 1366.836;   -8.056; 2312.494
500.976; 1510.398;   -6.166; 2744.849
501.564; 1691.821;   -9.126; 3148.565
502.151; 1961.451;  -12.456; 3515.999
502.738; 2327.646;  -10.056; 3971.274
503.326; 2732.520;  -10.605; 4403.796
503.913; 3111.696;  -10.576; 5161.749
504.500; 3565.161;   -9.056; 5986.420
505.088; 4062.315;  -10.136; 6381.201
505.675; 4700.007;   -9.075; 6925.547
506.262; 5143.332;  -11.346; 7619.060
506.849; 5974.437;   -9.376; 8733.969
507.436; 6697.283;   -7.365; 9790.121
508.023; 6686.346;   -8.686; 9985.472
508.610; 6882.934;   -8.846;10434.618
509.197; 7606.741;   -9.077;11198.435
509.784; 8972.660;  -10.246;12391.194
510.371;10196.084;   -9.825;13603.713
510.958;11277.716;  -10.896;14426.586
511.545;11966.506;   -9.006;15243.775
512.132;11736.706;   -8.765;15945.876
512.719;12165.765;   -8.286;16340.369
513.305;14078.230;   -9.256;18011.766
513.892;16134.351;  -11.106;19754.971
514.479;19067.135;   -8.576;20967.805
515.066;21876.584;   -9.046;22299.793
515.652;22665.195;  -10.676;22908.660
516.239;23239.998;  -10.166;23798.875
516.825;22667.223;  -11.266;25567.275
517.412;22063.734;   -7.446;28154.959
517.998;21678.072;  -10.916;28344.111
518.585;21295.613;   -9.166;27134.219
519.171;20662.334;  -10.135;27268.576
519.758;21705.832;   -8.806;28964.129
520.344;24489.496;   -6.716;30664.494
520.930;27051.416;  -10.166;32550.605
521.516;27285.053;   -9.615;35422.895
522.103;29658.307;   -8.656;38280.004
522.689;30616.227;   -9.646;37835.117
523.275;29862.844;  -10.786;37288.613
523.861;32169.635;   -9.266;37281.395
524.447;33197.078;   -8.285;37846.949
525.033;32741.514;   -9.426;38321.949
525.619;33069.520;   -9.836;38579.285
526.205;35523.082;   -8.136;40622.875
526.791;36377.340;   -9.986;42258.836
527.377;36126.617;   -8.236;42966.902
527.963;35452.125;  -12.117;42018.949
528.549;34007.852;   -8.376;42476.828
529.135;35025.801;   -8.696;41854.852
529.721;37170.309;   -9.686;41237.711
530.306;39394.000;   -8.616;41259.445
530.892;41958.090;   -9.396;41506.047
531.478;43070.797;   -9.926;43559.613
532.063;43664.891;  -10.236;47695.563
532.649;44778.570;   -8.257;50808.324
533.235;45694.164;  -11.476;51787.500
533.820;45717.828;   -8.156;52145.035
534.406;46662.918;  -12.257;51133.488
534.991;43672.141;   -8.686;49996.805
535.576;41000.723;   -9.426;48882.852
536.162;40929.547;   -8.436;46942.285
536.747;41554.227;  -10.957;45711.746
537.333;41039.418;  -13.147;48510.180
537.918;42709.305;   -9.027;50439.891
538.503;45040.453;   -8.256;50863.711
539.088;46176.301;  -10.576;50906.922
539.673;47454.000;  -10.907;52621.965
540.259;49104.629;   -9.126;52368.094
540.844;48758.602;   -9.026;50879.109
541.429;48884.594;   -9.597;52077.777
542.014;51380.469;  -11.447;52716.695
542.599;52582.805;   -9.236;52363.281
543.184;52391.926;  -12.267;53187.137
543.769;52966.211;  -10.367;54697.605
544.354;52657.621;  -10.887;53913.914
544.938;46751.676;  -11.687;49680.164
545.523;42603.844;   -8.286;47386.277
546.108;43420.059;   -9.317;49151.949
546.693;44290.289;  -10.187;51384.637
547.278;42151.508;   -9.926;51853.254
547.862;41349.668;   -9.196;51173.750
548.447;40772.215;   -9.657;51691.395
549.031;42269.789;   -9.127;52456.703
549.616;44997.969;  -10.836;52714.516
550.201;46030.332;   -8.507;52414.598
550.785;46610.434;  -10.537;52355.059
551.370;49857.664;  -11.727;54589.453
551.954;49100.695;   -9.457;58267.348
552.538;47514.340;   -8.147;59062.176
553.123;47228.598;   -9.397;58115.285
553.707;48578.711;   -9.558;56556.285
554.291;48219.301;   -9.417;56201.668
554.876;50080.117;   -7.627;55335.762
555.460;48309.840;  -10.457;54155.703
556.044;43861.516;  -10.078;53721.484
556.628;43190.238;   -9.407;53731.016
557.212;42208.137;   -7.957;54312.531
557.796;41366.742;  -11.327;53797.773
558.380;45327.211;  -10.868;56145.984
558.964;45651.512;   -9.637;57277.930
559.548;43893.738;   -8.807;56459.641
560.132;46143.027;  -10.187;54434.543
560.716;47001.898;   -9.868;54800.617
561.300;48374.066;  -10.217;57606.945
561.884;48471.922;   -4.947;58972.445
562.467;45630.141;   -9.588;57327.570
563.051;41358.734;  -11.138;54962.434
563.635;41853.117;   -9.358;52594.473
564.219;42693.465;   -9.797;50610.410
564.802;41220.113;   -9.918;49551.180
565.386;40277.805;  -10.838;48370.953
565.969;39764.039;   -8.037;48178.871
566.553;38577.770;   -5.667;49957.305
567.136;38414.613;   -8.258;50369.594
567.720;38883.977;  -11.278;49492.004
568.303;37025.789;   -9.028;50616.352
568.887;35465.219;   -7.508;50727.148
569.470;34371.852;  -11.068;51698.379
570.053;36256.258;  -10.028;52122.078
570.637;36216.938;  -11.077;52536.438
571.220;37390.879;   -8.747;51186.098
571.803;39271.281;   -8.868;51032.762
572.386;39610.621;  -10.608;49609.887
572.969;37939.730;  -10.548;48285.926
573.552;35649.332;   -7.898;47624.285
574.135;36146.578;   -9.918;45498.641
574.718;33245.051;  -10.328;41970.434
575.301;31198.477;   -9.548;41447.137
575.884;29151.904;   -8.768;40923.836
576.467;34432.090;   -9.858;45267.723
577.050;35060.191;  -11.018;48175.543
577.633;36454.383;  -10.048;47729.328
578.216;35538.789;  -10.268;47579.793
578.799;33518.617;  -11.808;47820.996
579.381;32694.695;   -7.338;48115.551
579.964;34327.547;   -9.728;47333.766
580.547;34642.914;   -8.928;46668.969
581.129;34465.133;   -9.149;44466.141
581.712;35998.816;  -11.359;44164.922
582.294;35938.270;  -10.738;46477.855
582.877;34005.559;   -8.788;48244.254
583.459;32968.633;   -9.859;47437.895
584.042;34025.734;   -9.649;46943.219
584.624;34639.168;  -10.529;46792.227
585.206;33182.324;  -10.298;46557.250
585.789;31285.934;  -11.029;45793.773
586.371;31256.064;   -9.359;43836.391
586.953;31888.832;   -8.799;42972.492
587.536;32053.305;   -8.928;42487.211
588.118;31415.734;   -9.180;42086.414
588.700;29819.588;  -10.519;43389.930
589.282;28940.141;   -8.098;43646.039
589.864;28989.201;   -8.139;43438.109
590.446;30355.326;  -10.509;43151.926
591.028;32925.773;  -11.119;42781.867
591.610;33674.098;  -10.019;42839.098
592.192;31888.443;   -8.838;42820.402
592.774;29398.262;  -11.549;40724.277
593.356;26575.623;  -11.609;39874.789
593.937;25811.445;  -10.019;39980.648
594.519;26949.352;   -7.839;42069.633
595.101;27803.170;  -10.779;42976.031
595.683;30364.125;  -10.049;44084.441
596.264;32410.328;   -9.969;43478.797
596.846;32176.910;   -9.699;43803.672
597.427;31860.387;  -10.970;42986.934
598.009;33084.555;  -13.090;42832.219
598.591;33425.207;   -9.509;42580.086
599.172;31674.289;   -9.019;43061.805
599.753;29181.846;  -13.310;41691.469
600.335;29429.346;  -11.010;40692.520
600.916;30196.330;  -10.309;39982.422
601.498;30281.621;   -8.209;40318.617
602.079;30267.598;  -11.440;40670.609
602.660;31683.148;   -8.690;41450.898
603.241;33147.125;  -12.759;41137.738
603.823;31397.084;  -10.409;38868.797
604.404;31336.373;  -11.790;38182.785
604.985;29851.250;  -10.280;38078.047
605.566;30516.258;   -8.059;38056.633
606.147;30989.928;   -8.960;37020.418
606.728;30781.508;  -10.710;37883.359
607.309;30050.607;  -12.760;38748.273
607.890;27944.266;   -9.959;38850.230
608.471;26240.576;   -9.780;37457.918
609.051;28018.906;   -8.940;36066.457
609.632;30837.367;  -12.070;35991.074
610.213;32849.098;   -9.610;37402.641
610.794;33120.266;   -8.750;38383.363
611.374;32014.246;  -11.100;40562.387
611.955;32413.402;  -12.200;38533.727
612.536;32160.369;  -10.410;36951.789
613.116;32305.670;  -10.010;37197.891
613.697;31589.172;  -10.480;38411.125
614.277;30017.404;  -12.751;38673.938
614.858;29916.633;  -11.600;37075.863
615.438;29364.037;   -8.190;35092.906
616.019;27878.070;   -8.941;33666.301
616.599;29020.090;  -13.540;34189.023
617.179;29606.506;  -10.890;36952.047
617.760;30242.742;   -7.610;39582.574
618.340;29607.252;  -14.441;38943.977
618.920;28928.660;   -9.180;37594.156
619.500;28843.563;  -11.881;37866.938
620.080;30732.955;   -9.870;37869.043
620.660;30847.295;  -13.211;36868.617
621.241;29683.328;  -11.921;36352.309
621.821;28501.707;  -10.271;35459.520
622.401;28256.367;   -8.200;35207.414
622.980;29252.457;  -11.141;35980.422
623.560;30739.285;  -14.321;37351.328
624.140;30480.541;   -9.360;34388.582
624.720;27109.584;   -7.481;32368.764
625.300;23834.285;  -12.730;32638.629
625.880;28577.223;  -11.441;34599.035
626.459;32377.498;  -10.971;36831.738
627.039;33890.242;   -9.011;38299.098
627.619;33703.902;   -8.521;38289.574
628.198;34840.445;   -9.861;37220.695
628.778;34561.680;   -8.841;37632.563
629.357;33057.734;   -9.891;38003.012
629.937;30762.504;  -11.871;38402.039
630.516;29643.055;  -10.641;37868.801
631.096;31771.260;  -11.391;35760.410
631.675;33308.496;   -6.622;35225.219
632.254;31184.006;  -13.002;35130.289
632.834;29555.295;  -11.622;35794.570
633.413;31431.896;   -8.321;35788.922
633.992;29738.529;   -7.732;34532.863
634.571;29311.555;  -10.992;33590.113
635.151;30879.078;  -10.422;34943.863
635.730;31311.619;  -11.511;35352.523
636.309;30527.111;   -7.901;35366.605
636.888;29570.732;  -11.452;36165.637
637.467;29088.379;  -10.672;37515.902
638.046;29107.826;   -9.301;39288.695
638.625;30135.553;  -11.452;38279.699
639.204;31677.178;  -12.262;37741.598
639.782;31219.986;  -11.892;38364.551
640.361;29843.268;  -11.411;36740.621
640.940;26737.707;  -11.501;34950.082
641.519;26958.105;  -10.921;34137.398
642.097;30170.641;  -10.101;35654.258
642.676;30717.410;  -10.821;35637.957
643.255;33143.227;   -8.631;36567.074
643.833;35247.422;  -11.411;37809.434
644.412;36258.891;  -12.021;37337.293
644.990;36072.953;  -12.271;37018.531
645.569;35169.516;   -9.741;36518.469
646.147;33821.902;   -9.051;36186.430
646.726;31979.205;  -13.861;36267.688
647.304;32150.092;   -9.461;36647.625
647.882;31233.633;  -13.171;39286.742
648.461;31231.191;  -11.911;39157.703
649.039;31467.898;   -9.541;35412.883
649.617;33160.059;   -8.901;34744.918
650.195;31336.572;   -8.591;35403.098
650.773;29942.963;  -13.031;35053.797
651.352;28456.801;  -12.211;33756.816
651.930;25403.016;  -11.361;31868.773
652.508;22792.824;   -8.601;33121.551
653.086;26438.350;   -9.991;33564.793
653.663;30712.988;  -11.931;34054.668
654.241;32380.984;  -10.821;35693.309
654.819;32946.004;   -9.341;36422.906
655.397;30877.109;  -10.851;38213.484
655.975;29208.482;  -11.461;39507.625
656.553;29738.629;   -8.841;39498.223
657.130;29348.990;  -10.371;40395.480
657.708;28441.695;  -11.071;39242.020
658.286;28431.268;  -11.141;38920.020
658.863;30972.814;  -10.861;40202.898
659.441;36566.352;  -11.181;39677.938
660.018;37934.770;  -10.851;40413.355
660.596;36714.609;  -12.571;39931.414
661.173;37175.836;  -12.141;39604.531
661.750;33896.434;  -11.571;39700.070
662.328;30757.488;  -10.780;39292.809
662.905;29662.020;  -10.750;38235.648
663.482;26860.330;  -11.320;36212.305
664.060;25924.180;  -10.160;35944.945
664.637;31525.021;  -13.120;35170.785
665.214;34098.328;  -11.500;34197.523
665.791;32019.012;  -12.430;34549.520
666.368;29560.289;   -9.840;35118.578
666.945;28469.576;  -11.290;36019.418
667.522;28869.898;  -13.540;36048.438
668.099;29674.105;  -10.250;36243.914
668.676;28621.563;  -11.270;35958.875
669.253;27983.938;   -8.210;37384.730
669.830;26724.271;   -9.710;36779.629
670.407;26153.246;   -9.700;35231.289
670.984;25845.857;   -9.190;35544.270
671.560;24612.416;   -9.560;35466.867
672.137;24477.973;  -11.820;34280.863
672.714;27474.498;  -12.460;34632.863
673.290;31625.994;  -10.940;35135.422
673.867;32904.262;  -10.510;36114.480
674.443;31100.777;  -12.110;36152.859
675.020;30999.570;  -11.760;35327.238
675.596;31551.004;   -9.380;35795.176
676.173;30856.770;  -11.120;35430.355
676.749;30044.656;  -13.390;33549.516
677.326;29035.500;  -12.600;32210.012
677.902;28094.422;  -10.830;32068.871
678.478;27475.412;  -12.400;32583.891
679.054;28880.574;   -8.610;32088.928
679.631;30415.387;  -11.640;30978.848
680.207;31174.998;   -8.140;33160.887
680.783;30795.514;  -12.300;35570.363
681.359;29272.012;  -10.910;36125.184
681.935;28457.656;  -11.040;35240.922
682.511;28874.225;  -11.130;34429.961
683.087;29069.439;  -11.080;34463.680
683.663;30877.738;  -10.530;34648.898
684.239;31344.166;  -12.120;34546.457
684.815;30230.473;   -8.870;35586.375
685.390;28875.684;   -8.940;35821.895
685.966;27868.783;  -12.109;35085.871
686.542;26576.969;  -13.539;34198.230
687.118;25756.867;  -10.379;32847.707
687.693;26638.240;  -10.189;32794.027
688.269;26064.547;  -12.939;33072.367
688.844;24987.441;   -8.679;33141.664
689.420;25764.309;  -10.919;33965.742
689.995;26314.361;   -7.489;34655.523
690.571;25816.563;  -12.199;33576.742
691.146;26099.369;   -8.979;32657.219
691.722;27569.494;   -9.119;32526.979
692.297;27643.930;  -10.519;33014.617
692.872;27646.936;  -10.629;34012.254
693.448;27910.029;  -12.119;34237.434
694.023;27239.822;   -8.219;34142.672
694.598;25513.291;  -13.209;34132.031
695.173;24173.830;  -11.879;34205.250
695.748;24659.285;  -12.039;32882.488
696.323;25686.730;  -11.779;32864.906
696.898;26215.770;  -10.219;33170.004
697.473;27708.002;  -13.639;32432.984
698.048;28505.240;  -11.239;31649.303
698.623;30512.439;  -10.859;30778.141
699.198;32379.898;  -13.379;31140.119
699.773;32624.727;  -13.409;31764.299
700.348;31567.367;  -12.329;31780.816
700.922;31482.434;   -8.749;32046.375
701.497;31481.545;  -12.449;32603.574
702.072;29975.645;   -8.879;34799.871
702.646;28040.467;  -10.719;35793.172
703.221;27425.475;   -8.469;35201.590
703.795;28277.760;  -11.389;34764.527
704.370;27310.857;  -12.499;34307.367
704.944;25883.611;  -11.449;33509.887
705.519;25749.484;  -10.659;31388.584
706.093;25078.613;  -12.909;31340.104
706.668;25501.863;  -13.509;32630.281
707.242;26500.074;  -10.049;32728.779
707.816;26357.986;  -10.629;32947.238
708.390;25549.828;  -11.829;33277.855
708.965;24219.055;  -11.159;33834.336
709.539;24531.578;  -11.069;33709.273
710.113;24321.338;  -10.908;33044.313
710.687;22573.525;   -9.488;31953.992
711.261;22820.631;  -13.068;30505.949
711.835;25412.250;  -12.748;30262.369
712.409;27654.682;  -10.678;31254.447
712.983;27171.492;  -11.658;32754.986
713.557;26606.920;  -13.718;34018.824
714.131;27402.615;  -13.388;34579.625
714.704;30011.230;   -9.818;33890.262
715.278;31882.883;  -11.818;33531.102
715.852;31929.488;  -11.328;33601.660
716.425;32381.146;   -9.118;33515.117
716.999;32547.230;  -10.188;33185.555
717.573;31572.602;   -9.808;33905.996
718.146;30414.242;  -11.478;35199.293
718.720;29131.174;  -10.998;35060.551
719.293;28202.432;   -9.508;34973.230
719.867;29267.963;  -12.138;36394.449
720.440;29005.568;  -11.288;36663.008
721.013;31182.463;  -11.428;35102.426
721.587;32782.914;  -11.698;33985.266
722.160;34189.301;  -11.608;33524.965
722.733;34408.195;  -11.428;32987.043
723.306;31171.541;  -12.518;33066.301
723.880;29672.260;   -7.408;33399.500
724.453;29487.041;  -11.048;33468.297
725.026;28327.939;  -11.678;33816.637
725.599;26876.369;  -10.978;32797.996
726.172;25115.527;   -8.838;33187.434
726.745;24819.783;  -11.438;35136.613
727.318;26268.467;   -9.828;35751.730
727.891;27064.615;  -10.868;35890.430
728.463;27024.174;  -11.348;34822.090
729.036;25902.682;  -11.608;32895.086
729.609;25548.635;  -14.738;31823.225
730.182;25835.564;   -8.448;31445.283
730.754;26735.951;  -11.228;32373.223
731.327;27093.676;  -12.018;33676.820
731.900;28969.371;  -13.748;33417.000
732.472;30036.219;  -10.928;31978.498
733.045;29515.355;   -9.478;30368.777
733.617;27608.641;  -12.967;30574.215
734.190;26942.729;  -11.707;31280.975
734.762;26373.398;  -11.067;31674.412
735.334;25331.012;  -10.587;31247.291
735.907;24194.791;  -11.947;29876.211
736.479;24653.609;  -11.667;29808.488
737.051;26375.129;  -10.187;30233.547
737.623;27084.494;   -6.887;31469.086
738.195;28454.305;  -12.117;31784.225
738.768;30600.975;  -14.077;32120.523
739.340;30031.004;  -12.207;32094.342
739.912;27514.209;   -8.977;31312.680
740.484;25884.971;  -11.017;31946.238
741.056;27757.652;  -13.517;32984.059
741.628;30435.219;  -11.507;33897.715
742.199;31064.066;   -7.597;33213.016
742.771;30595.598;  -12.227;31369.113
743.343;29120.314;  -12.427;31865.473
743.915;27193.529;   -9.827;32388.631
744.487;25973.158;  -10.007;31079.568
745.058;25072.502;  -11.887;30570.107
745.630;24045.689;  -10.787;29970.127
746.201;23546.074;  -10.887;29186.766
746.773;25097.100;   -9.707;28805.723
747.344;26227.539;  -11.137;29591.223
747.916;25627.234;  -11.887;31412.201
748.487;24912.742;   -9.707;32194.898
749.059;24401.840;  -10.027;32533.719
749.630;23700.266;  -11.787;32158.518
750.201;22399.924;  -12.767;30855.395
750.773;20492.742;  -11.497;28622.555
751.344;21320.076;   -9.937;28405.732
751.915;21311.344;  -11.567;28461.551
752.486;19300.947;  -13.267;27842.850
753.057;18273.295;  -10.627;27845.008
753.628;18324.568;  -11.657;27728.107
754.199;20726.287;  -12.097;27381.086
754.770;22295.977;  -11.447;25882.203
755.341;22588.559;  -11.997;25886.184
755.912;20967.059;  -10.207;26050.861
756.483;19253.691;  -10.937;26798.779
757.054;19691.943;  -11.527;27048.238
757.625;19908.611;  -12.886;26294.838
758.195;19412.779;  -11.226;26142.076
758.766;19758.363;  -12.366;26392.234
759.337;18549.174;  -11.946;26334.594
759.907;18065.598;  -13.856;27579.652
760.478;19371.357;   -9.606;28352.770
761.048;20903.619;  -11.606;27325.088
761.619;21482.119;  -11.036;26460.428
762.189;19831.510;  -12.206;26029.826
762.760;18966.084;   -9.666;26430.145
763.330;19934.316;   -9.796;26670.902
763.900;19806.414;  -10.896;26603.021
764.471;19314.900;  -11.726;25542.740
765.041;20002.547;   -9.656;24358.459
765.611;20436.719;  -11.276;23991.297
766.181;19940.225;  -12.116;24470.236
766.751;19737.459;  -12.376;24845.975
767.321;20065.643;  -11.626;24533.633
767.891;19870.318;  -10.426;24916.492
768.461;18219.660;  -13.456;24776.771
769.031;15793.104;  -11.616;24757.988
769.601;14809.335;  -11.356;24181.088
770.171;14848.743;  -11.586;23670.387
770.741;15527.762;  -12.696;22960.045
771.311;17178.029;  -10.226;22917.523
771.880;17742.383;  -11.146;23562.941
772.450;18094.105;  -11.716;24216.500
773.020;18090.387;  -13.226;24140.398
773.589;17133.055;  -12.586;24414.857
774.159;16726.959;  -10.246;23858.717
774.729;16100.244;  -11.586;22942.135
775.298;15929.870;  -15.926;22324.033
775.867;15854.151;  -10.426;21140.313
776.437;15401.542;  -11.416;20838.092
777.006;13611.476;  -12.766;20599.510
777.576;13621.762;  -13.666;20508.809
778.145;15004.006;  -10.066;20732.947
778.714;15261.696;  -10.276;21062.465
779.283;14710.278;  -12.086;20949.664
779.853;14425.633;  -14.016;20508.623
780.422;14222.111;  -12.376;20649.082
780.991;13591.536;   -9.246;21527.520
781.560;13321.952;   -9.775;22632.658
782.129;13627.892;  -12.495;23048.277
782.698;13709.883;  -11.775;23438.555
783.267;13620.078;  -10.065;23267.734
783.836;14525.089;  -12.455;22415.133
784.404;15027.374;  -13.385;20443.152
784.973;14883.914;  -11.045;19699.150
785.542;14418.127;   -9.505;19763.828
786.111;13717.999;   -9.385;20341.408
786.679;13501.810;  -13.475;20207.967
787.248;13432.990;  -11.245;19516.465
787.817;11965.811;  -12.485;18900.363
788.385;10497.411;  -11.165;17879.121
788.954;11061.683;  -11.755;17658.301
789.522;12091.909;   -9.625;17788.879
790.090;12487.327;   -9.665;18118.277
790.659;11843.392;   -9.295;18338.736
791.227;11795.721;  -12.175;18508.615
791.795;12581.835;  -12.145;17898.254
792.364;12574.937;  -11.575;17295.133
792.932;11991.032;  -11.085;16822.051
793.500;11620.882;  -11.345;17040.148
794.068;11267.582;  -12.565;17179.787
794.636;11855.589;  -12.105;16664.246
795.204;12897.734;  -11.995;16524.545
795.772;12839.723;  -12.615;17274.564
796.340;12293.507;  -12.425;17891.002
796.908;11853.402;  -11.455;17648.561
797.476;10984.518;  -12.165;17064.080
798.044; 9844.066;  -15.795;16672.777
798.612; 9336.587;  -10.985;17023.996
799.180; 9940.543;  -12.055;16561.615
799.747;10530.482;  -12.525;15962.773
800.315; 9773.457;  -14.765;15296.992
800.883; 8611.170;  -12.435;14801.771
801.450; 8471.291;  -11.295;14534.430
802.018; 8835.074;  -11.185;14173.248
802.585; 8934.400;  -11.625;14029.547
803.153; 8225.543;  -10.665;13836.846
803.720; 7726.128;  -10.275;13567.324
804.287; 7919.178;  -12.865;13360.622
804.855; 8236.305;  -12.324;13681.981
805.422; 8255.816;  -11.574;13536.560
805.989; 7944.313;  -11.004;13355.958
806.556; 8187.408;  -12.214;13747.896
807.124; 8572.271;  -13.304;13987.376
807.691; 8474.419;  -12.034;14038.674
808.258; 8290.147;  -11.014;14120.152
808.825; 8176.232;  -11.804;13860.111
809.392; 7924.658;  -11.544;13268.790
809.959; 7728.957;  -14.954;12680.389
810.526; 8005.210;  -10.214;12427.308
811.093; 8022.359;  -10.754;12030.105
811.659; 7593.374;  -12.194;11653.664
812.226; 6887.993;   -9.194;11637.183
812.793; 6756.785;   -9.644;11611.521
813.360; 7430.483;  -11.544;11885.181
813.926; 8412.470;  -12.814;12770.539
814.493; 8478.160;  -11.524;12677.638
815.060; 8252.695;  -12.254;11974.336
815.626; 8066.771;  -12.114;11594.715
816.193; 7513.308;  -11.994;11579.474
816.759; 6936.885;  -11.464;11666.972
817.325; 6488.404;  -10.444;11325.530
817.892; 6215.544;  -11.124;11105.369
818.458; 6233.571;  -11.864;10843.928
819.024; 6757.871;  -10.634;10714.406
819.591; 6969.231;  -10.554;10469.165
820.157; 7017.519;  -13.334;10235.523
820.723; 7032.959;  -13.044;10847.563
821.289; 6896.403;   -9.664;11040.980
821.855; 6974.457;  -10.994;10357.100
822.421; 7247.574;  -11.784; 9978.918
822.987; 7426.188;  -12.554; 9754.177
823.553; 7437.668;  -12.554;10065.755
824.119; 7061.179;   -8.544;10036.294
824.685; 6255.834;  -12.144;10029.192
825.251; 5893.188;  -12.754;10199.230
825.816; 5588.765;  -11.354; 9820.189
826.382; 5214.290;  -11.004; 9297.248
826.948; 5200.853;  -11.004; 9381.347
827.513; 5400.614;  -12.474; 9450.726
828.079; 5482.049;  -13.084; 9472.444
828.645; 5618.134;  -10.813; 9292.643
829.210; 5471.762;  -11.593; 9065.341
829.776; 5475.729;  -12.633; 9132.620
830.341; 5749.935;  -10.473; 9092.878
830.906; 5644.468;   -8.763; 9078.557
831.472; 4968.606;  -13.453; 8534.535
832.037; 4039.018;  -12.173; 8677.874
832.602; 3745.612;  -14.093; 8628.692
833.167; 4097.386;  -13.593; 8879.031
833.733; 4676.886;  -10.793; 9189.790
834.298; 5042.955;  -14.783; 9052.608
834.863; 4706.953;  -11.023; 8895.087
835.428; 4384.763;  -11.113; 8824.266
835.993; 4703.592;   -9.983; 8845.385
836.558; 4954.123;  -13.003; 8888.563
837.123; 4849.569;  -10.733; 8966.582
837.688; 4493.753;   -9.683; 8617.860
838.253; 4259.943;  -12.253; 8590.699
838.817; 4426.070;  -11.643; 8443.797
839.382; 4630.988;  -11.953; 8799.356
839.947; 4606.697;  -11.443; 8810.595
840.511; 4469.676;  -10.843; 8796.394
841.076; 4469.760;  -13.533; 8347.231
841.641; 4579.106;  -11.743; 8224.330
842.205; 4423.713;  -10.013; 8223.349
842.770; 4273.446;  -11.023; 8622.107
843.334; 4272.939;  -14.273; 8410.386
843.898; 4430.931;  -11.323; 8337.465
844.463; 4800.873;  -10.263; 8506.283
845.027; 4981.517;  -10.353; 8280.962
845.591; 4903.909;  -12.163; 8231.141
846.156; 4705.684;  -12.263; 7969.179
846.720; 4684.600;  -11.553; 7768.278
847.284; 4582.131;  -12.393; 7630.957
847.848; 3973.064;  -12.623; 7472.395
848.412; 3427.191;  -11.863; 7437.394
848.976; 3335.545;  -10.203; 7674.592
849.540; 3412.541;  -10.603; 7836.011
850.104; 3521.049;  -12.423; 7913.669
850.668; 3583.044;  -14.613; 7694.508
851.232; 3525.797;  -12.873; 7756.887
851.796; 3562.006;  -14.192; 7926.545
852.359; 3707.905;  -13.652; 7827.844
852.923; 3679.568;  -11.402; 7641.163
853.487; 3550.591;  -12.022; 7342.501
854.050; 3409.737;  -15.202; 7042.820
854.614; 3402.744;  -14.592; 7151.338
855.177; 3351.648;  -12.572; 7105.077
855.741; 3349.417;   -9.932; 6989.675
856.304; 3493.835;  -12.192; 6596.634
856.868; 3525.477;  -13.462; 6356.272
857.431; 3492.429;  -11.542; 6468.571
857.995; 3535.798;  -12.062; 6373.210
858.558; 3322.570;  -11.142; 6324.448
859.121; 3029.447;  -11.742; 6408.327
859.684; 2856.334;  -10.332; 6347.886
860.247; 2830.695;  -11.962; 6321.264
860.810; 2962.204;  -12.332; 6301.903
861.374; 3013.655;  -10.292; 6607.881
861.937; 2944.953;  -12.062; 6408.200
862.500; 3020.927;  -11.702; 6572.639
863.062; 3192.408;  -13.852; 6387.297
863.625; 3292.818;  -12.972; 6190.836
864.188; 3206.283;  -10.292; 5807.254
864.751; 3076.027;  -12.382; 5682.413
865.314; 2896.744;  -13.232; 5547.492
865.876; 2679.617;  -12.772; 5500.150
866.439; 2511.490;  -11.952; 5415.909
867.002; 2485.975;   -9.332; 5501.567
867.564; 2697.188;  -11.712; 5413.946
868.127; 2883.895;  -12.012; 5160.325
868.689; 2688.677;  -11.882; 5133.183
869.252; 2374.970;  -11.572; 5252.382
869.814; 2248.543;  -10.692; 5297.141
870.377; 2334.279;  -12.392; 5390.919
870.939; 2458.471;  -10.582; 5599.898
871.501; 2471.436;  -12.782; 5248.336
872.063; 2415.125;  -15.612; 4854.235
872.626; 2404.759;  -13.922; 4817.074
873.188; 2306.503;  -13.832; 4987.732
873.750; 2171.834;  -10.962; 4868.651
874.312; 2208.488;  -11.022; 4779.330
874.874; 2243.970;  -13.152; 4866.348
875.436; 2215.821;  -13.401; 4718.887
875.998; 2172.566;   -8.891; 4660.005
876.560; 2111.403;  -12.591; 4462.964
877.122; 2039.971;  -14.531; 4145.042
877.683; 1950.865;  -10.781; 4056.481
878.245; 1875.398;  -14.281; 3950.740
878.807; 1869.630;  -10.311; 4058.958
879.369; 1805.533;  -13.201; 3954.677
879.930; 1759.367;  -12.061; 3941.495
880.492; 1777.050;   -9.181; 4067.014
881.053; 1812.115;  -12.051; 3859.633
881.615; 1787.153;  -11.501; 3776.071
882.176; 1697.670;  -12.221; 3734.750
882.738; 1571.683;   -8.931; 3678.489
883.299; 1455.006;  -13.571; 3405.407
883.860; 1456.779;  -12.331; 3351.106
884.422; 1409.844;  -10.201; 3394.044
884.983; 1262.988;  -12.521; 3166.443
885.544; 1149.306;  -12.291; 3189.802
886.105; 1118.249;  -12.991; 3160.360
886.666; 1123.888;  -12.901; 3093.059
887.227; 1099.952;  -12.061; 2941.957
887.788; 1051.373;  -11.641; 2974.836
888.349; 1000.630;  -14.691; 2721.214
888.910;  949.095;   -9.681; 2696.493
889.471;  918.039;   -9.971; 2560.172
890.032;  897.541;  -13.151; 2558.190
890.593;  873.083;  -12.051; 2567.669
891.153;  838.310;  -12.841; 2460.307
891.714;  814.759;  -13.561; 2372.046
892.275;  797.424;  -12.401; 2309.505
892.835;  763.126;  -13.191; 2382.543
893.396;  716.746;  -12.551; 2295.502
893.956;  700.253;  -11.981; 2162.420
894.517;  705.106;  -12.221; 2125.439
895.077;  676.909;  -12.021; 2086.978
895.638;  604.877;  -10.891; 2126.316
896.198;  540.570;  -13.171; 1838.275
896.758;  498.794;  -11.891; 1892.813
897.319;  456.222;  -12.491; 1792.232
897.879;  432.244;  -12.401; 1762.751
898.439;  404.757;  -13.431; 1661.149
898.999;  385.491;  -11.340; 1781.468
899.559;  377.640;  -13.930; 1703.347
900.119;  362.387;  -13.730; 1537.525
900.679;  345.455;   -9.210; 1638.384
901.239;  329.369;  -10.860; 1527.902
901.799;  310.564;  -11.450; 1456.441
902.359;  287.927;  -13.800; 1357.140
902.919;  277.637;  -12.130; 1331.118
903.479;  274.767;  -12.650; 1317.257
904.038;  263.502;  -16.110; 1262.595
904.598;  245.826;  -13.690; 1152.034
905.158;  232.441;  -10.290; 1240.893
905.717;  223.894;  -10.670; 1233.691
906.277;  221.545;  -14.040; 1217.330
906.836;  220.449;  -13.510; 1222.408
907.396;  215.242;  -11.530; 1193.047
907.955;  205.054;  -13.190; 1182.526
908.515;  192.996;  -12.950; 1099.364
909.074;  184.899;  -12.390; 1092.863
909.633;  178.930;  -10.340; 1069.121
910.192;  177.252;  -11.170; 1196.460
910.752;  173.664;  -14.200; 1029.960
911.311;  169.622;  -13.810; 1009.780
911.870;  168.191;  -12.750;  971.460
912.429;  166.760;  -12.380; 1094.080
912.988;  164.720;  -11.930; 1081.060
913.547;  160.071;  -10.990;  940.380
914.106;  156.054;  -11.200;  999.420
914.665;  153.895;  -13.150;  984.020
915.224;  151.217;  -13.310; 1035.760
915.782;  149.089;  -13.340;  922.560
916.341;  149.037;  -10.710; 1049.840
916.900;  147.633;  -12.980;  925.260
917.458;  145.263;  -13.060;  884.220
918.017;  144.433;  -10.900;  942.600
918.576;  143.166;  -11.630;  904.440
919.134;  142.920;  -12.860;  837.980
919.693;  142.296;  -15.160;  893.060
920.251;  142.381;  -13.470;  876.500
920.809;  140.902;  -13.700;  839.580
921.368;  141.586;  -13.420;  885.360
921.926;  142.487;  -14.710;  842.940
922.484;  143.130;  -12.560;  903.360
923.042;  143.266;  -11.930;  880.340
923.601;  144.104;  -10.270;  998.680
924.159;  141.448;  -12.960;  935.560
924.717;  138.859;  -13.040;  841.080
925.275;  140.765;  -12.560;  903.240
925.833;  142.127;  -13.040;  779.320
926.391;  144.757;  -13.360;  938.380
926.949;  144.256;  -13.940;  857.680
927.506;  144.769;   -9.400;  903.500
928.064;  144.498;  -10.940;  877.580
928.622;  143.627;  -13.180;  880.100
929.180;  144.461;  -12.730;  814.180
929.737;  144.179;  -12.840;  808.540
930.295;  148.395;  -11.810;  928.480
930.853;  154.116;  -13.650;  849.100
931.410;  157.560;  -13.580;  821.120
931.968;  159.852;  -12.020;  940.660
932.525;  160.056;  -13.320;  909.380
933.082;  159.119;  -13.800;  811.440
933.640;  162.951;  -11.380;  925.900
934.197;  166.021;  -11.480;  886.360
934.754;  168.803;  -13.220;  897.780
935.312;  166.719;  -14.950;  863.340
935.869;  164.338;  -10.940; 1012.980
936.426;  159.307;  -12.100;  872.800
936.983;  159.616;  -12.930;  889.020
937.540;  160.998;  -14.250;  838.280
938.097;  166.320;  -12.600;  940.120
938.654;  173.335;  -11.260;  898.860
939.211;  176.430;  -13.020;  952.480
939.768;  178.963;  -15.760;  915.420
940.324;  183.072;  -13.920;  904.200
940.881;  180.688;  -11.620;  878.500
941.438;  178.291;   -9.870; 1021.200
941.995;  173.764;  -13.920;  992.560
942.551;  170.973;  -12.830;  875.620
943.108;  171.528;  -11.980;  937.920
943.664;  176.004;  -13.740;  869.340
944.221;  184.004;  -12.670; 1088.140
944.777;  184.085;  -13.250;  869.680
945.334;  179.738;  -13.000;  884.840
945.890;  178.138;  -13.020;  946.480
946.446;  176.276;  -13.880;  947.020
947.003;  177.083;  -12.660;  964.940
947.559;  178.821;   -8.730; 1063.040
948.115;  177.278;  -11.960; 1026.540
948.671;  172.881;  -12.360;  967.300
949.227;  168.818;  -12.700;  859.560
949.783;  165.883;  -13.450;  858.900
950.339;  164.532;  -10.620;  991.000
950.895;  161.028;  -14.770; 1023.840
951.451;  159.095;  -13.650;  925.280
952.007;  161.260;  -11.180;  998.540
952.563;  160.984;  -11.680;  937.780
953.118;  159.975;  -13.280;  904.940
953.674;  161.207;  -12.510;  935.780
954.230;  162.367;  -12.220;  949.640
954.785;  158.308;  -12.190;  936.640
955.341;  154.362;  -12.270;  998.160
955.897;  151.237;  -14.900;  834.660
956.452;  153.620;  -12.520;  953.840
957.008;  153.302;   -9.410; 1083.640
957.563;  148.539;  -11.280; 1009.540
958.118;  145.519;  -13.470;  877.700
958.674;  145.532;  -12.190;  946.780
959.229;  147.946;  -12.760; 1013.980
959.784;  155.208;  -15.710;  832.400
960.339;  165.361;  -12.540; 1001.280
960.894;  168.057;  -11.680;  963.760
961.449;  162.868;  -11.410;  859.960
962.004;  153.332;  -10.430; 1212.840
962.559;  136.014;  -14.040;  860.140
963.114;  120.245;  -14.270;  742.480
963.669;  111.821;  -11.320;  915.500
964.224;  105.667;  -14.620;  874.340
964.779;  104.367;  -14.150;  828.420
965.334;  108.243;  -10.850; 1017.860
965.888;  112.934;  -14.530;  875.360
966.443;  117.532;  -13.520;  972.380
966.998;  116.650;  -13.370;  819.460
967.552;  117.392;   -9.960;  908.380
968.107;  114.549;  -12.360;  868.300
968.661;  115.537;  -12.270;  922.440
969.216;  115.369;  -12.140;  856.280
969.770;  115.933;  -11.860;  917.200
970.324;  116.492;  -12.170;  923.140
970.879;  116.711;  -14.160;  947.180
971.433;  115.254;  -12.940;  952.720
971.987;  112.212;  -10.180;  895.340
972.541;  111.548;  -12.130;  917.100
973.095;  112.114;  -14.980; 1009.460
973.649;  110.921;  -14.480;  809.480
974.203;  112.592;  -13.530;  829.040
974.757;  115.500;  -12.060;  855.220
975.311;  113.430;  -13.240;  872.600
975.865;  111.854;  -12.550;  881.820
976.419;  111.096;  -13.180;  857.400
976.973;  111.237;  -14.100;  849.620
977.526;  110.077;  -13.330;  949.920
978.080;  104.598;  -15.390;  796.780
978.634;  104.248;  -11.670;  921.320
979.187;  101.428;  -10.640;  905.400
979.741;  101.835;  -13.330; 1018.380
980.294;  100.264;  -14.480;  789.160
980.848;   99.322;  -13.420;  717.220
981.401;   98.810;  -12.360;  816.540
981.955;   94.555;  -12.480;  844.300
982.508;   90.276;  -14.000;  746.340
983.061;   90.091;  -10.440;  915.260
983.615;   86.904;  -14.340;  798.800
984.168;   85.119;  -14.950;  770.080
984.721;   85.142;  -13.270;  880.760
985.274;   83.409;  -12.240;  867.500
985.827;   81.086;  -12.720;  834.220
986.380;   77.369;  -14.920;  721.340
986.933;   77.379;  -12.860;  864.800
987.486;   76.292;  -10.440;  861.920
988.039;   75.373;  -11.820;  863.100
988.591;   73.677;  -13.760;  893.260
989.144;   71.338;  -14.080;  737.260
989.697;   71.840;  -13.440;  758.740
990.250;   73.321;  -12.050;  858.100
990.802;   71.076;  -14.550;  755.860
991.355;   71.862;  -10.770;  974.880
991.907;   70.137;  -11.710;  864.320
992.460;   68.413;  -12.650;  753.760
993.012;   68.015;  -13.860;  749.540
993.565;   65.408;  -14.310;  711.360
994.117;   65.162;   -9.920;  950.780
994.669;   61.741;  -13.420;  701.320
995.221;   60.590;  -14.200;  791.920
995.774;   59.384;  -13.400;  787.580
996.326;   58.686;  -11.850;  740.220
996.878;   59.014;  -12.230;  838.420
997.430;   56.626;  -14.260;  699.860
997.982;   56.104;  -11.430;  750.140
998.534;   57.324;  -11.590;  739.060
999.086;   55.747;  -11.960;  738.220
999.638;   54.901;  -13.640;  661.380
1000.190;   54.401;  -13.660;  699.320
1000.741;   53.539;   -9.980;  742.700
1001.293;   52.519;  -11.860;  686.020
1001.845;   51.600;  -14.280;  676.640
1002.396;   52.091;  -12.270;  743.400
1002.948;   51.209;  -13.670;  737.400
1003.500;   50.191;  -12.010;  723.780
1004.051;   51.424;  -11.890;  907.580
1004.603;   49.716;  -11.220;  791.820
1005.154;   45.752;  -13.210;  608.980
1005.705;   45.167;  -11.850;  723.960
1006.257;   45.132;  -13.670;  707.220
1006.808;   43.833;  -12.060;  685.460
1007.359;   43.317;  -10.250;  763.240
1007.910;   42.555;  -13.440;  646.640
1008.461;   41.840;  -13.170;  732.940
1009.013;   39.935;  -14.590;  588.340
1009.564;   41.283;  -12.100;  793.520
1010.115;   39.057;  -14.000;  597.040
1010.665;   38.625;  -15.020;  602.160
1011.216;   39.252;  -12.560;  667.920
1011.767;   38.894;  -11.330;  697.920
1012.318;   39.728;  -11.450;  736.980
1012.869;   38.295;  -11.000;  679.000
1013.419;   37.857;  -11.760;  603.120
1013.970;   37.606;  -11.800;  666.640
1014.521;   37.101;  -14.750;  620.620
1015.071;   37.121;  -14.430;  670.380
1015.622;   37.268;  -14.170;  635.460
1016.172;   36.078;  -11.700;  596.820
1016.723;   35.994;  -13.230;  614.380
1017.273;   35.738;  -16.120;  604.160
1017.823;   36.452;  -13.360;  650.340
1018.374;   35.487;  -13.710;  611.760
1018.924;   35.500;  -11.050;  716.880
1019.474;   35.549;  -14.120;  718.880
1020.024;   33.942;  -12.990;  657.580
1020.574;   35.226;  -12.010;  726.160
1021.124;   34.513;  -12.080;  673.580
1021.674;   32.969;  -15.860;  559.120
1022.224;   34.536;  -11.710;  708.940
1022.774;   34.161;  -13.030;  668.820
1023.324;   35.032;  -11.000;  753.520
1023.874;   35.162;  -13.270;  875.760
1024.423;   32.934;  -14.570;  613.700
1024.973;   32.152;  -12.620;  610.760
1025.523;   32.152;  -12.630;  620.960
1026.072;   31.765;  -14.110;  606.420
1026.622;   30.885;  -15.390;  675.740
1027.172;   32.921;   -9.090;  715.660
1027.721;   31.233;  -12.250;  601.220
1028.270;   31.778;  -15.590;  663.400
1028.820;   31.010;  -13.840;  638.080
1029.369;   30.353;  -13.170;  612.700
1029.918;   30.913;  -14.080;  649.840
1030.468;   30.164;  -13.860;  564.780
1031.017;   30.861;  -12.970;  634.800
1031.566;   28.618;  -12.320;  608.900
1032.115;   29.650;  -13.140;  694.500
1032.664;   28.853;  -14.560;  596.480
1033.213;   29.743;  -11.620;  735.420
1033.762;   28.680;  -13.190;  635.620
1034.311;   28.279;  -13.460;  677.220
1034.860;   29.335;  -15.770;  691.000
1035.408;   28.530;  -13.100;  722.720
1035.957;   29.063;  -12.880;  719.540
1036.506;   26.906;  -13.640;  530.800
1037.055;   29.927;  -12.420;  844.320
1037.603;   28.371;  -13.740;  664.000
1038.152;   27.042;  -13.840;  534.760
1038.700;   26.850;  -10.770;  585.740
1039.249;   26.802;  -13.520;  681.220
1039.797;   26.889;  -13.060;  633.360
1040.345;   26.714;  -11.760;  705.420
1040.894;   27.024;  -10.790;  625.300
1041.442;   26.383;  -15.420;  632.200
1041.990;   26.162;  -14.550;  559.160
1042.538;   24.627;  -15.620;  536.180
1043.087;   25.893;  -14.940;  570.860
1043.635;   27.186;  -12.100;  670.500
1044.183;   25.223;  -13.200;  586.400
1044.731;   25.359;  -11.630;  576.000
1045.279;   24.928;  -14.200;  674.920
1045.827;   26.929;  -12.510;  892.400
1046.374;   23.851;  -14.960;  515.420
1046.922;   23.535;  -11.850;  590.580
1047.470;   25.451;  -13.770;  691.300
1048.018;   25.107;  -15.380;  647.960
1048.565;   25.540;  -14.010;  708.600
1049.113;   23.476;  -14.620;  557.000
1049.660;   24.111;  -14.940;  629.660
1050.208;   24.361;  -14.540;  675.640
1050.755;   23.250;  -13.710;  606.580
1051.303;   24.474;  -11.880;  686.820
1051.850;   22.846;  -12.160;  635.120
1052.397;   21.393;  -15.110;  473.960
1052.945;   22.195;  -14.770;  617.760
1053.492;   23.701;  -12.320;  741.840
1054.039;   23.853;  -13.290;  720.180
1054.586;   22.654;  -15.210;  557.240
1055.133;   22.995;  -12.920;  693.140
1055.680;   22.777;  -12.610;  646.620
1056.227;   21.267;  -12.620;  542.780
1056.774;   24.187;  -13.010;  794.980
1057.321;   21.371;  -16.180;  523.260
1057.868;   21.727;  -11.230;  651.320
1058.415;   21.145;  -10.890;  651.980
1058.961;   21.892;  -12.530;  678.940
1059.508;   21.767;  -14.120;  643.820
1060.055;   21.115;  -13.340;  581.780
1060.601;   20.954;  -12.920;  624.300
1061.148;   20.904;  -14.430;  616.820
1061.694;   20.009;  -14.140;  592.580
1062.241;   20.530;  -12.550;  596.320
1062.787;   20.631;  -13.370;  663.140
1063.334;   22.038;  -12.260;  808.560
1063.880;   20.308;  -10.800;  668.360
1064.426;   20.524;   -9.920;  706.820
1064.972;   19.244;  -12.970;  601.340
1065.518;   18.400;  -14.440;  566.640
1066.065;   19.757;  -12.680;  624.460
1066.611;   17.910;  -13.520;  598.800
1067.157;   19.085;  -11.100;  641.860
1067.703;   19.305;  -14.100;  668.480
1068.249;   19.398;  -13.750;  605.220
1068.794;   18.215;  -11.070;  626.880
1069.340;   17.163;  -13.210;  578.960
1069.886;   17.857;  -14.850;  590.700
1070.432;   17.563;  -14.580;  541.720
1070.977;   17.388;  -12.930;  601.080
1071.523;   17.221;  -11.970;  573.060
1072.068;   17.879;  -13.730;  582.000
1072.614;   16.931;  -14.550;  527.760
1073.160;   18.120;  -13.690;  687.040
1073.705;   16.689;  -14.780;  572.520
1074.250;   17.119;  -15.430;  559.900
1074.796;   18.308;  -11.620;  655.160
1075.341;   17.932;  -11.580;  664.100
1075.886;   16.709;  -13.190;  594.240
1076.431;   17.388;  -13.630;  649.880
1076.976;   16.737;  -11.670;  639.220
1077.521;   16.279;  -11.600;  583.080
1078.067;   15.216;  -13.920;  579.400
1078.612;   16.803;  -12.910;  661.620
1079.156;   15.676;  -15.340;  601.540
1079.701;   16.639;  -12.560;  693.260
1080.246;   16.815;  -12.490;  696.300
1080.791;   16.259;  -14.550;  625.020
1081.336;   16.565;  -15.210;  659.320
1081.880;   15.394;  -11.280;  649.680
1082.425;   15.161;  -12.830;  573.480
1082.970;   16.896;  -11.680;  717.040
1083.514;   15.017;  -15.500;  597.000
1084.059;   14.697;  -11.770;  586.720
1084.603;   13.936;  -13.480;  565.840
1085.147;   14.532;  -13.940;  645.220
1085.692;   15.555;  -13.170;  716.800
1086.236;   13.469;  -15.740;  503.140
1086.780;   15.315;  -10.750;  751.440
1087.325;   14.640;  -14.900;  654.620
1087.869;   14.423;  -15.160;  610.700
1088.413;   14.821;  -11.030;  705.040
1088.957;   12.956;  -15.210;  543.400
1089.501;   15.187;  -12.310;  766.640
1090.045;   14.101;  -12.790;  726.480
1090.589;   11.909;  -14.040;  569.920
1091.133;   13.110;  -12.800;  673.340
1091.676;   13.304;  -13.600;  591.940
1092.220;   12.809;  -12.960;  600.920
1092.764;   14.016;  -10.830;  706.960
1093.307;   14.007;  -12.390;  673.780
1093.851;   11.412;  -15.850;  556.540
1094.395;   13.261;  -12.980;  683.140
1094.938;   12.274;  -13.670;  632.520
1095.482;   12.494;  -12.740;  559.800
1096.025;   13.641;  -13.340;  710.880
1096.568;   14.091;  -10.500;  779.280
1097.112;   10.376;  -13.500;  508.180
1097.655;   12.733;  -13.060;  603.000
1098.198;   10.672;  -13.240;  600.180
1098.741;   11.508;  -15.490;  612.860
1099.285;   11.730;  -13.410;  657.300
1099.828;    9.701;  -15.640;  439.400
1100.371;   11.429;  -13.980;  608.160
1100.914;   11.995;  -13.990;  682.660
1101.457;   12.031;  -15.030;  679.900
1101.999;    9.883;  -12.480;  584.680
1102.542;   11.316;  -12.410;  641.440
1103.085;   10.334;  -14.730;  658.500
1103.628;   11.748;  -12.190;  762.060
1104.170;   10.721;  -12.360;  588.280
1104.713;   10.583;  -13.350;  646.700
1105.256;   10.302;  -14.930;  557.440
1105.798;    9.066;  -15.150;  499.980
1106.341;   11.472;  -13.230;  728.900
1106.883;    9.558;  -14.680;  521.340
1107.425;    9.429;  -14.810;  668.180
1107.968;   10.207;  -12.940;  612.380
1108.510;   10.740;  -10.550;  684.960
1109.052;    8.445;  -15.640;  612.620
1109.594;    9.281;  -14.440;  554.440
1110.136;   10.366;  -11.380;  643.220
1110.679;    8.389;  -13.090;  633.080
1111.221;    8.888;  -14.230;  604.460
1111.763;    8.468;  -14.260;  559.220
1112.304;    8.722;  -14.510;  547.140
1112.846;    8.738;  -14.700;  666.240
1113.388;   12.337;  -12.270;  942.180
1113.930;    8.813;  -13.340;  694.200
1114.472;    8.364;  -12.560;  606.540
1115.013;    6.820;  -14.280;  551.280
1115.555;    7.544;  -14.010;  587.100
1116.097;    6.916;  -14.730;  579.480
1116.638;    8.440;  -12.160;  684.600
1117.180;    8.119;  -14.320;  667.740
1117.721;    7.344;  -15.730;  568.580
1118.262;    8.738;  -13.480;  677.960
1118.804;    8.757;  -11.530;  637.340
1119.345;    7.008;  -13.540;  578.400
1119.886;    9.118;  -14.470;  704.040
1120.427;    6.535;  -13.030;  589.020
1120.969;    6.415;  -13.150;  597.920
1121.510;    6.271;  -13.940;  563.060
1122.051;    8.143;  -12.310;  723.580
1122.592;    6.519;  -13.870;  655.420
1123.133;    5.734;  -12.890;  547.940
1123.673;    7.655;  -13.300;  706.480
1124.214;    6.250;  -14.000;  612.460
1124.755;    7.189;  -13.210;  639.460
1125.296;    7.068;  -13.450;  627.320
1125.836;    7.812;  -12.610;  691.500
1126.377;    6.235;  -15.840;  599.660
1126.918;    7.362;  -11.830;  614.980
1127.458;    5.092;  -11.830;  622.220
1127.999;    6.927;  -11.490;  656.980
1128.539;    6.839;  -12.900;  694.240
1129.079;    6.340;  -14.910;  632.720
1129.620;    4.829;  -12.920;  558.100
1130.160;    4.737;  -14.640;  539.480
1130.700;    5.169;  -13.270;  640.840
1131.240;    6.719;  -14.110;  643.700
1131.781;    4.379;  -13.130;  619.680
1132.321;    5.025;  -15.220;  599.120
1132.861;    4.538;  -15.670;  564.200
1133.401;    4.620;  -13.970;  593.940
1133.941;    5.161;  -13.740;  626.280
1134.481;    4.861;  -13.200;  597.580
1135.020;    4.324;  -14.830;  609.160
1135.560;    4.759;  -14.590;  674.940
1136.100;    3.158;  -13.730;  501.160
1136.640;    3.608;  -15.240;  510.480
1137.179;    3.720;  -14.710;  537.960
1137.719;    4.081;  -14.090;  605.400
1138.258;    4.355;  -12.470;  587.360
1138.798;    5.061;  -12.580;  663.780
1139.337;    2.667;  -16.480;  482.840
1139.877;    4.643;  -13.970;  642.360
1140.416;    6.094;   -9.870;  878.060
1140.955;    3.533;  -14.860;  535.380
1141.494;    4.081;  -14.530;  669.280
1142.034;    2.871;  -13.940;  583.520
1142.573;    4.050;  -11.160;  646.280
1143.112;    2.867;  -15.050;  553.480
1143.651;    3.423;  -15.390;  536.480
1144.190;    4.357;  -12.990;  691.640
1144.729;    3.378;  -12.220;  607.420
1145.267;    3.314;  -14.020;  584.900
1145.806;    3.673;  -12.740;  637.040
1146.345;    2.438;  -14.810;  635.020
1146.884;    3.201;  -12.920;  622.500
1147.422;    1.639;  -13.930;  533.060
1147.961;    4.224;  -11.830;  708.460
1148.500;    3.335;  -12.710;  669.720
1149.038;    3.290;  -14.420;  632.500
1149.577;    3.272;  -13.920;  698.640
1150.115;    0.330;  -17.050;  452.280
1150.653;    1.698;  -14.890;  607.340
1151.192;    2.327;  -15.270;  552.920
1151.730;    2.439;  -13.160;  652.560
1152.268;    2.146;  -15.430;  589.520
1152.806;    1.917;  -15.880;  571.180
1153.344;    1.293;  -13.240;  577.640
1153.882;    1.998;  -13.010;  600.060
1154.421;    0.584;  -16.180;  470.620
1154.958;    1.503;  -13.880;  595.240
1155.496;    2.633;  -13.590;  645.280
1156.034;    2.102;  -11.910;  721.880
1156.572;    2.632;  -12.010;  667.060
1157.110;    0.490;  -16.250;  473.940
1157.647;    2.937;  -15.230;  676.960
1158.185;    0.939;  -13.770;  564.320
1158.723;    0.622;  -15.300;  509.200
1159.260;    1.573;  -13.130;  701.700
1159.798;    1.727;  -11.300;  658.160
1160.335;    0.705;  -13.210;  631.820

