
Integration time [ms]:   3.276
Averaging Nr. [scans]: 1000
Smoothing Nr. [pixels]: 0
Data measured with spectrometer [name]: 7414430SP
Wave   ;Sample   ;Dark     ;Reference
[nm]   ;[counts] ;[counts] ;[counts] 

288.544;  151.150;    7.793;  793.890
289.143;  154.210;    7.462;  681.602
289.742;  154.822;    8.602;  828.814
290.341;  140.146;    1.321;  789.841
290.940;  128.990;   -0.709;  730.702
291.538;  130.701;    0.881;  881.108
292.137;  129.839;    0.122;  792.581
292.736;  134.471;   -1.929;  975.101
293.335;  131.140;   -8.229;  735.086
293.934;  131.108;   -5.279;  781.677
294.532;  129.690;   -1.369; 1031.958
295.131;  115.154;   -7.641;  834.394
295.730;  116.236;   -8.420;  809.588
296.328;  115.054;   -5.611;  783.442
296.927;  115.241;   -5.781;  779.652
297.525;  116.430;   -6.361;  781.236
298.124;  106.698;  -11.382;  654.009
298.722;  110.908;   -7.641;  761.933
299.321;  108.940;   -6.811;  708.597
299.919;  106.375;   -6.991;  751.918
300.518;  104.196;  -10.362;  689.338
301.116;  105.839;   -9.581;  691.381
301.715;  105.177;   -4.891;  730.222
302.313;  103.518;   -8.801;  704.943
302.911;   99.857;   -8.522;  733.830
303.509;  105.253;   -6.171;  925.627
304.108;  102.808;   -7.311;  760.383
304.706;  101.068;   -8.321;  801.664
305.304;   95.621;  -10.222;  796.707
305.902;  102.713;   -6.021;  784.484
306.500;   97.906;   -4.971;  728.200
307.098;   95.650;   -7.061;  746.560
307.696;   93.255;   -8.801;  780.432
308.294;   94.873;   -6.411;  731.359
308.892;   96.800;   -2.901;  759.769
309.490;   91.686;   -5.041;  712.161
310.088;   90.601;   -5.002;  788.444
310.686;   95.136;   -2.041;  821.749
311.284;   90.314;   -2.351;  766.040
311.882;   88.546;   -4.422;  731.225
312.480;   85.273;   -4.192;  697.167
313.078;   86.561;   -1.172;  808.331
313.675;   87.760;   -2.601;  691.600
314.273;   82.496;   -1.312;  797.837
314.871;   82.096;   -3.942;  589.829
315.468;   80.742;   -2.802;  652.090
316.066;   82.756;   -0.701;  694.427
316.664;   75.827;   -4.362;  656.351
317.261;   78.661;   -2.872;  910.128
317.859;   75.580;   -2.022;  768.735
318.456;   75.081;   -0.531;  830.096
319.054;   71.009;   -3.912;  787.828
319.651;   70.398;   -4.752;  759.928
320.249;   69.563;   -2.602;  810.188
320.846;   68.021;   -0.821;  714.286
321.443;   64.460;   -4.642;  832.135
322.041;   61.337;   -5.002;  812.315
322.638;   58.955;   -3.982;  701.456
323.235;   60.638;   -3.411;  665.683
323.833;   57.213;   -7.361;  740.354
324.430;   53.262;   -8.611;  615.900
325.027;   54.194;   -4.061;  876.855
325.624;   53.306;   -4.031;  644.532
326.221;   50.650;   -7.481;  689.717
326.818;   50.229;   -5.281;  818.332
327.415;   54.054;   -7.460;  748.828
328.012;   53.076;   -5.510;  690.585
328.609;   51.870;   -7.880;  731.389
329.206;   50.143;   -8.331;  778.621
329.803;   49.285;   -5.121;  737.841
330.400;   53.141;   -4.510;  704.260
330.997;   53.585;   -6.441;  817.147
331.594;   53.125;   -8.831;  788.185
332.191;   58.436;   -7.621;  728.722
332.787;   60.710;   -4.591;  844.463
333.384;   59.383;   -7.412;  763.093
333.981;   57.610;   -8.293;  815.687
334.578;   60.094;   -7.052;  708.378
335.174;   64.323;   -3.102;  731.469
335.771;   62.462;   -5.943;  836.456
336.367;   60.540;   -7.393;  710.631
336.964;   63.071;   -4.063;  793.266
337.561;   62.610;   -3.813;  731.112
338.157;   57.059;   -4.654;  911.916
338.754;   55.215;   -7.934;  796.589
339.350;   52.836;   -4.414;  722.493
339.946;   55.112;   -4.664;  773.135
340.543;   46.993;   -6.375;  846.136
341.139;   41.868;   -9.815;  720.836
341.735;   39.994;   -4.526;  772.593
342.332;   37.780;   -4.895;  691.472
342.928;   37.866;   -4.295;  795.394
343.524;   32.489;   -5.476;  761.684
344.120;   28.935;   -5.856;  738.562
344.716;   32.529;   -2.155;  723.717
345.313;   30.201;   -6.275;  795.342
345.909;   24.993;   -8.815;  627.336
346.505;   25.679;   -5.305;  740.247
347.101;   27.295;   -2.674;  827.864
347.697;   27.401;   -4.344;  785.398
348.293;   22.185;   -9.975;  627.244
348.889;   22.901;   -5.774;  745.914
349.485;   22.290;   -5.004;  688.205
350.081;   22.252;   -4.704;  772.592
350.676;   17.021;   -6.635;  691.606
351.272;   21.584;   -4.504;  809.530
351.868;   21.608;   -3.914;  780.497
352.464;   18.895;   -9.044;  723.932
353.059;   15.810;   -8.314;  646.017
353.655;   19.134;   -7.024;  777.063
354.251;   19.681;   -5.343;  759.845
354.846;   13.923;   -8.604;  740.646
355.442;   11.568;   -6.945;  753.071
356.038;   14.274;   -7.564;  751.708
356.633;   13.806;   -5.814;  728.594
357.229;   11.145;   -7.364;  724.757
357.824;    9.799;   -8.024;  703.600
358.420;    9.600;   -9.384;  679.726
359.015;   10.102;   -5.104;  695.357
359.610;   10.998;   -6.854;  763.920
360.206;    4.787;  -10.185;  603.240
360.801;    7.640;   -7.054;  646.503
361.396;    9.357;   -5.034;  725.975
361.992;    4.820;   -8.284;  668.220
362.587;    2.448;   -8.625;  670.160
363.182;    4.117;   -7.674;  689.631
363.777;    5.759;   -5.164;  738.242
364.372;    5.441;   -8.604;  737.314
364.967;    1.060;   -9.055;  680.744
365.563;    5.923;   -6.114;  815.567
366.158;    2.421;   -5.814;  685.161
366.753;    2.532;   -7.854;  649.263
367.348;    2.069;   -7.804;  746.056
367.942;    2.134;   -7.954;  697.298
368.537;    0.301;   -4.984;  754.245
369.132;    0.105;   -8.564;  703.428
369.727;   -3.959;   -8.855;  638.079
370.322;   -1.955;   -6.245;  580.186
370.917;   -2.401;   -6.425;  710.646
371.511;    0.184;   -6.294;  861.834
372.106;   -3.458;   -7.685;  776.964
372.701;   -6.370;   -7.335;  585.988
373.296;   -0.834;   -4.564;  863.135
373.890;   -5.022;  -10.235;  647.840
374.485;   -7.825;   -7.885;  691.199
375.079;   -3.695;   -7.324;  738.685
375.674;   -1.870;   -3.494;  812.970
376.268;   -6.330;   -8.525;  691.759
376.863;  -12.258;  -10.086;  580.327
377.457;   -6.630;   -7.025;  662.490
378.052;   -8.002;   -3.585;  764.884
378.646;   -8.581;   -7.595;  741.167
379.240;   -9.485;   -8.335;  721.176
379.835;   -8.293;   -5.785;  636.978
380.429;  -10.164;   -4.335;  562.557
381.023;  -10.912;   -6.805;  779.205
381.617;  -12.574;   -9.195;  680.106
382.212;   -8.775;   -6.905;  685.303
382.806;   -8.170;   -3.745;  760.690
383.400;  -12.900;   -7.745;  672.281
383.994;  -14.054;   -9.765;  664.870
384.588;   -9.456;   -6.564;  697.701
385.182;   -8.552;   -5.344;  726.624
385.776;   -9.515;   -8.514;  706.875
386.370;  -13.512;   -9.555;  681.968
386.964;  -11.588;   -8.715;  684.155
387.558;  -10.069;   -6.174;  598.360
388.152;  -13.246;   -8.725;  681.959
388.745;  -11.834;   -7.965;  814.707
389.339;  -10.798;   -5.924;  747.642
389.933;   -9.386;   -5.524;  695.370
390.527;  -10.402;   -7.114;  859.029
391.120;  -17.066;  -10.725;  595.318
391.714;  -13.320;   -8.035;  711.633
392.308;  -11.041;   -3.574;  780.253
392.901;  -15.316;   -7.245;  642.460
393.495;  -15.877;   -9.285;  595.414
394.089;  -14.152;   -5.895;  760.452
394.682;  -14.713;   -4.295;  697.188
395.275;  -16.135;   -9.875;  719.927
395.869;  -16.679;   -8.485;  667.314
396.462;  -14.370;   -7.455;  616.609
397.056;  -11.143;   -5.424;  776.621
397.649;  -16.662;   -6.605;  731.575
398.242;  -13.473;   -8.224;  712.645
398.836;  -12.328;   -7.474;  766.408
399.429;  -13.415;   -7.094;  631.041
400.022;  -16.693;   -9.475;  665.902
400.615;  -14.865;   -7.145;  805.609
401.208;  -12.740;   -7.174;  691.451
401.802;  -14.798;   -5.515;  699.329
402.395;  -15.913;   -9.875;  683.502
402.988;  -17.023;   -8.845;  696.627
403.581;  -13.556;   -8.874;  646.878
404.174;  -11.475;   -5.324;  686.568
404.767;  -14.239;   -9.575;  638.583
405.360;  -16.551;  -10.965;  621.445
405.953;  -11.729;   -8.764;  759.034
406.545;  -11.439;   -7.514;  725.342
407.138;  -14.991;  -10.025;  618.350
407.731;  -14.865;  -10.034;  613.303
408.324;   -9.575;   -9.374;  660.554
408.917;  -11.067;   -6.534;  681.864
409.509;  -12.608;   -8.004;  740.396
410.102;  -14.650;   -9.875;  643.948
410.695;   -8.671;   -8.604;  665.758
411.287;   -9.684;   -6.794;  599.821
411.880;  -11.309;   -9.334;  585.421
412.472;  -14.260;  -10.254;  613.092
413.065;  -11.341;   -6.714;  629.408
413.657;   -9.833;   -7.234;  576.678
414.250;   -8.950;  -10.544;  646.681
414.842;  -10.585;   -9.744;  676.353
415.434;   -8.671;   -6.994;  570.463
416.027;   -3.297;   -5.893;  652.196
416.619;   -6.267;   -7.264;  713.400
417.211;   -6.921;  -10.374;  599.352
417.804;   -3.868;   -7.993;  628.499
418.396;   -7.244;   -7.234;  607.643
418.988;   -5.303;   -9.443;  659.238
419.580;   -8.196;  -10.724;  568.276
420.172;   -5.379;  -10.323;  536.196
420.764;   -2.194;   -8.793;  672.482
421.356;   -3.541;  -11.143;  636.898
421.948;   -4.480;   -8.293;  677.661
422.540;    0.868;   -7.893;  680.027
423.132;    0.356;   -7.082;  600.641
423.724;   -3.001;   -8.653;  561.267
424.316;   -1.054;  -10.213;  621.345
424.908;    2.841;   -9.762;  591.517
425.500;    3.006;   -5.572;  647.978
426.092;    2.990;   -8.422;  648.268
426.683;    2.322;   -9.283;  684.836
427.275;    5.079;   -7.852;  641.471
427.867;    7.404;   -5.272;  668.948
428.458;    7.325;   -7.682;  732.344
429.050;    6.228;  -10.612;  680.749
429.642;    8.812;   -9.882;  743.124
430.233;    9.064;   -6.962;  569.356
430.825;   10.038;   -6.842;  724.809
431.416;    7.032;   -9.672;  698.241
432.008;   10.637;   -6.552;  651.723
432.599;   12.247;   -6.891;  656.073
433.190;    8.018;  -10.912;  637.670
433.782;    7.810;  -11.172;  590.395
434.373;   14.888;   -6.061;  884.765
434.964;   13.397;   -8.251;  602.920
435.556;   10.660;   -9.722;  634.537
436.147;   14.678;   -9.082;  758.490
436.738;   14.611;   -8.041;  701.099
437.329;   18.898;   -7.341;  721.723
437.920;   12.611;   -8.162;  666.688
438.511;   11.362;  -11.802;  564.526
439.103;   19.309;  -10.191;  623.998
439.694;   20.442;   -7.601;  681.583
440.285;   21.445;   -8.541;  764.432
440.876;   19.736;   -9.751;  845.738
441.466;   19.430;   -9.401;  575.162
442.057;   24.200;   -7.760;  665.814
442.648;   23.143;   -9.971;  746.255
443.239;   21.605;  -11.001;  620.477
443.830;   26.467;   -7.990;  704.958
444.421;   28.595;   -7.910;  655.474
445.011;   24.465;   -8.131;  693.619
445.602;   24.420;   -7.111;  743.126
446.193;   25.763;  -10.920;  488.117
446.783;   30.701;   -6.500;  640.397
447.374;   25.493;   -8.671;  692.759
447.964;   26.466;  -10.781;  713.770
448.555;   35.245;   -9.650;  822.742
449.145;   31.612;   -8.660;  662.853
449.736;   31.976;   -8.990;  803.179
450.326;   32.251;   -9.500;  713.626
450.917;   37.221;   -8.680;  675.324
451.507;   36.301;   -7.520;  600.661
452.097;   36.930;   -8.590;  746.267
452.688;   38.119;  -11.340;  742.160
453.278;   37.331;  -10.100;  566.840
453.868;   42.123;   -6.019;  793.550
454.458;   39.896;   -9.440;  651.141
455.048;   40.095;  -10.560;  711.783
455.639;   42.241;  -11.799;  567.096
456.229;   46.279;   -6.899;  710.694
456.819;   47.506;   -7.389;  751.158
457.409;   47.497;  -11.119;  773.993
457.999;   50.206;   -9.289;  737.505
458.589;   50.712;   -6.139;  686.606
459.179;   50.141;   -8.729;  717.658
459.769;   47.800;   -9.789;  627.099
460.358;   53.209;  -10.259;  797.262
460.948;   51.933;   -7.299;  689.503
461.538;   54.826;  -10.289;  660.677
462.128;   52.595;  -11.269;  664.934
462.717;   59.759;   -9.368;  710.326
463.307;   62.058;   -7.908;  705.846
463.897;   57.463;   -9.599;  656.942
464.486;   56.480;   -9.769;  837.128
465.076;   61.660;   -8.048;  733.776
465.666;   65.325;   -9.358;  652.900
466.255;   63.192;   -7.919;  785.651
466.845;   61.792;  -11.689;  666.749
467.434;   65.503;   -7.818;  725.873
468.023;   65.860;   -7.678;  658.357
468.613;   63.315;  -10.939;  713.946
469.202;   68.402;  -10.118;  646.507
469.791;   72.423;   -9.108;  737.811
470.381;   74.604;   -6.058;  742.813
470.970;   73.585;  -10.428;  711.099
471.559;   72.818;  -10.268;  733.291
472.148;   75.968;   -8.448;  675.737
472.738;   77.825;   -6.917;  765.466
473.327;   78.737;  -11.978;  637.529
473.916;   78.489;  -11.888;  737.446
474.505;   82.396;   -9.437;  751.703
475.094;   86.204;   -6.747;  806.570
475.683;   84.675;   -9.367;  797.699
476.272;   86.237;  -12.637;  730.632
476.861;   88.837;  -10.027;  706.754
477.449;   95.612;   -8.716;  728.487
478.038;   88.800;   -9.577;  692.513
478.627;   90.517;   -9.718;  714.852
479.216;   97.091;   -8.947;  769.441
479.805;   99.853;   -6.256;  783.375
480.393;   99.839;   -7.937; 1008.945
480.982;   98.690;   -7.717;  874.501
481.571;  105.025;   -9.266;  858.333
482.159;  105.097;   -7.636;  705.386
482.748;  105.547;   -9.667;  821.385
483.336;  110.224;  -10.376;  858.209
483.925;  110.583;   -7.147;  774.373
484.513;  117.362;   -7.996;  758.962
485.102;  112.748;  -10.027;  810.965
485.690;  121.716;  -10.446; 1011.050
486.278;  124.492;   -8.446;  979.329
486.867;  124.707;   -6.356;  809.662
487.455;  126.042;   -9.136;  898.229
488.043;  128.541;  -10.646;  748.361
488.631;  136.347;   -7.456; 1005.079
489.220;  140.776;   -6.636;  908.626
489.808;  140.572;  -11.036;  741.415
490.396;  148.370;  -10.246;  914.645
490.984;  155.097;   -8.556;  830.161
491.572;  164.221;   -5.886;  940.315
492.160;  169.172;   -9.486;  919.081
492.748;  181.426;  -10.976;  884.341
493.336;  203.789;   -8.776; 1019.693
493.924;  229.609;   -5.465;  958.077
494.512;  256.580;   -9.986; 1066.638
495.100;  289.688;  -10.636; 1103.280
495.687;  346.564;  -10.885; 1206.373
496.275;  407.028;   -8.126; 1150.796
496.863;  475.256;  -10.586; 1281.171
497.451;  570.461;  -11.926; 1386.805
498.038;  702.483;  -10.885; 1556.729
498.626;  807.486;   -6.315; 1741.407
499.214;  959.388;   -7.326; 2016.609
499.801; 1150.911;  -11.906; 2220.633
500.389; 1376.134;  -10.466; 2312.494
500.976; 1659.808;   -5.236; 2744.849
501.564; 2077.603;   -8.936; 3148.565
502.151; 2410.417;  -13.176; 3515.999
502.738; 2808.842;  -10.646; 3971.274
503.326; 3214.614;   -9.525; 4403.796
503.913; 3626.500;  -10.856; 5161.749
504.500; 4002.322;  -11.586; 5986.420
505.088; 4383.829;  -10.336; 6381.201
505.675; 4892.509;   -6.355; 6925.547
506.262; 5552.042;   -9.046; 7619.060
506.849; 6288.472;  -10.416; 8733.969
507.436; 6820.280;  -10.305; 9790.121
508.023; 7358.602;   -5.496; 9985.472
508.610; 7566.354;   -7.856;10434.618
509.197; 8175.068;  -10.097;11198.435
509.784; 9428.713;  -10.886;12391.194
510.371;10643.539;   -9.315;13603.713
510.958;11487.668;   -9.936;14426.586
511.545;12186.774;   -9.326;15243.775
512.132;12880.628;  -10.075;15945.876
512.719;13322.807;   -7.796;16340.369
513.305;14474.521;  -10.606;18011.766
513.892;15217.850;  -11.486;19754.971
514.479;16406.889;   -9.126;20967.805
515.066;17898.014;   -6.026;22299.793
515.652;19514.422;   -8.466;22908.660
516.239;20671.998;  -10.886;23798.875
516.825;21302.885;  -11.496;25567.275
517.412;22323.250;   -5.796;28154.959
517.998;23129.502;  -10.506;28344.111
518.585;23114.408;  -10.076;27134.219
519.171;23662.508;   -8.315;27268.576
519.758;25561.387;   -8.596;28964.129
520.344;27592.137;   -8.466;30664.494
520.930;27339.281;  -11.006;32550.605
521.516;28224.438;  -10.495;35422.895
522.103;30073.049;   -5.526;38280.004
522.689;30481.455;   -8.746;37835.117
523.275;30082.279;  -11.376;37288.613
523.861;32077.064;  -11.156;37281.395
524.447;34011.727;   -8.135;37846.949
525.033;33874.125;   -7.896;38321.949
525.619;34192.531;  -12.476;38579.285
526.205;35378.391;   -9.516;40622.875
526.791;37974.930;   -6.926;42258.836
527.377;37862.277;   -8.346;42966.902
527.963;38630.000;   -8.717;42018.949
528.549;38204.883;  -11.016;42476.828
529.135;37042.637;   -8.536;41854.852
529.721;35819.230;   -9.666;41237.711
530.306;35117.449;  -10.066;41259.445
530.892;35011.180;  -11.356;41506.047
531.478;35870.285;   -6.596;43559.613
532.063;39133.043;   -8.836;47695.563
532.649;40706.840;  -10.047;50808.324
533.235;41315.855;   -9.746;51787.500
533.820;41446.730;   -6.566;52145.035
534.406;42751.531;  -10.817;51133.488
534.991;42551.031;   -9.416;49996.805
535.576;40861.695;   -9.036;48882.852
536.162;41695.785;   -6.156;46942.285
536.747;42918.828;  -11.607;45711.746
537.333;45367.707;  -11.787;48510.180
537.918;48175.121;  -12.437;50439.891
538.503;47977.539;   -7.196;50863.711
539.088;44559.598;  -10.556;50906.922
539.673;44410.855;   -8.767;52621.965
540.259;45419.551;  -10.026;52368.094
540.844;42991.492;   -7.416;50879.109
541.429;44652.668;   -9.467;52077.777
542.014;46572.328;   -9.527;52716.695
542.599;45573.203;   -9.946;52363.281
543.184;42562.414;   -7.927;53187.137
543.769;43266.625;   -9.297;54697.605
544.354;43761.961;  -10.127;53913.914
544.938;42705.848;   -9.267;49680.164
545.523;44443.977;   -6.506;47386.277
546.108;47316.691;   -9.787;49151.949
546.693;48840.227;  -11.587;51384.637
547.278;49016.984;  -10.986;51853.254
547.862;46350.809;   -8.206;51173.750
548.447;42051.328;  -10.067;51691.395
549.031;41201.355;   -9.637;52456.703
549.616;45624.719;   -9.926;52714.516
550.201;45766.121;   -6.347;52414.598
550.785;46905.762;   -7.917;52355.059
551.370;45976.977;  -10.867;54589.453
551.954;45136.250;   -9.047;58267.348
552.538;46114.238;   -7.827;59062.176
553.123;44862.727;  -10.287;58115.285
553.707;42388.758;  -12.178;56556.285
554.291;43762.254;   -8.717;56201.668
554.876;47001.379;   -7.457;55335.762
555.460;46886.648;  -10.387;54155.703
556.044;46689.578;   -9.618;53721.484
556.628;44923.691;  -11.567;53731.016
557.212;44167.898;   -8.097;54312.531
557.796;43027.102;  -11.077;53797.773
558.380;43131.512;  -11.108;56145.984
558.964;43276.469;   -9.057;57277.930
559.548;44311.961;   -6.977;56459.641
560.132;42528.398;  -11.457;54434.543
560.716;40787.316;  -11.378;54800.617
561.300;41639.770;   -9.577;57606.945
561.884;42905.625;   -7.127;58972.445
562.467;40913.652;   -7.118;57327.570
563.051;39922.980;  -13.358;54962.434
563.635;41507.898;  -10.178;52594.473
564.219;42404.266;   -7.837;50610.410
564.802;43004.613;  -11.398;49551.180
565.386;42399.824;  -12.788;48370.953
565.969;41701.313;   -9.077;48178.871
566.553;40483.684;   -6.207;49957.305
567.136;41360.387;   -8.568;50369.594
567.720;38415.047;  -11.868;49492.004
568.303;36448.633;   -8.268;50616.352
568.887;36335.156;   -8.698;50727.148
569.470;37103.914;   -6.808;51698.379
570.053;36460.535;  -13.188;52122.078
570.637;34057.449;  -12.037;52536.438
571.220;33832.723;   -8.577;51186.098
571.803;34837.418;   -8.498;51032.762
572.386;36641.137;  -10.498;49609.887
572.969;39072.066;   -9.388;48285.926
573.552;37891.824;   -8.338;47624.285
574.135;36602.859;   -8.518;45498.641
574.718;34013.582;  -13.628;41970.434
575.301;33265.082;  -10.893;41447.137
575.884;32516.582;   -8.158;40923.836
576.467;33564.176;  -10.328;45267.723
577.050;34692.438;  -13.058;48175.543
577.633;35776.035;   -9.458;47729.328
578.216;35113.391;   -8.928;47579.793
578.799;34106.113;   -9.358;47820.996
579.381;32758.793;  -11.388;48115.551
579.964;30151.641;  -11.718;47333.766
580.547;31996.170;   -8.588;46668.969
581.129;33402.004;   -8.859;44466.141
581.712;34833.523;  -10.729;44164.922
582.294;35461.945;  -11.118;46477.855
582.877;35308.996;   -5.218;48244.254
583.459;33523.316;   -8.679;47437.895
584.042;31331.391;  -10.709;46943.219
584.624;30840.680;  -11.669;46792.227
585.206;30622.336;   -8.218;46557.250
585.789;30567.680;  -10.569;45793.773
586.371;31860.084;  -11.859;43836.391
586.953;30985.598;  -10.719;42972.492
587.536;29327.631;   -7.198;42487.211
588.118;28833.826;   -8.720;42086.414
588.700;27501.252;  -10.439;43389.930
589.282;29358.457;   -9.198;43646.039
589.864;32294.414;   -9.199;43438.109
590.446;34676.340;  -11.319;43151.926
591.028;34771.063;  -11.159;42781.867
591.610;33280.508;  -11.779;42839.098
592.192;30462.355;   -7.668;42820.402
592.774;29016.561;  -11.949;40724.277
593.356;28163.045;  -12.129;39874.789
593.937;27213.078;  -10.669;39980.648
594.519;29416.270;   -6.509;42069.633
595.101;31345.518;  -10.849;42976.031
595.683;31357.438;  -11.679;44084.441
596.264;32055.820;   -9.049;43478.797
596.846;31861.607;   -8.849;43803.672
597.427;31849.580;   -9.570;42986.934
598.009;32905.859;  -12.620;42832.219
598.591;33416.043;  -10.039;42580.086
599.172;33387.285;  -10.369;43061.805
599.753;33815.680;   -9.140;41691.469
600.335;35078.012;  -11.430;40692.520
600.916;33126.305;   -9.939;39982.422
601.498;30958.230;   -8.479;40318.617
602.079;29457.863;  -10.920;40670.609
602.660;29001.225;  -11.480;41450.898
603.241;30635.926;  -11.699;41137.738
603.823;29251.270;   -9.579;38868.797
604.404;28141.316;  -10.620;38182.785
604.985;29996.764;  -10.450;38078.047
605.566;30389.762;   -9.129;38056.633
606.147;30510.129;   -7.510;37020.418
606.728;31897.041;  -10.660;37883.359
607.309;30324.332;  -11.740;38748.273
607.890;30181.980;   -9.759;38850.230
608.471;29790.490;   -8.250;37457.918
609.051;29209.494;   -9.240;36066.457
609.632;28039.998;  -12.120;35991.074
610.213;28045.814;   -9.110;37402.641
610.794;28924.090;   -8.030;38383.363
611.374;29035.012;   -8.110;40562.387
611.955;29955.316;  -13.560;38533.727
612.536;31290.883;  -11.400;36951.789
613.116;30829.645;   -8.070;37197.891
613.697;31191.109;  -10.830;38411.125
614.277;29321.268;  -11.641;38673.938
614.858;29862.174;  -13.310;37075.863
615.438;29567.756;   -7.460;35092.906
616.019;27657.551;   -7.601;33666.301
616.599;27843.117;  -12.020;34189.023
617.179;29331.307;  -11.780;36952.047
617.760;30349.527;   -8.570;39582.574
618.340;31105.078;  -11.471;38943.977
618.920;31870.088;  -11.170;37594.156
619.500;31885.551;  -11.071;37866.938
620.080;30948.998;   -7.750;37869.043
620.660;31983.547;  -12.711;36868.617
621.241;33822.398;  -10.211;36352.309
621.821;34442.719;  -10.961;35459.520
622.401;33277.504;   -7.720;35207.414
622.980;32068.176;   -8.981;35980.422
623.560;30575.793;   -9.331;37351.328
624.140;29301.373;   -9.850;34388.582
624.720;24768.094;   -7.451;32368.764
625.300;21516.010;   -9.070;32638.629
625.880;24786.262;  -12.601;34599.035
626.459;28751.328;  -11.751;36831.738
627.039;31405.031;   -9.281;38299.098
627.619;31249.176;   -8.801;38289.574
628.198;29772.744;  -12.071;37220.695
628.778;28849.779;   -9.461;37632.563
629.357;29608.695;   -8.491;38003.012
629.937;29881.836;   -9.721;38402.039
630.516;29498.557;   -9.951;37868.801
631.096;29381.021;  -11.731;35760.410
631.675;31204.273;   -8.572;35225.219
632.254;36183.656;  -11.282;35130.289
632.834;35791.133;  -13.322;35794.570
633.413;34306.582;  -10.301;35788.922
633.992;32114.193;   -8.582;34532.863
634.571;32625.918;   -8.352;33590.113
635.151;35225.180;  -11.912;34943.863
635.730;33893.875;  -10.511;35352.523
636.309;30376.816;   -7.731;35366.605
636.888;27662.609;   -9.952;36165.637
637.467;27835.699;  -11.672;37515.902
638.046;29318.023;   -8.901;39288.695
638.625;32320.264;   -7.912;38279.699
639.204;32267.824;  -10.022;37741.598
639.782;31218.105;  -12.252;38364.551
640.361;27601.533;  -10.041;36740.621
640.940;25068.537;  -11.161;34950.082
641.519;25869.213;   -9.701;34137.398
642.097;28686.350;  -11.271;35654.258
642.676;31249.711;   -8.651;35637.957
643.255;32590.398;   -8.711;36567.074
643.833;31830.467;   -9.581;37809.434
644.412;31628.230;  -13.711;37337.293
644.990;30534.920;  -11.811;37018.531
645.569;30295.119;   -9.411;36518.469
646.147;30014.447;  -10.291;36186.430
646.726;30286.131;  -12.401;36267.688
647.304;31397.896;  -10.411;36647.625
647.882;32555.242;   -9.651;39286.742
648.461;33996.941;   -9.631;39157.703
649.039;32491.535;  -11.881;35412.883
649.617;31457.273;   -9.661;34744.918
650.195;30686.924;   -9.301;35403.098
650.773;29458.932;  -10.511;35053.797
651.352;27123.707;  -11.521;33756.816
651.930;24796.631;  -12.211;31868.773
652.508;23289.143;   -9.171;33121.551
653.086;27129.154;   -9.371;33564.793
653.663;30259.654;  -13.161;34054.668
654.241;28878.967;  -13.031;35693.309
654.819;30160.000;   -9.371;36422.906
655.397;30014.436;  -10.511;38213.484
655.975;29364.025;  -10.371;39507.625
656.553;29090.170;  -10.051;39498.223
657.130;27913.520;  -10.061;40395.480
657.708;27347.926;   -9.561;39242.020
658.286;27403.586;  -11.511;38920.020
658.863;28632.541;  -10.261;40202.898
659.441;31999.797;   -7.531;39677.938
660.018;32124.125;   -9.501;40413.355
660.596;30695.533;  -13.301;39931.414
661.173;32051.051;  -11.211;39604.531
661.750;32444.170;   -9.951;39700.070
662.328;31485.699;   -9.390;39292.809
662.905;30628.980;  -11.330;38235.648
663.482;26434.113;   -9.050;36212.305
664.060;24386.123;   -8.240;35944.945
664.637;27271.355;  -10.050;35170.785
665.214;28656.209;  -11.760;34197.523
665.791;30473.373;  -10.530;34549.520
666.368;29907.930;   -9.690;35118.578
666.945;30068.650;   -9.320;36019.418
667.522;31392.914;  -11.860;36048.438
668.099;31189.588;  -10.770;36243.914
668.676;29792.709;   -6.260;35958.875
669.253;28438.498;   -7.000;37384.730
669.830;28676.338;  -10.190;36779.629
670.407;28722.221;   -9.550;35231.289
670.984;28519.242;   -9.260;35544.270
671.560;29251.236;   -9.280;35466.867
672.137;28762.512;  -11.810;34280.863
672.714;29965.471;  -11.490;34632.863
673.290;31401.375;   -7.740;35135.422
673.867;31353.713;  -10.660;36114.480
674.443;31327.789;  -12.230;36152.859
675.020;29233.518;  -10.450;35327.238
675.596;30035.832;   -9.260;35795.176
676.173;30664.424;  -10.780;35430.355
676.749;30109.395;  -13.690;33549.516
677.326;29774.879;  -11.980;32210.012
677.902;29578.766;   -8.630;32068.871
678.478;28948.832;  -10.730;32583.891
679.054;28062.965;  -10.520;32088.928
679.631;28574.572;  -11.920;30978.848
680.207;30109.648;   -7.490;33160.887
680.783;31554.383;   -9.860;35570.363
681.359;30686.152;  -13.380;36125.184
681.935;30475.141;  -12.480;35240.922
682.511;30502.645;   -7.900;34429.961
683.087;30816.111;   -7.710;34463.680
683.663;30051.049;  -11.480;34648.898
684.239;28740.650;  -14.090;34546.457
684.815;27994.846;   -7.560;35586.375
685.390;27862.068;   -9.910;35821.895
685.966;28335.715;  -11.159;35085.871
686.542;30705.531;  -11.169;34198.230
687.118;33343.500;   -5.959;32847.707
687.693;34085.395;  -10.329;32794.027
688.269;33774.391;  -12.059;33072.367
688.844;31895.863;  -10.909;33141.664
689.420;29948.053;   -8.019;33965.742
689.995;28319.900;   -8.399;34655.523
690.571;26909.953;  -10.949;33576.742
691.146;26693.914;   -9.619;32657.219
691.722;26550.107;   -8.999;32526.979
692.297;26157.461;  -11.589;33014.617
692.872;27280.027;  -11.739;34012.254
693.448;27225.107;  -11.059;34237.434
694.023;26250.529;  -10.139;34142.672
694.598;28072.834;   -9.029;34132.031
695.173;28910.682;  -13.319;34205.250
695.748;27989.096;  -10.169;32882.488
696.323;27908.100;   -8.339;32864.906
696.898;27977.605;   -8.169;33170.004
697.473;28190.330;  -12.309;32432.984
698.048;27526.674;  -10.989;31649.303
698.623;27100.986;   -9.329;30778.141
699.198;28446.645;   -9.849;31140.119
699.773;30067.658;  -12.329;31764.299
700.348;29025.279;  -10.389;31780.816
700.922;29022.346;   -9.269;32046.375
701.497;30144.900;   -9.329;32603.574
702.072;30346.436;  -10.789;34799.871
702.646;28844.748;  -10.839;35793.172
703.221;26613.553;   -9.099;35201.590
703.795;28551.010;  -10.939;34764.527
704.370;29125.736;  -12.859;34307.367
704.944;29227.082;  -11.559;33509.887
705.519;29815.736;   -7.939;31388.584
706.093;30950.375;  -10.499;31340.104
706.668;31392.945;  -11.289;32630.281
707.242;30345.336;  -11.509;32728.779
707.816;29163.813;   -9.639;32947.238
708.390;27628.451;  -11.429;33277.855
708.965;27843.934;  -11.869;33834.336
709.539;27630.645;  -11.689;33709.273
710.113;27747.613;  -10.478;33044.313
710.687;27501.650;  -10.228;31953.992
711.261;26081.549;  -13.698;30505.949
711.835;25937.051;  -13.378;30262.369
712.409;26217.523;   -9.698;31254.447
712.983;28214.975;  -11.898;32754.986
713.557;29583.098;  -15.138;34018.824
714.131;29544.326;  -14.098;34579.625
714.704;28564.320;   -9.958;33890.262
715.278;26050.813;  -10.028;33531.102
715.852;24736.895;  -11.148;33601.660
716.425;25714.621;   -9.068;33515.117
716.999;26860.336;  -10.038;33185.555
717.573;27740.047;   -9.798;33905.996
718.146;28636.760;  -12.378;35199.293
718.720;28878.639;  -11.918;35060.551
719.293;28788.027;   -8.088;34973.230
719.867;31604.016;  -10.888;36394.449
720.440;31484.004;  -11.938;36663.008
721.013;29778.318;  -12.818;35102.426
721.587;28232.064;  -10.298;33985.266
722.160;26832.939;  -10.048;33524.965
722.733;25790.379;  -12.108;32987.043
723.306;26080.932;  -10.818;33066.301
723.880;28258.654;   -8.908;33399.500
724.453;30780.527;   -9.878;33468.297
725.026;30279.748;  -11.188;33816.637
725.599;27347.729;  -11.678;32797.996
726.172;26854.816;   -9.618;33187.434
726.745;27614.699;   -8.258;35136.613
727.318;28833.107;  -12.978;35751.730
727.891;29825.129;  -12.148;35890.430
728.463;29452.035;   -8.968;34822.090
729.036;27923.486;  -10.188;32895.086
729.609;28413.156;  -11.788;31823.225
730.182;25789.094;  -11.788;31445.283
730.754;23612.004;  -10.268;32373.223
731.327;24091.051;   -9.998;33676.820
731.900;24384.705;  -12.228;33417.000
732.472;24932.754;  -13.848;31978.498
733.045;26559.953;   -8.698;30368.777
733.617;26582.771;  -10.607;30574.215
734.190;26939.850;  -11.507;31280.975
734.762;24799.174;  -13.647;31674.412
735.334;22755.293;   -9.767;31247.291
735.907;22956.242;   -9.897;29876.211
736.479;23259.461;  -11.637;29808.488
737.051;23079.709;   -9.567;30233.547
737.623;23651.109;   -8.187;31469.086
738.195;23774.299;  -11.187;31784.225
738.768;25602.859;  -12.337;32120.523
739.340;26801.180;  -12.227;32094.342
739.912;26174.156;  -11.057;31312.680
740.484;24769.090;  -10.207;31946.238
741.056;23005.801;  -10.047;32984.059
741.628;24046.447;  -13.627;33897.715
742.199;26202.332;   -7.177;33213.016
742.771;24914.199;  -10.797;31369.113
743.343;22874.342;  -11.997;31865.473
743.915;22011.633;  -12.867;32388.631
744.487;21961.111;   -7.617;31079.568
745.058;22022.367;   -9.557;30570.107
745.630;22608.922;   -9.877;29970.127
746.201;23998.922;  -14.177;29186.766
746.773;25113.975;   -9.237;28805.723
747.344;24974.652;   -9.847;29591.223
747.916;23012.908;  -11.657;31412.201
748.487;22679.527;  -10.587;32194.898
749.059;23863.795;   -8.707;32533.719
749.630;24657.129;  -10.537;32158.518
750.201;23860.125;  -11.687;30855.395
750.773;22206.203;  -11.647;28622.555
751.344;21774.170;   -7.147;28405.732
751.915;22670.008;   -9.757;28461.551
752.486;23050.895;  -12.427;27842.850
753.057;21072.344;  -12.227;27845.008
753.628;19766.406;  -10.417;27728.107
754.199;20584.961;  -11.767;27381.086
754.770;21565.004;  -11.187;25882.203
755.341;21733.119;  -10.507;25886.184
755.912;22114.348;   -9.387;26050.861
756.483;21886.555;  -10.647;26798.779
757.054;20176.742;  -11.837;27048.238
757.625;18621.854;  -12.716;26294.838
758.195;18191.488;   -9.666;26142.076
758.766;17854.174;   -8.656;26392.234
759.337;18412.879;  -12.856;26334.594
759.907;19716.383;  -13.366;27579.652
760.478;20642.232;   -8.576;28352.770
761.048;20300.225;  -10.526;27325.088
761.619;19335.953;  -11.116;26460.428
762.189;19352.949;  -12.136;26029.826
762.760;20248.715;   -9.456;26430.145
763.330;21472.119;   -7.136;26670.902
763.900;21247.035;  -11.786;26603.021
764.471;18878.820;  -11.546;25542.740
765.041;17380.576;   -8.096;24358.459
765.611;17135.064;   -8.876;23991.297
766.181;17403.027;  -12.196;24470.236
766.751;18703.439;  -11.636;24845.975
767.321;18593.998;  -10.156;24533.633
767.891;16488.771;  -11.766;24916.492
768.461;15734.093;  -14.936;24776.771
769.031;16147.242;  -12.356;24757.988
769.601;17907.084;   -7.526;24181.088
770.171;18205.551;  -10.766;23670.387
770.741;17259.863;  -13.176;22960.045
771.311;17182.279;  -10.616;22917.523
771.880;17862.928;   -9.576;23562.941
772.450;17981.340;  -10.336;24216.500
773.020;17835.535;  -13.516;24140.398
773.589;16776.000;  -13.466;24414.857
774.159;15917.565;   -8.686;23858.717
774.729;15544.912;   -9.476;22942.135
775.298;15307.618;  -13.666;22324.033
775.867;14917.335;  -11.716;21140.313
776.437;15113.078;   -9.906;20838.092
777.006;14922.836;  -12.166;20599.510
777.576;14532.049;  -12.356;20508.809
778.145;14375.604;  -11.646;20732.947
778.714;14450.370;   -8.226;21062.465
779.283;14066.175;   -9.556;20949.664
779.853;13539.666;  -14.116;20508.623
780.422;13935.716;  -11.506;20649.082
780.991;13504.385;   -9.556;21527.520
781.560;12195.462;   -9.095;22632.658
782.129;11954.884;  -12.135;23048.277
782.698;11954.087;  -10.865;23438.555
783.267;11554.601;   -9.335;23267.734
783.836;11456.102;  -11.045;22415.133
784.404;12425.590;  -13.865;20443.152
784.973;13150.007;  -13.095;19699.150
785.542;13202.533;  -11.575;19763.828
786.111;12996.120;   -9.705;20341.408
786.679;12544.272;  -12.105;20207.967
787.248;12245.482;  -12.455;19516.465
787.817;12018.283;  -11.535;18900.363
788.385;11671.383;   -9.765;17879.121
788.954;11137.682;  -14.005;17658.301
789.522;10520.402;  -11.955;17788.879
790.090;10923.174;  -10.135;18118.277
790.659;11573.484;  -10.975;18338.736
791.227;11200.911;  -13.375;18508.615
791.795;11554.750;  -12.375;17898.254
792.364;11906.833;  -10.725;17295.133
792.932;12325.270;   -9.715;16822.051
793.500;12623.029;  -12.675;17040.148
794.068;12872.957;  -13.495;17179.787
794.636;13080.403;  -10.885;16664.246
795.204;12271.356;  -11.045;16524.545
795.772;12164.165;  -13.175;17274.564
796.340;11695.205;  -12.445;17891.002
796.908;11447.251;   -9.735;17648.561
797.476;11371.466;   -9.815;17064.080
798.044;10934.412;  -13.985;16672.777
798.612;10174.300;  -13.115;17023.996
799.180; 9766.933;  -10.185;16561.615
799.747; 9606.567;   -9.055;15962.773
800.315; 9293.177;  -12.385;15296.992
800.883; 9097.793;  -15.035;14801.771
801.450; 9353.835;  -10.365;14534.430
802.018; 9543.497;   -9.855;14173.248
802.585; 9536.716;  -11.905;14029.547
803.153; 9447.839;  -11.585;13836.846
803.720; 9257.045;   -9.095;13567.324
804.287; 8780.457;   -9.135;13360.622
804.855; 8268.754;  -11.604;13681.981
805.422; 8153.456;  -11.794;13536.560
805.989; 8271.514;  -10.734;13355.958
806.556; 8474.729;  -10.444;13747.896
807.124; 8738.089;  -12.764;13987.376
807.691; 8714.588;  -12.964;14038.674
808.258; 8523.818;  -11.134;14120.152
808.825; 8163.208;   -9.854;13860.111
809.392; 8259.956;  -10.504;13268.790
809.959; 7837.032;  -13.054;12680.389
810.526; 7311.516;   -8.294;12427.308
811.093; 7248.965;   -8.394;12030.105
811.659; 7892.050;  -12.304;11653.664
812.226; 8496.241;  -13.944;11637.183
812.793; 8258.001;  -10.484;11611.521
813.360; 7624.454;  -10.144;11885.181
813.926; 7278.658;  -11.684;12770.539
814.493; 7070.757;  -13.644;12677.638
815.060; 6658.974;   -9.724;11974.336
815.626; 6569.964;   -9.854;11594.715
816.193; 6938.054;  -13.254;11579.474
816.759; 6968.278;  -13.204;11666.972
817.325; 6981.798;   -9.434;11325.530
817.892; 7323.604;  -10.134;11105.369
818.458; 7768.423;  -13.474;10843.928
819.024; 7448.226;  -11.854;10714.406
819.591; 7209.049;  -10.244;10469.165
820.157; 7019.777;  -10.704;10235.523
820.723; 6449.970;  -12.324;10847.563
821.289; 6082.071;   -9.444;11040.980
821.855; 6004.763;   -8.374;10357.100
822.421; 5996.529;  -10.234; 9978.918
822.987; 5984.813;  -13.294; 9754.177
823.553; 5605.943;  -10.884;10065.755
824.119; 5401.822;   -8.884;10036.294
824.685; 5587.558;   -6.784;10029.192
825.251; 5749.537;  -12.004;10199.230
825.816; 5695.768;  -11.474; 9820.189
826.382; 5384.865;   -9.174; 9297.248
826.948; 5467.467;   -9.214; 9381.347
827.513; 5858.200;  -10.774; 9450.726
828.079; 5752.406;  -11.924; 9472.444
828.645; 5147.233;  -10.543; 9292.643
829.210; 4913.706;  -10.533; 9065.341
829.776; 4861.852;  -10.753; 9132.620
830.341; 4758.401;  -10.173; 9092.878
830.906; 4916.369;  -10.743; 9078.557
831.472; 5279.274;  -11.113; 8534.535
832.037; 5140.292;  -10.603; 8677.874
832.602; 4652.382;  -13.323; 8628.692
833.167; 4393.877;  -10.823; 8879.031
833.733; 4337.967;  -10.113; 9189.790
834.298; 4472.174;  -13.583; 9052.608
834.863; 4608.714;  -12.703; 8895.087
835.428; 4626.461;  -10.523; 8824.266
835.993; 4457.350;   -6.963; 8845.385
836.558; 4217.419;  -10.763; 8888.563
837.123; 4241.545;   -9.903; 8966.582
837.688; 4490.054;   -9.913; 8617.860
838.253; 4777.873;  -10.283; 8590.699
838.817; 4994.907;  -12.963; 8443.797
839.382; 4958.220;  -14.243; 8799.356
839.947; 4667.164;  -10.733; 8810.595
840.511; 4379.513;   -9.383; 8796.394
841.076; 3994.392;  -12.563; 8347.231
841.641; 4018.648;  -12.953; 8224.330
842.205; 4110.660;   -7.043; 8223.349
842.770; 4114.176;   -8.163; 8622.107
843.334; 4237.581;  -12.503; 8410.386
843.898; 4189.984;  -11.693; 8337.465
844.463; 4174.682;  -10.203; 8506.283
845.027; 3972.739;   -9.533; 8280.962
845.591; 3781.225;  -13.443; 8231.141
846.156; 3800.952;  -13.143; 7969.179
846.720; 3739.818;   -9.433; 7768.278
847.284; 3633.329;  -11.033; 7630.957
847.848; 3484.975;  -10.403; 7472.395
848.412; 3399.021;  -11.553; 7437.394
848.976; 3452.655;   -8.393; 7674.592
849.540; 3367.565;   -8.713; 7836.011
850.104; 3389.382;  -12.463; 7913.669
850.668; 3747.260;  -12.973; 7694.508
851.232; 3941.569;  -10.793; 7756.887
851.796; 3819.956;  -10.662; 7926.545
852.359; 3506.208;  -13.082; 7827.844
852.923; 3319.908;  -12.192; 7641.163
853.487; 3177.100;  -11.912; 7342.501
854.050; 3173.383;  -10.892; 7042.820
854.614; 3328.599;  -13.992; 7151.338
855.177; 3441.500;  -11.732; 7105.077
855.741; 3480.505;   -8.962; 6989.675
856.304; 3360.550;   -9.442; 6596.634
856.868; 3335.173;  -14.192; 6356.272
857.431; 3446.544;  -12.702; 6468.571
857.995; 3555.301;   -9.942; 6373.210
858.558; 3574.407;   -9.112; 6324.448
859.121; 3303.260;  -12.932; 6408.327
859.684; 3117.156;  -13.442; 6347.886
860.247; 3223.332;  -10.632; 6321.264
860.810; 3281.968;  -11.272; 6301.903
861.374; 3048.862;   -9.832; 6607.881
861.937; 2775.681;  -11.762; 6408.200
862.500; 2765.012;   -9.722; 6572.639
863.062; 2914.443;  -10.512; 6387.297
863.625; 3063.477;  -11.232; 6190.836
864.188; 3231.740;  -14.112; 5807.254
864.751; 3317.137;  -11.302; 5682.413
865.314; 3239.916;  -10.112; 5547.492
865.876; 2999.768;  -12.182; 5500.150
866.439; 2943.752;  -10.722; 5415.909
867.002; 2902.234;   -9.252; 5501.567
867.564; 2718.088;   -9.572; 5413.946
868.127; 2516.375;  -13.142; 5160.325
868.689; 2397.643;  -12.902; 5133.183
869.252; 2294.259;   -9.732; 5252.382
869.814; 2189.862;   -9.432; 5297.141
870.377; 2179.039;  -11.552; 5390.919
870.939; 2239.314;   -9.052; 5599.898
871.501; 2321.091;  -10.982; 5248.336
872.063; 2346.564;  -12.292; 4854.235
872.626; 2281.912;  -14.912; 4817.074
873.188; 2259.225;  -13.112; 4987.732
873.750; 2226.864;  -13.442; 4868.651
874.312; 2133.770;   -9.402; 4779.330
874.874; 2051.987;  -11.062; 4866.348
875.436; 1971.677;  -13.931; 4718.887
875.998; 1964.460;   -9.561; 4660.005
876.560; 1993.332;  -11.321; 4462.964
877.122; 1937.403;  -12.221; 4145.042
877.683; 1825.760;  -12.191; 4056.481
878.245; 1743.052;  -12.101; 3950.740
878.807; 1778.981;   -8.971; 4058.958
879.369; 1805.827;  -12.071; 3954.677
879.930; 1719.011;  -14.621; 3941.495
880.492; 1652.206;  -10.311; 4067.014
881.053; 1622.679;  -10.901; 3859.633
881.615; 1523.593;  -14.411; 3776.071
882.176; 1427.720;  -13.761; 3734.750
882.738; 1373.699;   -9.181; 3678.489
883.299; 1349.685;  -11.791; 3405.407
883.860; 1329.845;  -13.121; 3351.106
884.422; 1312.908;  -11.211; 3394.044
884.983; 1277.663;  -10.091; 3166.443
885.544; 1214.257;   -8.461; 3189.802
886.105; 1139.973;  -12.361; 3160.360
886.666; 1070.994;  -14.141; 3093.059
887.227; 1008.943;  -11.361; 2941.957
887.788;  942.818;  -11.401; 2974.836
888.349;  874.778;  -13.791; 2721.214
888.910;  862.387;  -13.191; 2696.493
889.471;  861.791;   -9.881; 2560.172
890.032;  844.724;   -9.881; 2558.190
890.593;  816.519;  -10.371; 2567.669
891.153;  789.503;  -13.301; 2460.307
891.714;  743.951;  -11.431; 2372.046
892.275;  709.248;  -11.291; 2309.505
892.835;  679.792;  -11.471; 2382.543
893.396;  630.574;  -11.541; 2295.502
893.956;  573.515;  -11.181; 2162.420
894.517;  530.152;  -11.741; 2125.439
895.077;  520.512;  -11.671; 2086.978
895.638;  520.979;  -11.311; 2126.316
896.198;  496.293;   -9.831; 1838.275
896.758;  453.165;   -8.421; 1892.813
897.319;  420.503;  -12.351; 1792.232
897.879;  405.401;  -13.511; 1762.751
898.439;  381.050;  -12.001; 1661.149
898.999;  354.610;  -10.180; 1781.468
899.559;  344.650;  -12.030; 1703.347
900.119;  341.490;  -15.710; 1537.525
900.679;  337.069;   -8.900; 1638.384
901.239;  322.116;   -8.340; 1527.902
901.799;  311.081;  -13.910; 1456.441
902.359;  305.278;  -13.460; 1357.140
902.919;  298.434;  -11.490; 1331.118
903.479;  285.913;  -12.110; 1317.257
904.038;  264.633;  -11.720; 1262.595
904.598;  248.437;  -13.610; 1152.034
905.158;  244.718;  -11.040; 1240.893
905.717;  239.022;  -10.900; 1233.691
906.277;  228.574;  -15.080; 1217.330
906.836;  218.097;  -13.380; 1222.408
907.396;  208.884;  -10.780; 1193.047
907.955;  201.329;   -8.500; 1182.526
908.515;  195.656;  -12.760; 1099.364
909.074;  190.695;  -11.900; 1092.863
909.633;  183.868;   -8.950; 1069.121
910.192;  179.201;   -8.770; 1196.460
910.752;  174.413;  -12.390; 1029.960
911.311;  170.089;  -13.680; 1009.780
911.870;  166.971;  -12.370;  971.460
912.429;  167.626;  -10.900; 1094.080
912.988;  166.532;  -11.690; 1081.060
913.547;  162.332;  -13.240;  940.380
914.106;  158.790;  -11.990;  999.420
914.665;  154.513;   -9.990;  984.020
915.224;  153.236;  -12.880; 1035.760
915.782;  153.734;  -12.350;  922.560
916.341;  153.053;   -9.110; 1049.840
916.900;  149.028;   -9.270;  925.260
917.458;  146.551;  -13.240;  884.220
918.017;  146.298;  -13.550;  942.600
918.576;  145.365;  -12.320;  904.440
919.134;  144.321;  -11.490;  837.980
919.693;  142.068;  -13.670;  893.060
920.251;  140.343;  -15.470;  876.500
920.809;  140.002;  -11.290;  839.580
921.368;  139.721;  -10.210;  885.360
921.926;  138.142;  -12.140;  842.940
922.484;  137.637;  -13.080;  903.360
923.042;  138.106;  -11.720;  880.340
923.601;  139.614;   -7.480;  998.680
924.159;  138.093;  -11.570;  935.560
924.717;  134.724;  -13.840;  841.080
925.275;  135.574;  -10.640;  903.240
925.833;  134.342;  -11.540;  779.320
926.391;  134.481;  -12.960;  938.380
926.949;  133.168;  -14.130;  857.680
927.506;  134.095;  -11.750;  903.500
928.064;  134.249;  -10.250;  877.580
928.622;  133.865;  -13.030;  880.100
929.180;  132.691;  -13.400;  814.180
929.737;  133.690;  -10.700;  808.540
930.295;  137.372;  -10.070;  928.480
930.853;  139.088;  -11.960;  849.100
931.410;  140.411;  -13.120;  821.120
931.968;  139.105;  -10.770;  940.660
932.525;  139.225;  -10.680;  909.380
933.082;  139.792;  -13.130;  811.440
933.640;  140.728;  -13.210;  925.900
934.197;  139.128;  -11.060;  886.360
934.754;  140.050;   -9.580;  897.780
935.312;  142.730;  -14.000;  863.340
935.869;  147.077;  -10.710; 1012.980
936.426;  147.661;   -9.860;  872.800
936.983;  148.707;   -9.710;  889.020
937.540;  149.639;  -13.990;  838.280
938.097;  149.094;  -14.040;  940.120
938.654;  148.630;  -10.310;  898.860
939.211;  151.647;  -10.560;  952.480
939.768;  154.820;  -13.900;  915.420
940.324;  157.867;  -14.760;  904.200
940.881;  160.124;  -10.370;  878.500
941.438;  161.673;   -8.260; 1021.200
941.995;  156.880;  -12.540;  992.560
942.551;  154.758;  -14.670;  875.620
943.108;  154.320;  -10.450;  937.920
943.664;  156.142;  -10.750;  869.340
944.221;  160.002;  -11.550; 1088.140
944.777;  157.826;  -14.770;  869.680
945.334;  157.828;  -12.820;  884.840
945.890;  159.318;  -10.130;  946.480
946.446;  159.372;  -13.470;  947.020
947.003;  161.867;  -12.120;  964.940
947.559;  164.921;   -9.980; 1063.040
948.115;  164.386;   -9.080; 1026.540
948.671;  161.196;  -10.830;  967.300
949.227;  157.652;  -12.440;  859.560
949.783;  155.765;  -12.910;  858.900
950.339;  158.308;  -10.270;  991.000
950.895;  158.650;  -13.630; 1023.840
951.451;  158.207;  -15.100;  925.280
952.007;  157.695;  -11.330;  998.540
952.563;  157.670;  -10.580;  937.780
953.118;  156.608;  -13.440;  904.940
953.674;  155.590;  -12.710;  935.780
954.230;  156.020;  -10.350;  949.640
954.785;  153.631;   -9.190;  936.640
955.341;  150.796;  -11.200;  998.160
955.897;  150.047;  -16.560;  834.660
956.452;  152.683;  -12.570;  953.840
957.008;  152.179;   -7.970; 1083.640
957.563;  148.379;  -11.940; 1009.540
958.118;  143.151;  -13.450;  877.700
958.674;  143.763;  -12.030;  946.780
959.229;  145.534;   -9.410; 1013.980
959.784;  143.682;  -12.000;  832.400
960.339;  143.085;  -14.780; 1001.280
960.894;  139.410;   -9.860;  963.760
961.449;  134.978;   -9.970;  859.960
962.004;  135.268;  -10.900; 1212.840
962.559;  130.123;  -13.150;  860.140
963.114;  127.409;  -13.740;  742.480
963.669;  126.659;   -9.820;  915.500
964.224;  124.440;  -13.890;  874.340
964.779;  124.145;  -12.600;  828.420
965.334;  125.026;  -10.950; 1017.860
965.888;  124.066;  -11.170;  875.360
966.443;  127.409;  -12.540;  972.380
966.998;  127.816;  -15.780;  819.460
967.552;  126.679;   -9.760;  908.380
968.107;  123.092;   -9.060;  868.300
968.661;  124.327;  -11.950;  922.440
969.216;  125.526;  -12.800;  856.280
969.770;  125.333;  -11.210;  917.200
970.324;  123.949;  -11.610;  923.140
970.879;  120.515;  -11.370;  947.180
971.433;  117.248;  -12.540;  952.720
971.987;  112.406;  -11.320;  895.340
972.541;  109.533;  -10.720;  917.100
973.095;  107.933;   -9.680; 1009.460
973.649;  106.629;  -11.440;  809.480
974.203;  105.640;  -11.210;  829.040
974.757;  105.888;  -10.240;  855.220
975.311;  106.410;  -13.720;  872.600
975.865;  103.308;  -13.770;  881.820
976.419;   95.674;  -11.690;  857.400
976.973;   88.515;   -9.510;  849.620
977.526;   82.194;  -12.620;  949.920
978.080;   77.667;  -12.010;  796.780
978.634;   79.347;  -10.170;  921.320
979.187;   80.147;   -9.020;  905.400
979.741;   81.186;   -9.820; 1018.380
980.294;   79.684;  -14.870;  789.160
980.848;   78.386;  -12.380;  717.220
981.401;   81.206;  -10.350;  816.540
981.955;   84.542;  -13.720;  844.300
982.508;   83.671;  -11.490;  746.340
983.061;   85.248;  -10.000;  915.260
983.615;   82.468;  -11.480;  798.800
984.168;   79.716;  -13.220;  770.080
984.721;   79.859;  -13.960;  880.760
985.274;   79.108;  -10.870;  867.500
985.827;   78.862;   -9.790;  834.220
986.380;   76.380;  -13.120;  721.340
986.933;   76.442;  -12.450;  864.800
987.486;   75.982;  -10.210;  861.920
988.039;   75.135;   -8.430;  863.100
988.591;   73.253;  -10.520;  893.260
989.144;   70.632;  -14.860;  737.260
989.697;   70.421;  -13.080;  758.740
990.250;   70.794;  -10.150;  858.100
990.802;   69.211;  -13.430;  755.860
991.355;   70.734;  -12.750;  974.880
991.907;   68.755;  -12.040;  864.320
992.460;   66.776;  -11.330;  753.760
993.012;   66.402;  -13.610;  749.540
993.565;   64.611;  -13.460;  711.360
994.117;   66.697;   -9.360;  950.780
994.669;   62.850;  -11.300;  701.320
995.221;   61.443;  -13.540;  791.920
995.774;   58.131;  -13.430;  787.580
996.326;   56.672;  -12.520;  740.220
996.878;   56.460;  -10.950;  838.420
997.430;   54.273;  -14.300;  699.860
997.982;   53.745;  -13.760;  750.140
998.534;   53.890;  -11.530;  739.060
999.086;   52.693;  -10.310;  738.220
999.638;   51.307;  -12.530;  661.380
1000.190;   51.484;  -11.840;  699.320
1000.741;   51.476;  -10.260;  742.700
1001.293;   50.533;   -8.860;  686.020
1001.845;   49.173;  -13.700;  676.640
1002.396;   49.656;  -12.100;  743.400
1002.948;   48.828;  -12.760;  737.400
1003.500;   47.228;  -10.380;  723.780
1004.051;   48.597;  -11.900;  907.580
1004.603;   46.606;  -12.250;  791.820
1005.154;   43.077;  -13.210;  608.980
1005.705;   42.634;  -10.950;  723.960
1006.257;   41.684;  -13.880;  707.220
1006.808;   40.979;  -12.840;  685.460
1007.359;   40.907;  -10.570;  763.240
1007.910;   39.731;   -9.620;  646.640
1008.461;   38.705;  -13.630;  732.940
1009.013;   38.750;  -17.200;  588.340
1009.564;   39.901;  -10.200;  793.520
1010.115;   37.702;  -12.570;  597.040
1010.665;   36.667;  -15.150;  602.160
1011.216;   37.269;  -14.480;  667.920
1011.767;   36.519;  -11.340;  697.920
1012.318;   37.101;   -9.780;  736.980
1012.869;   35.866;  -12.380;  679.000
1013.419;   35.087;  -15.560;  603.120
1013.970;   35.546;  -11.010;  666.640
1014.521;   35.445;  -11.610;  620.620
1015.071;   34.978;  -13.450;  670.380
1015.622;   34.312;  -13.870;  635.460
1016.172;   34.030;  -11.610;  596.820
1016.723;   33.857;  -12.120;  614.380
1017.273;   33.240;  -13.620;  604.160
1017.823;   33.258;  -14.140;  650.340
1018.374;   33.047;  -12.800;  611.760
1018.924;   33.059;  -12.340;  716.880
1019.474;   33.640;  -11.410;  718.880
1020.024;   31.942;  -14.770;  657.580
1020.574;   32.761;   -9.780;  726.160
1021.124;   32.416;   -8.560;  673.580
1021.674;   31.205;  -15.190;  559.120
1022.224;   32.668;  -13.530;  708.940
1022.774;   32.478;  -13.280;  668.820
1023.324;   32.357;  -10.690;  753.520
1023.874;   32.820;  -10.240;  875.760
1024.423;   31.107;  -12.540;  613.700
1024.973;   29.812;  -10.010;  610.760
1025.523;   29.687;  -10.550;  620.960
1026.072;   28.902;  -13.560;  606.420
1026.622;   29.876;  -15.120;  675.740
1027.172;   30.644;  -11.260;  715.660
1027.721;   28.903;  -11.410;  601.220
1028.270;   29.460;  -13.530;  663.400
1028.820;   29.630;  -13.680;  638.080
1029.369;   28.907;  -13.520;  612.700
1029.918;   30.023;  -10.980;  649.840
1030.468;   28.221;  -13.530;  564.780
1031.017;   28.844;  -13.170;  634.800
1031.566;   28.087;  -12.200;  608.900
1032.115;   28.668;   -9.960;  694.500
1032.664;   27.261;  -13.210;  596.480
1033.213;   27.931;  -12.500;  735.420
1033.762;   27.034;  -11.910;  635.620
1034.311;   27.650;   -9.640;  677.220
1034.860;   27.861;  -13.310;  691.000
1035.408;   27.267;  -11.830;  722.720
1035.957;   27.483;  -12.000;  719.540
1036.506;   24.936;  -11.690;  530.800
1037.055;   27.632;  -10.990;  844.320
1037.603;   26.480;  -15.120;  664.000
1038.152;   25.132;  -12.450;  534.760
1038.700;   25.425;  -10.560;  585.740
1039.249;   25.256;  -11.080;  681.220
1039.797;   25.856;  -12.540;  633.360
1040.345;   25.863;  -11.920;  705.420
1040.894;   25.189;  -11.410;  625.300
1041.442;   24.449;  -14.320;  632.200
1041.990;   23.422;  -16.240;  559.160
1042.538;   24.276;  -11.680;  536.180
1043.087;   24.538;  -10.760;  570.860
1043.635;   24.327;  -11.850;  670.500
1044.183;   23.628;  -15.480;  586.400
1044.731;   23.616;  -11.770;  576.000
1045.279;   23.637;  -13.090;  674.920
1045.827;   24.923;  -12.440;  892.400
1046.374;   22.650;  -13.840;  515.420
1046.922;   21.445;  -13.220;  590.580
1047.470;   24.112;  -10.230;  691.300
1048.018;   22.884;  -14.590;  647.960
1048.565;   23.782;  -12.050;  708.600
1049.113;   21.826;  -11.650;  557.000
1049.660;   22.486;  -10.510;  629.660
1050.208;   22.273;  -13.310;  675.640
1050.755;   21.334;  -15.900;  606.580
1051.303;   22.413;  -11.430;  686.820
1051.850;   21.585;   -8.480;  635.120
1052.397;   20.099;  -15.010;  473.960
1052.945;   20.884;  -13.960;  617.760
1053.492;   21.758;  -13.150;  741.840
1054.039;   22.790;   -9.630;  720.180
1054.586;   20.666;  -13.680;  557.240
1055.133;   21.360;  -14.570;  693.140
1055.680;   21.830;  -13.820;  646.620
1056.227;   20.285;  -11.730;  542.780
1056.774;   21.623;  -12.480;  794.980
1057.321;   19.543;  -13.930;  523.260
1057.868;   19.746;  -11.690;  651.320
1058.415;   20.457;   -9.520;  651.980
1058.961;   20.627;  -13.160;  678.940
1059.508;   19.630;  -12.920;  643.820
1060.055;   19.673;  -11.920;  581.780
1060.601;   20.420;  -11.500;  624.300
1061.148;   18.725;  -14.330;  616.820
1061.694;   18.975;  -16.870;  592.580
1062.241;   18.418;  -10.330;  596.320
1062.787;   19.205;  -10.620;  663.140
1063.334;   20.048;  -10.110;  808.560
1063.880;   18.557;  -13.400;  668.360
1064.426;   19.188;  -10.680;  706.820
1064.972;   18.152;   -9.920;  601.340
1065.518;   17.002;  -10.980;  566.640
1066.065;   18.408;  -14.890;  624.460
1066.611;   17.503;  -12.870;  598.800
1067.157;   18.431;  -12.950;  641.860
1067.703;   16.889;  -13.540;  668.480
1068.249;   18.242;  -13.540;  605.220
1068.794;   17.960;  -12.600;  626.880
1069.340;   16.694;  -10.620;  578.960
1069.886;   16.806;  -12.830;  590.700
1070.432;   15.729;  -14.870;  541.720
1070.977;   16.465;  -11.980;  601.080
1071.523;   16.747;   -8.200;  573.060
1072.068;   16.303;  -12.330;  582.000
1072.614;   16.306;  -16.370;  527.760
1073.160;   16.650;  -11.100;  687.040
1073.705;   15.927;  -10.480;  572.520
1074.250;   15.399;  -14.520;  559.900
1074.796;   16.657;  -11.460;  655.160
1075.341;   16.068;  -11.950;  664.100
1075.886;   15.718;  -11.460;  594.240
1076.431;   15.096;  -13.770;  649.880
1076.976;   15.147;  -12.680;  639.220
1077.521;   14.690;  -13.170;  583.080
1078.067;   14.343;  -10.860;  579.400
1078.612;   15.074;  -13.920;  661.620
1079.156;   15.064;  -13.880;  601.540
1079.701;   15.072;  -13.120;  693.260
1080.246;   15.746;   -9.940;  696.300
1080.791;   14.562;  -14.740;  625.020
1081.336;   14.984;  -13.750;  659.320
1081.880;   14.749;  -13.400;  649.680
1082.425;   14.538;  -12.220;  573.480
1082.970;   15.260;  -11.610;  717.040
1083.514;   13.668;  -13.580;  597.000
1084.059;   13.249;  -12.810;  586.720
1084.603;   13.612;  -12.320;  565.840
1085.147;   13.518;  -13.190;  645.220
1085.692;   14.253;  -12.480;  716.800
1086.236;   13.272;  -13.020;  503.140
1086.780;   14.888;   -9.190;  751.440
1087.325;   13.102;  -12.480;  654.620
1087.869;   12.938;  -12.450;  610.700
1088.413;   14.258;  -12.240;  705.040
1088.957;   12.088;   -9.020;  543.400
1089.501;   13.635;  -10.320;  766.640
1090.045;   13.662;  -12.720;  726.480
1090.589;   11.008;  -13.690;  569.920
1091.133;   12.887;  -10.020;  673.340
1091.676;   12.906;  -12.330;  591.940
1092.220;   11.653;  -14.970;  600.920
1092.764;   12.639;  -12.430;  706.960
1093.307;   12.833;   -9.800;  673.780
1093.851;   11.052;  -14.970;  556.540
1094.395;   12.003;  -15.310;  683.140
1094.938;   10.865;  -10.370;  632.520
1095.482;   10.596;  -11.050;  559.800
1096.025;   12.364;  -11.840;  710.880
1096.568;   11.561;  -12.840;  779.280
1097.112;    9.117;  -14.700;  508.180
1097.655;   11.805;   -8.720;  603.000
1098.198;    9.795;  -13.610;  600.180
1098.741;    9.953;  -13.350;  612.860
1099.285;   11.744;  -11.230;  657.300
1099.828;    8.855;  -11.840;  439.400
1100.371;   10.583;  -10.840;  608.160
1100.914;   10.619;  -14.190;  682.660
1101.457;   10.318;  -11.240;  679.900
1101.999;    9.271;  -11.270;  584.680
1102.542;    9.823;  -11.480;  641.440
1103.085;    9.623;  -11.750;  658.500
1103.628;   10.919;  -11.400;  762.060
1104.170;    9.404;  -10.490;  588.280
1104.713;    9.863;  -10.600;  646.700
1105.256;    9.100;  -14.360;  557.440
1105.798;    7.896;  -13.210;  499.980
1106.341;   10.535;  -10.270;  728.900
1106.883;    8.569;  -12.200;  521.340
1107.425;    9.537;  -13.110;  668.180
1107.968;    9.046;  -12.840;  612.380
1108.510;    9.653;   -6.480;  684.960
1109.052;    7.230;  -13.940;  612.620
1109.594;    7.912;  -13.690;  554.440
1110.136;    9.377;  -11.880;  643.220
1110.679;    8.027;   -9.500;  633.080
1111.221;    8.408;  -14.160;  604.460
1111.763;    7.303;  -13.980;  559.220
1112.304;    7.109;  -13.880;  547.140
1112.846;    8.034;  -12.210;  666.240
1113.388;   10.290;  -11.390;  942.180
1113.930;    8.205;  -14.540;  694.200
1114.472;    6.855;  -12.640;  606.540
1115.013;    6.688;  -11.620;  551.280
1115.555;    6.649;  -13.640;  587.100
1116.097;    6.118;  -15.380;  579.480
1116.638;    7.171;  -12.640;  684.600
1117.180;    7.852;   -9.850;  667.740
1117.721;    6.529;  -13.690;  568.580
1118.262;    7.301;  -12.680;  677.960
1118.804;    7.386;  -12.530;  637.340
1119.345;    6.174;  -11.690;  578.400
1119.886;    6.634;  -13.380;  704.040
1120.427;    5.971;  -14.070;  589.020
1120.969;    5.752;  -13.500;  597.920
1121.510;    5.359;  -11.480;  563.060
1122.051;    6.525;  -12.830;  723.580
1122.592;    5.386;  -14.290;  655.420
1123.133;    4.205;  -12.400;  547.940
1123.673;    6.687;  -10.130;  706.480
1124.214;    5.925;  -12.930;  612.460
1124.755;    6.001;  -14.380;  639.460
1125.296;    5.770;  -14.000;  627.320
1125.836;    6.663;  -10.070;  691.500
1126.377;    4.636;  -12.640;  599.660
1126.918;    5.331;  -12.960;  614.980
1127.458;    5.167;  -13.350;  622.220
1127.999;    5.598;  -10.750;  656.980
1128.539;    5.672;  -12.350;  694.240
1129.079;    4.648;  -14.860;  632.720
1129.620;    4.710;  -13.840;  558.100
1130.160;    4.347;  -12.330;  539.480
1130.700;    4.669;  -14.530;  640.840
1131.240;    5.216;  -12.530;  643.700
1131.781;    4.586;  -14.450;  619.680
1132.321;    4.334;   -9.790;  599.120
1132.861;    3.235;  -14.860;  564.200
1133.401;    2.902;  -14.290;  593.940
1133.941;    3.879;  -11.750;  626.280
1134.481;    4.185;   -9.920;  597.580
1135.020;    3.461;  -12.290;  609.160
1135.560;    3.845;  -11.650;  674.940
1136.100;    3.316;  -16.270;  501.160
1136.640;    3.251;  -10.890;  510.480
1137.179;    3.078;  -14.180;  537.960
1137.719;    3.371;  -16.250;  605.400
1138.258;    3.746;  -14.230;  587.360
1138.798;    3.696;   -9.090;  663.780
1139.337;    1.603;  -15.130;  482.840
1139.877;    3.565;  -13.680;  642.360
1140.416;    5.092;  -11.320;  878.060
1140.955;    2.428;  -10.860;  535.380
1141.494;    2.735;  -12.920;  669.280
1142.034;    2.312;  -13.930;  583.520
1142.573;    3.276;  -11.440;  646.280
1143.112;    2.003;  -12.000;  553.480
1143.651;    1.962;  -13.670;  536.480
1144.190;    3.256;  -12.730;  691.640
1144.729;    2.966;  -14.560;  607.420
1145.267;    2.241;  -11.830;  584.900
1145.806;    3.096;  -12.230;  637.040
1146.345;    1.597;  -14.130;  635.020
1146.884;    1.400;  -11.590;  622.500
1147.422;    1.449;  -12.550;  533.060
1147.961;    2.988;  -11.180;  708.460
1148.500;    2.993;  -11.510;  669.720
1149.038;    3.200;  -11.640;  632.500
1149.577;    2.694;  -10.130;  698.640
1150.115;    0.082;  -13.970;  452.280
1150.653;    1.221;  -14.520;  607.340
1151.192;    1.765;  -12.810;  552.920
1151.730;    2.234;   -9.100;  652.560
1152.268;    1.053;  -12.220;  589.520
1152.806;    1.016;  -14.140;  571.180
1153.344;   -0.375;  -12.350;  577.640
1153.882;    1.071;   -8.980;  600.060
1154.421;   -0.085;  -15.190;  470.620
1154.958;    0.211;  -15.210;  595.240
1155.496;    2.311;  -12.850;  645.280
1156.034;    1.469;   -9.940;  721.880
1156.572;    1.640;  -13.570;  667.060
1157.110;   -0.194;  -14.590;  473.940
1157.647;    1.319;  -13.030;  676.960
1158.185;    0.446;  -12.140;  564.320
1158.723;   -1.052;  -14.390;  509.200
1159.260;    0.434;  -14.090;  701.700
1159.798;    1.562;  -11.920;  658.160
1160.335;    0.650;  -11.110;  631.820

