
Integration time [ms]:   3.276
Averaging Nr. [scans]: 1000
Smoothing Nr. [pixels]: 0
Data measured with spectrometer [name]: 7414430SP
Wave   ;Sample   ;Dark     ;Reference
[nm]   ;[counts] ;[counts] ;[counts] 

288.544;  150.068;    7.793;  793.890
289.143;  154.656;    7.462;  681.602
289.742;  154.456;    8.602;  828.814
290.341;  138.873;    1.321;  789.841
290.940;  128.376;   -0.709;  730.702
291.538;  129.884;    0.881;  881.108
292.137;  130.211;    0.122;  792.581
292.736;  134.671;   -1.929;  975.101
293.335;  130.223;   -8.229;  735.086
293.934;  131.764;   -5.279;  781.677
294.532;  128.926;   -1.369; 1031.958
295.131;  115.210;   -7.641;  834.394
295.730;  115.305;   -8.420;  809.588
296.328;  114.685;   -5.611;  783.442
296.927;  115.425;   -5.781;  779.652
297.525;  117.311;   -6.361;  781.236
298.124;  106.256;  -11.382;  654.009
298.722;  110.800;   -7.641;  761.933
299.321;  108.387;   -6.811;  708.597
299.919;  106.735;   -6.991;  751.918
300.518;  103.234;  -10.362;  689.338
301.116;  104.502;   -9.581;  691.381
301.715;  104.775;   -4.891;  730.222
302.313;  104.142;   -8.801;  704.943
302.911;   99.497;   -8.522;  733.830
303.509;  104.414;   -6.171;  925.627
304.108;  102.422;   -7.311;  760.383
304.706;  101.584;   -8.321;  801.664
305.304;   95.016;  -10.222;  796.707
305.902;  101.149;   -6.021;  784.484
306.500;   97.120;   -4.971;  728.200
307.098;   95.488;   -7.061;  746.560
307.696;   93.415;   -8.801;  780.432
308.294;   94.674;   -6.411;  731.359
308.892;   95.687;   -2.901;  759.769
309.490;   92.445;   -5.041;  712.161
310.088;   90.669;   -5.002;  788.444
310.686;   95.101;   -2.041;  821.749
311.284;   90.532;   -2.351;  766.040
311.882;   88.338;   -4.422;  731.225
312.480;   85.047;   -4.192;  697.167
313.078;   86.376;   -1.172;  808.331
313.675;   87.758;   -2.601;  691.600
314.273;   82.727;   -1.312;  797.837
314.871;   81.431;   -3.942;  589.829
315.468;   79.378;   -2.802;  652.090
316.066;   83.039;   -0.701;  694.427
316.664;   75.622;   -4.362;  656.351
317.261;   79.077;   -2.872;  910.128
317.859;   74.906;   -2.022;  768.735
318.456;   76.209;   -0.531;  830.096
319.054;   71.512;   -3.912;  787.828
319.651;   70.577;   -4.752;  759.928
320.249;   68.255;   -2.602;  810.188
320.846;   67.186;   -0.821;  714.286
321.443;   64.148;   -4.642;  832.135
322.041;   61.794;   -5.002;  812.315
322.638;   59.332;   -3.982;  701.456
323.235;   60.355;   -3.411;  665.683
323.833;   57.707;   -7.361;  740.354
324.430;   52.188;   -8.611;  615.900
325.027;   54.212;   -4.061;  876.855
325.624;   53.958;   -4.031;  644.532
326.221;   50.742;   -7.481;  689.717
326.818;   50.407;   -5.281;  818.332
327.415;   53.532;   -7.460;  748.828
328.012;   53.257;   -5.510;  690.585
328.609;   51.110;   -7.880;  731.389
329.206;   49.884;   -8.331;  778.621
329.803;   48.906;   -5.121;  737.841
330.400;   52.925;   -4.510;  704.260
330.997;   54.394;   -6.441;  817.147
331.594;   52.103;   -8.831;  788.185
332.191;   57.454;   -7.621;  728.722
332.787;   60.765;   -4.591;  844.463
333.384;   59.683;   -7.412;  763.093
333.981;   57.470;   -8.293;  815.687
334.578;   60.496;   -7.052;  708.378
335.174;   63.751;   -3.102;  731.469
335.771;   63.243;   -5.943;  836.456
336.367;   59.521;   -7.393;  710.631
336.964;   62.997;   -4.063;  793.266
337.561;   61.770;   -3.813;  731.112
338.157;   57.549;   -4.654;  911.916
338.754;   55.087;   -7.934;  796.589
339.350;   52.996;   -4.414;  722.493
339.946;   55.354;   -4.664;  773.135
340.543;   46.767;   -6.375;  846.136
341.139;   41.352;   -9.815;  720.836
341.735;   40.041;   -4.526;  772.593
342.332;   37.158;   -4.895;  691.472
342.928;   38.371;   -4.295;  795.394
343.524;   32.160;   -5.476;  761.684
344.120;   29.036;   -5.856;  738.562
344.716;   32.064;   -2.155;  723.717
345.313;   30.125;   -6.275;  795.342
345.909;   24.528;   -8.815;  627.336
346.505;   26.934;   -5.305;  740.247
347.101;   26.837;   -2.674;  827.864
347.697;   27.330;   -4.344;  785.398
348.293;   21.557;   -9.975;  627.244
348.889;   22.904;   -5.774;  745.914
349.485;   22.118;   -5.004;  688.205
350.081;   23.044;   -4.704;  772.592
350.676;   18.016;   -6.635;  691.606
351.272;   23.342;   -4.504;  809.530
351.868;   21.610;   -3.914;  780.497
352.464;   18.877;   -9.044;  723.932
353.059;   15.202;   -8.314;  646.017
353.655;   18.722;   -7.024;  777.063
354.251;   19.692;   -5.343;  759.845
354.846;   14.411;   -8.604;  740.646
355.442;   12.078;   -6.945;  753.071
356.038;   14.145;   -7.564;  751.708
356.633;   14.780;   -5.814;  728.594
357.229;   12.401;   -7.364;  724.757
357.824;   10.550;   -8.024;  703.600
358.420;    9.348;   -9.384;  679.726
359.015;   10.121;   -5.104;  695.357
359.610;   11.198;   -6.854;  763.920
360.206;    4.570;  -10.185;  603.240
360.801;    7.313;   -7.054;  646.503
361.396;   10.702;   -5.034;  725.975
361.992;    5.295;   -8.284;  668.220
362.587;    2.648;   -8.625;  670.160
363.182;    4.355;   -7.674;  689.631
363.777;    6.037;   -5.164;  738.242
364.372;    5.740;   -8.604;  737.314
364.967;    0.899;   -9.055;  680.744
365.563;    5.715;   -6.114;  815.567
366.158;    3.360;   -5.814;  685.161
366.753;    3.386;   -7.854;  649.263
367.348;    1.522;   -7.804;  746.056
367.942;    1.627;   -7.954;  697.298
368.537;    0.842;   -4.984;  754.245
369.132;    1.657;   -8.564;  703.428
369.727;   -3.385;   -8.855;  638.079
370.322;   -2.090;   -6.245;  580.186
370.917;   -1.062;   -6.425;  710.646
371.511;    0.532;   -6.294;  861.834
372.106;   -3.625;   -7.685;  776.964
372.701;   -6.224;   -7.335;  585.988
373.296;   -0.007;   -4.564;  863.135
373.890;   -5.252;  -10.235;  647.840
374.485;   -7.578;   -7.885;  691.199
375.079;   -3.698;   -7.324;  738.685
375.674;   -1.584;   -3.494;  812.970
376.268;   -6.110;   -8.525;  691.759
376.863;  -11.752;  -10.086;  580.327
377.457;   -5.906;   -7.025;  662.490
378.052;   -7.621;   -3.585;  764.884
378.646;   -8.297;   -7.595;  741.167
379.240;   -9.203;   -8.335;  721.176
379.835;   -7.971;   -5.785;  636.978
380.429;   -9.546;   -4.335;  562.557
381.023;  -10.362;   -6.805;  779.205
381.617;  -12.011;   -9.195;  680.106
382.212;   -9.711;   -6.905;  685.303
382.806;   -8.171;   -3.745;  760.690
383.400;  -12.203;   -7.745;  672.281
383.994;  -14.131;   -9.765;  664.870
384.588;   -9.048;   -6.564;  697.701
385.182;   -7.803;   -5.344;  726.624
385.776;   -9.206;   -8.514;  706.875
386.370;  -13.120;   -9.555;  681.968
386.964;  -11.823;   -8.715;  684.155
387.558;   -9.929;   -6.174;  598.360
388.152;  -13.313;   -8.725;  681.959
388.745;  -12.604;   -7.965;  814.707
389.339;  -10.069;   -5.924;  747.642
389.933;   -9.010;   -5.524;  695.370
390.527;  -10.334;   -7.114;  859.029
391.120;  -16.044;  -10.725;  595.318
391.714;  -12.999;   -8.035;  711.633
392.308;  -10.489;   -3.574;  780.253
392.901;  -13.574;   -7.245;  642.460
393.495;  -15.320;   -9.285;  595.414
394.089;  -13.900;   -5.895;  760.452
394.682;  -13.802;   -4.295;  697.188
395.275;  -14.737;   -9.875;  719.927
395.869;  -15.801;   -8.485;  667.314
396.462;  -14.474;   -7.455;  616.609
397.056;  -10.280;   -5.424;  776.621
397.649;  -14.779;   -6.605;  731.575
398.242;  -12.622;   -8.224;  712.645
398.836;  -11.979;   -7.474;  766.408
399.429;  -12.992;   -7.094;  631.041
400.022;  -16.168;   -9.475;  665.902
400.615;  -14.473;   -7.145;  805.609
401.208;  -11.574;   -7.174;  691.451
401.802;  -14.285;   -5.515;  699.329
402.395;  -15.182;   -9.875;  683.502
402.988;  -16.845;   -8.845;  696.627
403.581;  -13.281;   -8.874;  646.878
404.174;  -10.508;   -5.324;  686.568
404.767;  -14.237;   -9.575;  638.583
405.360;  -16.183;  -10.965;  621.445
405.953;  -10.878;   -8.764;  759.034
406.545;  -10.071;   -7.514;  725.342
407.138;  -14.766;  -10.025;  618.350
407.731;  -13.515;  -10.034;  613.303
408.324;   -9.511;   -9.374;  660.554
408.917;  -10.038;   -6.534;  681.864
409.509;  -12.626;   -8.004;  740.396
410.102;  -13.809;   -9.875;  643.948
410.695;   -8.108;   -8.604;  665.758
411.287;   -8.794;   -6.794;  599.821
411.880;  -10.654;   -9.334;  585.421
412.472;  -13.590;  -10.254;  613.092
413.065;  -10.290;   -6.714;  629.408
413.657;   -8.368;   -7.234;  576.678
414.250;   -8.300;  -10.544;  646.681
414.842;  -10.634;   -9.744;  676.353
415.434;   -8.158;   -6.994;  570.463
416.027;   -3.900;   -5.893;  652.196
416.619;   -6.009;   -7.264;  713.400
417.211;   -6.536;  -10.374;  599.352
417.804;   -2.644;   -7.993;  628.499
418.396;   -6.920;   -7.234;  607.643
418.988;   -5.339;   -9.443;  659.238
419.580;   -8.790;  -10.724;  568.276
420.172;   -5.773;  -10.323;  536.196
420.764;   -1.405;   -8.793;  672.482
421.356;   -2.913;  -11.143;  636.898
421.948;   -3.773;   -8.293;  677.661
422.540;    1.486;   -7.893;  680.027
423.132;    0.451;   -7.082;  600.641
423.724;   -2.585;   -8.653;  561.267
424.316;   -1.212;  -10.213;  621.345
424.908;    3.083;   -9.762;  591.517
425.500;    3.519;   -5.572;  647.978
426.092;    3.676;   -8.422;  648.268
426.683;    2.546;   -9.283;  684.836
427.275;    5.419;   -7.852;  641.471
427.867;    7.922;   -5.272;  668.948
428.458;    7.492;   -7.682;  732.344
429.050;    5.920;  -10.612;  680.749
429.642;    8.632;   -9.882;  743.124
430.233;    9.016;   -6.962;  569.356
430.825;   10.238;   -6.842;  724.809
431.416;    7.406;   -9.672;  698.241
432.008;   11.129;   -6.552;  651.723
432.599;   11.827;   -6.891;  656.073
433.190;    9.298;  -10.912;  637.670
433.782;    8.054;  -11.172;  590.395
434.373;   16.235;   -6.061;  884.765
434.964;   14.070;   -8.251;  602.920
435.556;   11.188;   -9.722;  634.537
436.147;   14.474;   -9.082;  758.490
436.738;   14.864;   -8.041;  701.099
437.329;   19.923;   -7.341;  721.723
437.920;   12.623;   -8.162;  666.688
438.511;   13.030;  -11.802;  564.526
439.103;   19.975;  -10.191;  623.998
439.694;   21.530;   -7.601;  681.583
440.285;   21.862;   -8.541;  764.432
440.876;   20.258;   -9.751;  845.738
441.466;   19.456;   -9.401;  575.162
442.057;   24.532;   -7.760;  665.814
442.648;   23.021;   -9.971;  746.255
443.239;   22.125;  -11.001;  620.477
443.830;   27.002;   -7.990;  704.958
444.421;   28.710;   -7.910;  655.474
445.011;   24.727;   -8.131;  693.619
445.602;   25.153;   -7.111;  743.126
446.193;   26.567;  -10.920;  488.117
446.783;   31.476;   -6.500;  640.397
447.374;   25.819;   -8.671;  692.759
447.964;   26.738;  -10.781;  713.770
448.555;   35.449;   -9.650;  822.742
449.145;   32.018;   -8.660;  662.853
449.736;   32.372;   -8.990;  803.179
450.326;   32.698;   -9.500;  713.626
450.917;   37.564;   -8.680;  675.324
451.507;   36.744;   -7.520;  600.661
452.097;   37.052;   -8.590;  746.267
452.688;   37.887;  -11.340;  742.160
453.278;   38.157;  -10.100;  566.840
453.868;   42.691;   -6.019;  793.550
454.458;   40.092;   -9.440;  651.141
455.048;   40.909;  -10.560;  711.783
455.639;   41.951;  -11.799;  567.096
456.229;   45.876;   -6.899;  710.694
456.819;   47.717;   -7.389;  751.158
457.409;   48.135;  -11.119;  773.993
457.999;   50.776;   -9.289;  737.505
458.589;   50.890;   -6.139;  686.606
459.179;   50.758;   -8.729;  717.658
459.769;   48.446;   -9.789;  627.099
460.358;   53.588;  -10.259;  797.262
460.948;   54.184;   -7.299;  689.503
461.538;   55.682;  -10.289;  660.677
462.128;   53.202;  -11.269;  664.934
462.717;   59.354;   -9.368;  710.326
463.307;   63.093;   -7.908;  705.846
463.897;   57.848;   -9.599;  656.942
464.486;   57.858;   -9.769;  837.128
465.076;   61.826;   -8.048;  733.776
465.666;   66.491;   -9.358;  652.900
466.255;   62.941;   -7.919;  785.651
466.845;   61.903;  -11.689;  666.749
467.434;   65.776;   -7.818;  725.873
468.023;   66.064;   -7.678;  658.357
468.613;   64.751;  -10.939;  713.946
469.202;   68.946;  -10.118;  646.507
469.791;   72.804;   -9.108;  737.811
470.381;   74.077;   -6.058;  742.813
470.970;   74.069;  -10.428;  711.099
471.559;   73.996;  -10.268;  733.291
472.148;   76.725;   -8.448;  675.737
472.738;   79.466;   -6.917;  765.466
473.327;   79.167;  -11.978;  637.529
473.916;   78.395;  -11.888;  737.446
474.505;   83.549;   -9.437;  751.703
475.094;   85.971;   -6.747;  806.570
475.683;   86.076;   -9.367;  797.699
476.272;   85.887;  -12.637;  730.632
476.861;   88.644;  -10.027;  706.754
477.449;   96.034;   -8.716;  728.487
478.038;   90.147;   -9.577;  692.513
478.627;   90.868;   -9.718;  714.852
479.216;   97.646;   -8.947;  769.441
479.805;  100.529;   -6.256;  783.375
480.393;  100.871;   -7.937; 1008.945
480.982;   99.713;   -7.717;  874.501
481.571;  105.673;   -9.266;  858.333
482.159;  106.247;   -7.636;  705.386
482.748;  106.063;   -9.667;  821.385
483.336;  111.190;  -10.376;  858.209
483.925;  111.397;   -7.147;  774.373
484.513;  118.528;   -7.996;  758.962
485.102;  115.599;  -10.027;  810.965
485.690;  123.274;  -10.446; 1011.050
486.278;  125.560;   -8.446;  979.329
486.867;  126.932;   -6.356;  809.662
487.455;  127.677;   -9.136;  898.229
488.043;  129.563;  -10.646;  748.361
488.631;  138.333;   -7.456; 1005.079
489.220;  143.685;   -6.636;  908.626
489.808;  142.278;  -11.036;  741.415
490.396;  151.205;  -10.246;  914.645
490.984;  157.819;   -8.556;  830.161
491.572;  168.037;   -5.886;  940.315
492.160;  173.960;   -9.486;  919.081
492.748;  186.859;  -10.976;  884.341
493.336;  211.443;   -8.776; 1019.693
493.924;  239.952;   -5.465;  958.077
494.512;  269.111;   -9.986; 1066.638
495.100;  308.323;  -10.636; 1103.280
495.687;  365.713;  -10.885; 1206.373
496.275;  431.485;   -8.126; 1150.796
496.863;  507.980;  -10.586; 1281.171
497.451;  612.586;  -11.926; 1386.805
498.038;  746.833;  -10.885; 1556.729
498.626;  861.695;   -6.315; 1741.407
499.214; 1026.473;   -7.326; 2016.609
499.801; 1228.260;  -11.906; 2220.633
500.389; 1493.484;  -10.466; 2312.494
500.976; 1809.626;   -5.236; 2744.849
501.564; 2264.576;   -8.936; 3148.565
502.151; 2644.190;  -13.176; 3515.999
502.738; 3110.181;  -10.646; 3971.274
503.326; 3521.406;   -9.525; 4403.796
503.913; 3934.616;  -10.856; 5161.749
504.500; 4317.079;  -11.586; 5986.420
505.088; 4778.517;  -10.336; 6381.201
505.675; 5321.837;   -6.355; 6925.547
506.262; 6057.356;   -9.046; 7619.060
506.849; 6782.563;  -10.416; 8733.969
507.436; 7272.338;  -10.305; 9790.121
508.023; 7867.633;   -5.496; 9985.472
508.610; 8137.231;   -7.856;10434.618
509.197; 8747.205;  -10.097;11198.435
509.784;10096.837;  -10.886;12391.194
510.371;11195.556;   -9.315;13603.713
510.958;11971.646;   -9.936;14426.586
511.545;12695.909;   -9.326;15243.775
512.132;13471.030;  -10.075;15945.876
512.719;13979.234;   -7.796;16340.369
513.305;14911.165;  -10.606;18011.766
513.892;15761.920;  -11.486;19754.971
514.479;17112.064;   -9.126;20967.805
515.066;18581.582;   -6.026;22299.793
515.652;20021.693;   -8.466;22908.660
516.239;21196.271;  -10.886;23798.875
516.825;21960.381;  -11.496;25567.275
517.412;22868.494;   -5.796;28154.959
517.998;23562.701;  -10.506;28344.111
518.585;23693.971;  -10.076;27134.219
519.171;24101.428;   -8.315;27268.576
519.758;25583.234;   -8.596;28964.129
520.344;27393.779;   -8.466;30664.494
520.930;27137.586;  -11.006;32550.605
521.516;28048.146;  -10.495;35422.895
522.103;30205.633;   -5.526;38280.004
522.689;30652.900;   -8.746;37835.117
523.275;30227.260;  -11.376;37288.613
523.861;31542.291;  -11.156;37281.395
524.447;32955.250;   -8.135;37846.949
525.033;32771.680;   -7.896;38321.949
525.619;32693.922;  -12.476;38579.285
526.205;33679.340;   -9.516;40622.875
526.791;35534.621;   -6.926;42258.836
527.377;34531.711;   -8.346;42966.902
527.963;33432.938;   -8.717;42018.949
528.549;30924.105;  -11.016;42476.828
529.135;30842.771;   -8.536;41854.852
529.721;32758.316;   -9.666;41237.711
530.306;33956.773;  -10.066;41259.445
530.892;34502.512;  -11.356;41506.047
531.478;36133.254;   -6.596;43559.613
532.063;39130.680;   -8.836;47695.563
532.649;39823.922;  -10.047;50808.324
533.235;40172.613;   -9.746;51787.500
533.820;40204.215;   -6.566;52145.035
534.406;41389.758;  -10.817;51133.488
534.991;40881.613;   -9.416;49996.805
535.576;39153.977;   -9.036;48882.852
536.162;39263.949;   -6.156;46942.285
536.747;39361.555;  -11.607;45711.746
537.333;40746.195;  -11.787;48510.180
537.918;41040.680;  -12.437;50439.891
538.503;37912.133;   -7.196;50863.711
539.088;34610.223;  -10.556;50906.922
539.673;36867.031;   -8.767;52621.965
540.259;40881.352;  -10.026;52368.094
540.844;41294.242;   -7.416;50879.109
541.429;43880.891;   -9.467;52077.777
542.014;46826.539;   -9.527;52716.695
542.599;45894.375;   -9.946;52363.281
543.184;43310.781;   -7.927;53187.137
543.769;44795.141;   -9.297;54697.605
544.354;44512.965;  -10.127;53913.914
544.938;43282.254;   -9.267;49680.164
545.523;45166.891;   -6.506;47386.277
546.108;48107.727;   -9.787;49151.949
546.693;49988.059;  -11.587;51384.637
547.278;49890.262;  -10.986;51853.254
547.862;47133.621;   -8.206;51173.750
548.447;42542.719;  -10.067;51691.395
549.031;42070.895;   -9.637;52456.703
549.616;46875.605;   -9.926;52714.516
550.201;46132.973;   -6.347;52414.598
550.785;47223.762;   -7.917;52355.059
551.370;46303.457;  -10.867;54589.453
551.954;45877.457;   -9.047;58267.348
552.538;46685.402;   -7.827;59062.176
553.123;44964.730;  -10.287;58115.285
553.707;42600.219;  -12.178;56556.285
554.291;44388.117;   -8.717;56201.668
554.876;47278.500;   -7.457;55335.762
555.460;47324.637;  -10.387;54155.703
556.044;47810.965;   -9.618;53721.484
556.628;46595.414;  -11.567;53731.016
557.212;45550.668;   -8.097;54312.531
557.796;43803.957;  -11.077;53797.773
558.380;43927.066;  -11.108;56145.984
558.964;44622.719;   -9.057;57277.930
559.548;46068.672;   -6.977;56459.641
560.132;44331.832;  -11.457;54434.543
560.716;42614.875;  -11.378;54800.617
561.300;43600.070;   -9.577;57606.945
561.884;44915.754;   -7.127;58972.445
562.467;43042.316;   -7.118;57327.570
563.051;42423.230;  -13.358;54962.434
563.635;43621.730;  -10.178;52594.473
564.219;44022.133;   -7.837;50610.410
564.802;45065.559;  -11.398;49551.180
565.386;44713.242;  -12.788;48370.953
565.969;43719.164;   -9.077;48178.871
566.553;42628.082;   -6.207;49957.305
567.136;43519.125;   -8.568;50369.594
567.720;40293.828;  -11.868;49492.004
568.303;38352.117;   -8.268;50616.352
568.887;38321.168;   -8.698;50727.148
569.470;38641.984;   -6.808;51698.379
570.053;37277.195;  -13.188;52122.078
570.637;35455.570;  -12.037;52536.438
571.220;35522.602;   -8.577;51186.098
571.803;36357.496;   -8.498;51032.762
572.386;38216.055;  -10.498;49609.887
572.969;40635.039;   -9.388;48285.926
573.552;39239.453;   -8.338;47624.285
574.135;37810.348;   -8.518;45498.641
574.718;35616.988;  -13.628;41970.434
575.301;34612.680;  -10.893;41447.137
575.884;33608.367;   -8.158;40923.836
576.467;34803.012;  -10.328;45267.723
577.050;36610.328;  -13.058;48175.543
577.633;37915.262;   -9.458;47729.328
578.216;37251.969;   -8.928;47579.793
578.799;36410.316;   -9.358;47820.996
579.381;35243.793;  -11.388;48115.551
579.964;33207.027;  -11.718;47333.766
580.547;34798.137;   -8.588;46668.969
581.129;36089.785;   -8.859;44466.141
581.712;37242.609;  -10.729;44164.922
582.294;37865.258;  -11.118;46477.855
582.877;37461.098;   -5.218;48244.254
583.459;35353.941;   -8.679;47437.895
584.042;33334.348;  -10.709;46943.219
584.624;33536.863;  -11.669;46792.227
585.206;33297.285;   -8.218;46557.250
585.789;33267.352;  -10.569;45793.773
586.371;36115.445;  -11.859;43836.391
586.953;36918.125;  -10.719;42972.492
587.536;38280.598;   -7.198;42487.211
588.118;38625.488;   -8.720;42086.414
588.700;34547.863;  -10.439;43389.930
589.282;33433.328;   -9.198;43646.039
589.864;34650.871;   -9.199;43438.109
590.446;35863.352;  -11.319;43151.926
591.028;35749.418;  -11.159;42781.867
591.610;34504.602;  -11.779;42839.098
592.192;31652.551;   -7.668;42820.402
592.774;30030.211;  -11.949;40724.277
593.356;28813.012;  -12.129;39874.789
593.937;27893.787;  -10.669;39980.648
594.519;30067.988;   -6.509;42069.633
595.101;32062.008;  -10.849;42976.031
595.683;32256.635;  -11.679;44084.441
596.264;33292.164;   -9.049;43478.797
596.846;32881.277;   -8.849;43803.672
597.427;33043.551;   -9.570;42986.934
598.009;34763.973;  -12.620;42832.219
598.591;35077.371;  -10.039;42580.086
599.172;34300.672;  -10.369;43061.805
599.753;34471.652;   -9.140;41691.469
600.335;36090.684;  -11.430;40692.520
600.916;34191.438;   -9.939;39982.422
601.498;31524.209;   -8.479;40318.617
602.079;30061.400;  -10.920;40670.609
602.660;29812.807;  -11.480;41450.898
603.241;31440.561;  -11.699;41137.738
603.823;30197.350;   -9.579;38868.797
604.404;29293.963;  -10.620;38182.785
604.985;31084.957;  -10.450;38078.047
605.566;31246.330;   -9.129;38056.633
606.147;31488.578;   -7.510;37020.418
606.728;32841.043;  -10.660;37883.359
607.309;31289.373;  -11.740;38748.273
607.890;30885.615;   -9.759;38850.230
608.471;30455.719;   -8.250;37457.918
609.051;29655.275;   -9.240;36066.457
609.632;28514.172;  -12.120;35991.074
610.213;29094.176;   -9.110;37402.641
610.794;29849.732;   -8.030;38383.363
611.374;29606.658;   -8.110;40562.387
611.955;30498.982;  -13.560;38533.727
612.536;31802.115;  -11.400;36951.789
613.116;31392.744;   -8.070;37197.891
613.697;31623.992;  -10.830;38411.125
614.277;29859.020;  -11.641;38673.938
614.858;30814.281;  -13.310;37075.863
615.438;30094.494;   -7.460;35092.906
616.019;27504.463;   -7.601;33666.301
616.599;28011.434;  -12.020;34189.023
617.179;29987.012;  -11.780;36952.047
617.760;31139.830;   -8.570;39582.574
618.340;32001.104;  -11.471;38943.977
618.920;33115.059;  -11.170;37594.156
619.500;32972.961;  -11.071;37866.938
620.080;31836.555;   -7.750;37869.043
620.660;32982.719;  -12.711;36868.617
621.241;34341.836;  -10.211;36352.309
621.821;34787.832;  -10.961;35459.520
622.401;33869.582;   -7.720;35207.414
622.980;33118.230;   -8.981;35980.422
623.560;31579.484;   -9.331;37351.328
624.140;30208.213;   -9.850;34388.582
624.720;25251.385;   -7.451;32368.764
625.300;21902.766;   -9.070;32638.629
625.880;25187.553;  -12.601;34599.035
626.459;28968.240;  -11.751;36831.738
627.039;31924.988;   -9.281;38299.098
627.619;31754.299;   -8.801;38289.574
628.198;30333.268;  -12.071;37220.695
628.778;29439.875;   -9.461;37632.563
629.357;29905.678;   -8.491;38003.012
629.937;29845.748;   -9.721;38402.039
630.516;29722.420;   -9.951;37868.801
631.096;29694.193;  -11.731;35760.410
631.675;31811.777;   -8.572;35225.219
632.254;36642.152;  -11.282;35130.289
632.834;36127.793;  -13.322;35794.570
633.413;34378.805;  -10.301;35788.922
633.992;31855.934;   -8.582;34532.863
634.571;32721.172;   -8.352;33590.113
635.151;35759.781;  -11.912;34943.863
635.730;34103.184;  -10.511;35352.523
636.309;30392.426;   -7.731;35366.605
636.888;27690.625;   -9.952;36165.637
637.467;28225.527;  -11.672;37515.902
638.046;29905.102;   -8.901;39288.695
638.625;33166.863;   -7.912;38279.699
639.204;32920.680;  -10.022;37741.598
639.782;31475.896;  -12.252;38364.551
640.361;27917.727;  -10.041;36740.621
640.940;25233.096;  -11.161;34950.082
641.519;26112.385;   -9.701;34137.398
642.097;28763.270;  -11.271;35654.258
642.676;31148.080;   -8.651;35637.957
643.255;32064.121;   -8.711;36567.074
643.833;31487.607;   -9.581;37809.434
644.412;31390.541;  -13.711;37337.293
644.990;30155.473;  -11.811;37018.531
645.569;29900.590;   -9.411;36518.469
646.147;29156.955;  -10.291;36186.430
646.726;29341.100;  -12.401;36267.688
647.304;30614.045;  -10.411;36647.625
647.882;32202.129;   -9.651;39286.742
648.461;33620.199;   -9.631;39157.703
649.039;31980.332;  -11.881;35412.883
649.617;31185.268;   -9.661;34744.918
650.195;30666.273;   -9.301;35403.098
650.773;29303.324;  -10.511;35053.797
651.352;26801.936;  -11.521;33756.816
651.930;24614.764;  -12.211;31868.773
652.508;23323.641;   -9.171;33121.551
653.086;27304.131;   -9.371;33564.793
653.663;30170.035;  -13.161;34054.668
654.241;28850.797;  -13.031;35693.309
654.819;30346.621;   -9.371;36422.906
655.397;30390.316;  -10.511;38213.484
655.975;29882.184;  -10.371;39507.625
656.553;29863.049;  -10.051;39498.223
657.130;28297.301;  -10.061;40395.480
657.708;27439.100;   -9.561;39242.020
658.286;27529.668;  -11.511;38920.020
658.863;28995.873;  -10.261;40202.898
659.441;32291.465;   -7.531;39677.938
660.018;31899.908;   -9.501;40413.355
660.596;30492.643;  -13.301;39931.414
661.173;32036.510;  -11.211;39604.531
661.750;31994.652;   -9.951;39700.070
662.328;30792.664;   -9.390;39292.809
662.905;30267.270;  -11.330;38235.648
663.482;26365.260;   -9.050;36212.305
664.060;24604.910;   -8.240;35944.945
664.637;27297.027;  -10.050;35170.785
665.214;29103.102;  -11.760;34197.523
665.791;30931.092;  -10.530;34549.520
666.368;29634.920;   -9.690;35118.578
666.945;29948.373;   -9.320;36019.418
667.522;31497.213;  -11.860;36048.438
668.099;31167.803;  -10.770;36243.914
668.676;29846.822;   -6.260;35958.875
669.253;28591.945;   -7.000;37384.730
669.830;29359.859;  -10.190;36779.629
670.407;29218.725;   -9.550;35231.289
670.984;28907.033;   -9.260;35544.270
671.560;29485.945;   -9.280;35466.867
672.137;28955.652;  -11.810;34280.863
672.714;29796.371;  -11.490;34632.863
673.290;30333.445;   -7.740;35135.422
673.867;30552.396;  -10.660;36114.480
674.443;30579.574;  -12.230;36152.859
675.020;28714.602;  -10.450;35327.238
675.596;29744.732;   -9.260;35795.176
676.173;30261.906;  -10.780;35430.355
676.749;30068.742;  -13.690;33549.516
677.326;30081.770;  -11.980;32210.012
677.902;30108.855;   -8.630;32068.871
678.478;29502.223;  -10.730;32583.891
679.054;28705.746;  -10.520;32088.928
679.631;28983.301;  -11.920;30978.848
680.207;30568.131;   -7.490;33160.887
680.783;32004.705;   -9.860;35570.363
681.359;31034.246;  -13.380;36125.184
681.935;30513.980;  -12.480;35240.922
682.511;30131.699;   -7.900;34429.961
683.087;30460.100;   -7.710;34463.680
683.663;29892.098;  -11.480;34648.898
684.239;28565.018;  -14.090;34546.457
684.815;28108.777;   -7.560;35586.375
685.390;28463.105;   -9.910;35821.895
685.966;29000.146;  -11.159;35085.871
686.542;31265.602;  -11.169;34198.230
687.118;33695.414;   -5.959;32847.707
687.693;34055.410;  -10.329;32794.027
688.269;33560.719;  -12.059;33072.367
688.844;31540.133;  -10.909;33141.664
689.420;29376.316;   -8.019;33965.742
689.995;27326.078;   -8.399;34655.523
690.571;26005.271;  -10.949;33576.742
691.146;26367.537;   -9.619;32657.219
691.722;25986.344;   -8.999;32526.979
692.297;25587.637;  -11.589;33014.617
692.872;27178.092;  -11.739;34012.254
693.448;26996.701;  -11.059;34237.434
694.023;26222.867;  -10.139;34142.672
694.598;28072.150;   -9.029;34132.031
695.173;28475.922;  -13.319;34205.250
695.748;27622.498;  -10.169;32882.488
696.323;27766.395;   -8.339;32864.906
696.898;28030.951;   -8.169;33170.004
697.473;28226.865;  -12.309;32432.984
698.048;27808.943;  -10.989;31649.303
698.623;27487.967;   -9.329;30778.141
699.198;29221.127;   -9.849;31140.119
699.773;30300.225;  -12.329;31764.299
700.348;28653.807;  -10.389;31780.816
700.922;28777.063;   -9.269;32046.375
701.497;29854.172;   -9.329;32603.574
702.072;30066.867;  -10.789;34799.871
702.646;28544.299;  -10.839;35793.172
703.221;26321.227;   -9.099;35201.590
703.795;28328.352;  -10.939;34764.527
704.370;28756.871;  -12.859;34307.367
704.944;29302.260;  -11.559;33509.887
705.519;30194.246;   -7.939;31388.584
706.093;31465.068;  -10.499;31340.104
706.668;31888.336;  -11.289;32630.281
707.242;30799.883;  -11.509;32728.779
707.816;29255.271;   -9.639;32947.238
708.390;27813.490;  -11.429;33277.855
708.965;28263.061;  -11.869;33834.336
709.539;28104.898;  -11.689;33709.273
710.113;28453.439;  -10.478;33044.313
710.687;28052.176;  -10.228;31953.992
711.261;26437.557;  -13.698;30505.949
711.835;26100.699;  -13.378;30262.369
712.409;26701.176;   -9.698;31254.447
712.983;28831.342;  -11.898;32754.986
713.557;29895.857;  -15.138;34018.824
714.131;29543.283;  -14.098;34579.625
714.704;28633.248;   -9.958;33890.262
715.278;26348.217;  -10.028;33531.102
715.852;25153.600;  -11.148;33601.660
716.425;25785.977;   -9.068;33515.117
716.999;26733.586;  -10.038;33185.555
717.573;27945.434;   -9.798;33905.996
718.146;29010.654;  -12.378;35199.293
718.720;29142.088;  -11.918;35060.551
719.293;28627.992;   -8.088;34973.230
719.867;31434.895;  -10.888;36394.449
720.440;31065.766;  -11.938;36663.008
721.013;29492.898;  -12.818;35102.426
721.587;28010.063;  -10.298;33985.266
722.160;26833.986;  -10.048;33524.965
722.733;25810.055;  -12.108;32987.043
723.306;26095.320;  -10.818;33066.301
723.880;28623.014;   -8.908;33399.500
724.453;30895.363;   -9.878;33468.297
725.026;29872.508;  -11.188;33816.637
725.599;26738.996;  -11.678;32797.996
726.172;26693.908;   -9.618;33187.434
726.745;27803.729;   -8.258;35136.613
727.318;29300.465;  -12.978;35751.730
727.891;30092.838;  -12.148;35890.430
728.463;29846.563;   -8.968;34822.090
729.036;28807.051;  -10.188;32895.086
729.609;29304.504;  -11.788;31823.225
730.182;26310.816;  -11.788;31445.283
730.754;23923.281;  -10.268;32373.223
731.327;24067.826;   -9.998;33676.820
731.900;24227.279;  -12.228;33417.000
732.472;25312.875;  -13.848;31978.498
733.045;27244.145;   -8.698;30368.777
733.617;27282.615;  -10.607;30574.215
734.190;27072.865;  -11.507;31280.975
734.762;24389.195;  -13.647;31674.412
735.334;22507.531;   -9.767;31247.291
735.907;23116.695;   -9.897;29876.211
736.479;23415.457;  -11.637;29808.488
737.051;23215.914;   -9.567;30233.547
737.623;24175.648;   -8.187;31469.086
738.195;24692.309;  -11.187;31784.225
738.768;26305.498;  -12.337;32120.523
739.340;26831.539;  -12.227;32094.342
739.912;25985.441;  -11.057;31312.680
740.484;24490.215;  -10.207;31946.238
741.056;23107.133;  -10.047;32984.059
741.628;24794.020;  -13.627;33897.715
742.199;27036.207;   -7.177;33213.016
742.771;25364.930;  -10.797;31369.113
743.343;23014.230;  -11.997;31865.473
743.915;21957.506;  -12.867;32388.631
744.487;21947.760;   -7.617;31079.568
745.058;22185.709;   -9.557;30570.107
745.630;22606.648;   -9.877;29970.127
746.201;23543.701;  -14.177;29186.766
746.773;24292.242;   -9.237;28805.723
747.344;24250.984;   -9.847;29591.223
747.916;22717.275;  -11.657;31412.201
748.487;22807.617;  -10.587;32194.898
749.059;23882.379;   -8.707;32533.719
749.630;24353.572;  -10.537;32158.518
750.201;23109.811;  -11.687;30855.395
750.773;21360.826;  -11.647;28622.555
751.344;21281.438;   -7.147;28405.732
751.915;22602.152;   -9.757;28461.551
752.486;22848.918;  -12.427;27842.850
753.057;20734.887;  -12.227;27845.008
753.628;19457.773;  -10.417;27728.107
754.199;20481.514;  -11.767;27381.086
754.770;21514.326;  -11.187;25882.203
755.341;21576.855;  -10.507;25886.184
755.912;21741.227;   -9.387;26050.861
756.483;21381.160;  -10.647;26798.779
757.054;19560.029;  -11.837;27048.238
757.625;18194.602;  -12.716;26294.838
758.195;17788.842;   -9.666;26142.076
758.766;17491.967;   -8.656;26392.234
759.337;18332.717;  -12.856;26334.594
759.907;19904.826;  -13.366;27579.652
760.478;20815.836;   -8.576;28352.770
761.048;20252.738;  -10.526;27325.088
761.619;19342.990;  -11.116;26460.428
762.189;19314.639;  -12.136;26029.826
762.760;20325.779;   -9.456;26430.145
763.330;21512.973;   -7.136;26670.902
763.900;21096.420;  -11.786;26603.021
764.471;18607.254;  -11.546;25542.740
765.041;17268.602;   -8.096;24358.459
765.611;17247.799;   -8.876;23991.297
766.181;17626.566;  -12.196;24470.236
766.751;18571.689;  -11.636;24845.975
767.321;18335.908;  -10.156;24533.633
767.891;16462.342;  -11.766;24916.492
768.461;15908.596;  -14.936;24776.771
769.031;16392.313;  -12.356;24757.988
769.601;17942.342;   -7.526;24181.088
770.171;17830.055;  -10.766;23670.387
770.741;17032.443;  -13.176;22960.045
771.311;17137.479;  -10.616;22917.523
771.880;17599.996;   -9.576;23562.941
772.450;17330.145;  -10.336;24216.500
773.020;17109.246;  -13.516;24140.398
773.589;16209.449;  -13.466;24414.857
774.159;15515.729;   -8.686;23858.717
774.729;15307.593;   -9.476;22942.135
775.298;15004.724;  -13.666;22324.033
775.867;14624.315;  -11.716;21140.313
776.437;14697.638;   -9.906;20838.092
777.006;14516.314;  -12.166;20599.510
777.576;14309.686;  -12.356;20508.809
778.145;14350.438;  -11.646;20732.947
778.714;14288.952;   -8.226;21062.465
779.283;13665.971;   -9.556;20949.664
779.853;13109.593;  -14.116;20508.623
780.422;13537.297;  -11.506;20649.082
780.991;13105.824;   -9.556;21527.520
781.560;11957.209;   -9.095;22632.658
782.129;11798.723;  -12.135;23048.277
782.698;11844.489;  -10.865;23438.555
783.267;11468.132;   -9.335;23267.734
783.836;11397.845;  -11.045;22415.133
784.404;12341.953;  -13.865;20443.152
784.973;12920.682;  -13.095;19699.150
785.542;12847.525;  -11.575;19763.828
786.111;12692.202;   -9.705;20341.408
786.679;12238.434;  -12.105;20207.967
787.248;11944.372;  -12.455;19516.465
787.817;11739.040;  -11.535;18900.363
788.385;11343.079;   -9.765;17879.121
788.954;10777.867;  -14.005;17658.301
789.522;10272.098;  -11.955;17788.879
790.090;10819.165;  -10.135;18118.277
790.659;11254.648;  -10.975;18338.736
791.227;10761.089;  -13.375;18508.615
791.795;11164.176;  -12.375;17898.254
792.364;11524.838;  -10.725;17295.133
792.932;11844.526;   -9.715;16822.051
793.500;11999.089;  -12.675;17040.148
794.068;12197.274;  -13.495;17179.787
794.636;12339.425;  -10.885;16664.246
795.204;11686.768;  -11.045;16524.545
795.772;11681.387;  -13.175;17274.564
796.340;11224.175;  -12.445;17891.002
796.908;11020.994;   -9.735;17648.561
797.476;10951.735;   -9.815;17064.080
798.044;10583.723;  -13.985;16672.777
798.612; 9787.974;  -13.115;17023.996
799.180; 9385.874;  -10.185;16561.615
799.747; 9324.090;   -9.055;15962.773
800.315; 9042.605;  -12.385;15296.992
800.883; 8743.578;  -15.035;14801.771
801.450; 8797.745;  -10.365;14534.430
802.018; 8845.770;   -9.855;14173.248
802.585; 8943.925;  -11.905;14029.547
803.153; 8956.147;  -11.585;13836.846
803.720; 8781.126;   -9.095;13567.324
804.287; 8365.831;   -9.135;13360.622
804.855; 7946.942;  -11.604;13681.981
805.422; 7814.686;  -11.794;13536.560
805.989; 7815.967;  -10.734;13355.958
806.556; 7916.896;  -10.444;13747.896
807.124; 8130.396;  -12.764;13987.376
807.691; 8113.248;  -12.964;14038.674
808.258; 7937.306;  -11.134;14120.152
808.825; 7669.244;   -9.854;13860.111
809.392; 7744.773;  -10.504;13268.790
809.959; 7263.602;  -13.054;12680.389
810.526; 6796.461;   -8.294;12427.308
811.093; 6854.177;   -8.394;12030.105
811.659; 7523.283;  -12.304;11653.664
812.226; 8044.416;  -13.944;11637.183
812.793; 7768.452;  -10.484;11611.521
813.360; 7156.296;  -10.144;11885.181
813.926; 6835.311;  -11.684;12770.539
814.493; 6610.243;  -13.644;12677.638
815.060; 6203.144;   -9.724;11974.336
815.626; 6183.902;   -9.854;11594.715
816.193; 6566.289;  -13.254;11579.474
816.759; 6591.759;  -13.204;11666.972
817.325; 6670.762;   -9.434;11325.530
817.892; 7050.037;  -10.134;11105.369
818.458; 7456.031;  -13.474;10843.928
819.024; 7107.746;  -11.854;10714.406
819.591; 6842.753;  -10.244;10469.165
820.157; 6618.903;  -10.704;10235.523
820.723; 6079.475;  -12.324;10847.563
821.289; 5777.966;   -9.444;11040.980
821.855; 5722.579;   -8.374;10357.100
822.421; 5767.445;  -10.234; 9978.918
822.987; 5808.189;  -13.294; 9754.177
823.553; 5475.138;  -10.884;10065.755
824.119; 5279.442;   -8.884;10036.294
824.685; 5388.675;   -6.784;10029.192
825.251; 5509.184;  -12.004;10199.230
825.816; 5496.814;  -11.474; 9820.189
826.382; 5266.528;   -9.174; 9297.248
826.948; 5451.238;   -9.214; 9381.347
827.513; 5860.366;  -10.774; 9450.726
828.079; 5720.220;  -11.924; 9472.444
828.645; 5130.440;  -10.543; 9292.643
829.210; 4992.569;  -10.533; 9065.341
829.776; 4965.523;  -10.753; 9132.620
830.341; 4865.390;  -10.173; 9092.878
830.906; 5079.506;  -10.743; 9078.557
831.472; 5473.674;  -11.113; 8534.535
832.037; 5271.454;  -10.603; 8677.874
832.602; 4727.033;  -13.323; 8628.692
833.167; 4439.179;  -10.823; 8879.031
833.733; 4380.516;  -10.113; 9189.790
834.298; 4557.567;  -13.583; 9052.608
834.863; 4675.834;  -12.703; 8895.087
835.428; 4676.689;  -10.523; 8824.266
835.993; 4510.771;   -6.963; 8845.385
836.558; 4310.775;  -10.763; 8888.563
837.123; 4425.833;   -9.903; 8966.582
837.688; 4690.176;   -9.913; 8617.860
838.253; 4990.866;  -10.283; 8590.699
838.817; 5227.801;  -12.963; 8443.797
839.382; 5152.064;  -14.243; 8799.356
839.947; 4841.493;  -10.733; 8810.595
840.511; 4539.715;   -9.383; 8796.394
841.076; 4149.195;  -12.563; 8347.231
841.641; 4202.749;  -12.953; 8224.330
842.205; 4305.885;   -7.043; 8223.349
842.770; 4389.812;   -8.163; 8622.107
843.334; 4541.942;  -12.503; 8410.386
843.898; 4465.888;  -11.693; 8337.465
844.463; 4473.923;  -10.203; 8506.283
845.027; 4241.103;   -9.533; 8280.962
845.591; 4047.805;  -13.443; 8231.141
846.156; 4054.725;  -13.143; 7969.179
846.720; 3965.130;   -9.433; 7768.278
847.284; 3861.606;  -11.033; 7630.957
847.848; 3733.963;  -10.403; 7472.395
848.412; 3642.077;  -11.553; 7437.394
848.976; 3681.732;   -8.393; 7674.592
849.540; 3593.536;   -8.713; 7836.011
850.104; 3696.647;  -12.463; 7913.669
850.668; 4068.016;  -12.973; 7694.508
851.232; 4175.102;  -10.793; 7756.887
851.796; 4004.397;  -10.662; 7926.545
852.359; 3699.729;  -13.082; 7827.844
852.923; 3517.627;  -12.192; 7641.163
853.487; 3329.888;  -11.912; 7342.501
854.050; 3291.300;  -10.892; 7042.820
854.614; 3437.949;  -13.992; 7151.338
855.177; 3553.947;  -11.732; 7105.077
855.741; 3564.444;   -8.962; 6989.675
856.304; 3422.548;   -9.442; 6596.634
856.868; 3369.419;  -14.192; 6356.272
857.431; 3453.054;  -12.702; 6468.571
857.995; 3546.485;   -9.942; 6373.210
858.558; 3542.158;   -9.112; 6324.448
859.121; 3263.192;  -12.932; 6408.327
859.684; 3127.871;  -13.442; 6347.886
860.247; 3248.523;  -10.632; 6321.264
860.810; 3261.674;  -11.272; 6301.903
861.374; 2996.875;   -9.832; 6607.881
861.937; 2723.376;  -11.762; 6408.200
862.500; 2711.144;   -9.722; 6572.639
863.062; 2881.036;  -10.512; 6387.297
863.625; 3058.617;  -11.232; 6190.836
864.188; 3223.444;  -14.112; 5807.254
864.751; 3276.546;  -11.302; 5682.413
865.314; 3157.825;  -10.112; 5547.492
865.876; 2922.683;  -12.182; 5500.150
866.439; 2888.312;  -10.722; 5415.909
867.002; 2835.084;   -9.252; 5501.567
867.564; 2644.158;   -9.572; 5413.946
868.127; 2434.242;  -13.142; 5160.325
868.689; 2332.353;  -12.902; 5133.183
869.252; 2232.507;   -9.732; 5252.382
869.814; 2131.068;   -9.432; 5297.141
870.377; 2128.246;  -11.552; 5390.919
870.939; 2185.340;   -9.052; 5599.898
871.501; 2249.505;  -10.982; 5248.336
872.063; 2256.341;  -12.292; 4854.235
872.626; 2209.873;  -14.912; 4817.074
873.188; 2231.736;  -13.112; 4987.732
873.750; 2196.989;  -13.442; 4868.651
874.312; 2101.491;   -9.402; 4779.330
874.874; 2014.983;  -11.062; 4866.348
875.436; 1926.827;  -13.931; 4718.887
875.998; 1927.687;   -9.561; 4660.005
876.560; 1969.245;  -11.321; 4462.964
877.122; 1924.758;  -12.221; 4145.042
877.683; 1833.005;  -12.191; 4056.481
878.245; 1758.212;  -12.101; 3950.740
878.807; 1794.024;   -8.971; 4058.958
879.369; 1814.546;  -12.071; 3954.677
879.930; 1727.637;  -14.621; 3941.495
880.492; 1706.959;  -10.311; 4067.014
881.053; 1765.432;  -10.901; 3859.633
881.615; 1752.871;  -14.411; 3776.071
882.176; 1646.635;  -13.761; 3734.750
882.738; 1439.301;   -9.181; 3678.489
883.299; 1158.415;  -11.791; 3405.407
883.860;  906.856;  -13.121; 3351.106
884.422;  772.759;  -11.211; 3394.044
884.983;  737.692;  -10.091; 3166.443
885.544;  749.095;   -8.461; 3189.802
886.105;  758.540;  -12.361; 3160.360
886.666;  766.405;  -14.141; 3093.059
887.227;  770.107;  -11.361; 2941.957
887.788;  754.615;  -11.401; 2974.836
888.349;  729.823;  -13.791; 2721.214
888.910;  744.615;  -13.191; 2696.493
889.471;  761.258;   -9.881; 2560.172
890.032;  756.388;   -9.881; 2558.190
890.593;  744.739;  -10.371; 2567.669
891.153;  726.297;  -13.301; 2460.307
891.714;  687.767;  -11.431; 2372.046
892.275;  660.618;  -11.291; 2309.505
892.835;  629.009;  -11.471; 2382.543
893.396;  585.882;  -11.541; 2295.502
893.956;  535.848;  -11.181; 2162.420
894.517;  502.110;  -11.741; 2125.439
895.077;  497.876;  -11.671; 2086.978
895.638;  498.793;  -11.311; 2126.316
896.198;  472.941;   -9.831; 1838.275
896.758;  433.265;   -8.421; 1892.813
897.319;  404.929;  -12.351; 1792.232
897.879;  390.694;  -13.511; 1762.751
898.439;  366.020;  -12.001; 1661.149
898.999;  343.531;  -10.180; 1781.468
899.559;  336.707;  -12.030; 1703.347
900.119;  333.093;  -15.710; 1537.525
900.679;  329.414;   -8.900; 1638.384
901.239;  315.221;   -8.340; 1527.902
901.799;  304.687;  -13.910; 1456.441
902.359;  298.814;  -13.460; 1357.140
902.919;  293.936;  -11.490; 1331.118
903.479;  281.563;  -12.110; 1317.257
904.038;  261.186;  -11.720; 1262.595
904.598;  245.991;  -13.610; 1152.034
905.158;  242.285;  -11.040; 1240.893
905.717;  234.834;  -10.900; 1233.691
906.277;  224.988;  -15.080; 1217.330
906.836;  214.190;  -13.380; 1222.408
907.396;  207.304;  -10.780; 1193.047
907.955;  200.104;   -8.500; 1182.526
908.515;  192.994;  -12.760; 1099.364
909.074;  187.411;  -11.900; 1092.863
909.633;  180.495;   -8.950; 1069.121
910.192;  174.589;   -8.770; 1196.460
910.752;  166.714;  -12.390; 1029.960
911.311;  161.196;  -13.680; 1009.780
911.870;  160.393;  -12.370;  971.460
912.429;  161.541;  -10.900; 1094.080
912.988;  160.836;  -11.690; 1081.060
913.547;  156.755;  -13.240;  940.380
914.106;  152.494;  -11.990;  999.420
914.665;  150.688;   -9.990;  984.020
915.224;  149.019;  -12.880; 1035.760
915.782;  150.621;  -12.350;  922.560
916.341;  150.172;   -9.110; 1049.840
916.900;  146.677;   -9.270;  925.260
917.458;  144.300;  -13.240;  884.220
918.017;  142.863;  -13.550;  942.600
918.576;  143.276;  -12.320;  904.440
919.134;  142.607;  -11.490;  837.980
919.693;  140.184;  -13.670;  893.060
920.251;  138.308;  -15.470;  876.500
920.809;  137.687;  -11.290;  839.580
921.368;  138.041;  -10.210;  885.360
921.926;  136.001;  -12.140;  842.940
922.484;  134.665;  -13.080;  903.360
923.042;  134.827;  -11.720;  880.340
923.601;  137.406;   -7.480;  998.680
924.159;  135.104;  -11.570;  935.560
924.717;  131.753;  -13.840;  841.080
925.275;  131.716;  -10.640;  903.240
925.833;  132.538;  -11.540;  779.320
926.391;  133.031;  -12.960;  938.380
926.949;  131.064;  -14.130;  857.680
927.506;  131.910;  -11.750;  903.500
928.064;  132.131;  -10.250;  877.580
928.622;  130.808;  -13.030;  880.100
929.180;  130.310;  -13.400;  814.180
929.737;  131.901;  -10.700;  808.540
930.295;  135.307;  -10.070;  928.480
930.853;  136.907;  -11.960;  849.100
931.410;  137.353;  -13.120;  821.120
931.968;  136.919;  -10.770;  940.660
932.525;  136.438;  -10.680;  909.380
933.082;  136.680;  -13.130;  811.440
933.640;  137.349;  -13.210;  925.900
934.197;  135.935;  -11.060;  886.360
934.754;  137.146;   -9.580;  897.780
935.312;  139.584;  -14.000;  863.340
935.869;  143.427;  -10.710; 1012.980
936.426;  144.013;   -9.860;  872.800
936.983;  145.706;   -9.710;  889.020
937.540;  144.338;  -13.990;  838.280
938.097;  142.522;  -14.040;  940.120
938.654;  144.088;  -10.310;  898.860
939.211;  146.202;  -10.560;  952.480
939.768;  149.504;  -13.900;  915.420
940.324;  152.912;  -14.760;  904.200
940.881;  153.078;  -10.370;  878.500
941.438;  154.648;   -8.260; 1021.200
941.995;  150.702;  -12.540;  992.560
942.551;  147.729;  -14.670;  875.620
943.108;  148.407;  -10.450;  937.920
943.664;  151.414;  -10.750;  869.340
944.221;  154.390;  -11.550; 1088.140
944.777;  151.265;  -14.770;  869.680
945.334;  151.829;  -12.820;  884.840
945.890;  153.582;  -10.130;  946.480
946.446;  154.075;  -13.470;  947.020
947.003;  155.422;  -12.120;  964.940
947.559;  158.121;   -9.980; 1063.040
948.115;  157.544;   -9.080; 1026.540
948.671;  155.325;  -10.830;  967.300
949.227;  152.628;  -12.440;  859.560
949.783;  149.815;  -12.910;  858.900
950.339;  152.627;  -10.270;  991.000
950.895;  152.358;  -13.630; 1023.840
951.451;  151.394;  -15.100;  925.280
952.007;  151.596;  -11.330;  998.540
952.563;  152.620;  -10.580;  937.780
953.118;  150.682;  -13.440;  904.940
953.674;  150.756;  -12.710;  935.780
954.230;  149.280;  -10.350;  949.640
954.785;  147.635;   -9.190;  936.640
955.341;  144.723;  -11.200;  998.160
955.897;  143.294;  -16.560;  834.660
956.452;  144.329;  -12.570;  953.840
957.008;  144.470;   -7.970; 1083.640
957.563;  141.075;  -11.940; 1009.540
958.118;  136.114;  -13.450;  877.700
958.674;  136.378;  -12.030;  946.780
959.229;  137.947;   -9.410; 1013.980
959.784;  135.429;  -12.000;  832.400
960.339;  134.663;  -14.780; 1001.280
960.894;  131.819;   -9.860;  963.760
961.449;  128.541;   -9.970;  859.960
962.004;  127.653;  -10.900; 1212.840
962.559;  123.368;  -13.150;  860.140
963.114;  120.356;  -13.740;  742.480
963.669;  120.613;   -9.820;  915.500
964.224;  119.373;  -13.890;  874.340
964.779;  117.364;  -12.600;  828.420
965.334;  119.568;  -10.950; 1017.860
965.888;  117.762;  -11.170;  875.360
966.443;  120.832;  -12.540;  972.380
966.998;  120.301;  -15.780;  819.460
967.552;  118.851;   -9.760;  908.380
968.107;  116.402;   -9.060;  868.300
968.661;  117.680;  -11.950;  922.440
969.216;  117.089;  -12.800;  856.280
969.770;  117.155;  -11.210;  917.200
970.324;  116.259;  -11.610;  923.140
970.879;  113.278;  -11.370;  947.180
971.433;  110.106;  -12.540;  952.720
971.987;  104.343;  -11.320;  895.340
972.541;  103.069;  -10.720;  917.100
973.095;  103.114;   -9.680; 1009.460
973.649;  100.950;  -11.440;  809.480
974.203;   99.912;  -11.210;  829.040
974.757;  100.409;  -10.240;  855.220
975.311;   99.939;  -13.720;  872.600
975.865;   99.206;  -13.770;  881.820
976.419;   96.945;  -11.690;  857.400
976.973;   97.888;   -9.510;  849.620
977.526;   99.495;  -12.620;  949.920
978.080;   97.585;  -12.010;  796.780
978.634;  100.270;  -10.170;  921.320
979.187;   98.351;   -9.020;  905.400
979.741;   94.973;   -9.820; 1018.380
980.294;   89.618;  -14.870;  789.160
980.848;   87.785;  -12.380;  717.220
981.401;   90.596;  -10.350;  816.540
981.955;   92.139;  -13.720;  844.300
982.508;   91.227;  -11.490;  746.340
983.061;   91.203;  -10.000;  915.260
983.615;   88.153;  -11.480;  798.800
984.168;   84.242;  -13.220;  770.080
984.721;   82.505;  -13.960;  880.760
985.274;   82.392;  -10.870;  867.500
985.827;   81.959;   -9.790;  834.220
986.380;   79.555;  -13.120;  721.340
986.933;   79.001;  -12.450;  864.800
987.486;   76.975;  -10.210;  861.920
988.039;   76.568;   -8.430;  863.100
988.591;   74.100;  -10.520;  893.260
989.144;   71.179;  -14.860;  737.260
989.697;   71.197;  -13.080;  758.740
990.250;   71.958;  -10.150;  858.100
990.802;   70.266;  -13.430;  755.860
991.355;   71.030;  -12.750;  974.880
991.907;   68.902;  -12.040;  864.320
992.460;   66.774;  -11.330;  753.760
993.012;   66.308;  -13.610;  749.540
993.565;   64.889;  -13.460;  711.360
994.117;   66.929;   -9.360;  950.780
994.669;   62.974;  -11.300;  701.320
995.221;   61.451;  -13.540;  791.920
995.774;   59.212;  -13.430;  787.580
996.326;   58.269;  -12.520;  740.220
996.878;   57.898;  -10.950;  838.420
997.430;   55.789;  -14.300;  699.860
997.982;   54.631;  -13.760;  750.140
998.534;   55.306;  -11.530;  739.060
999.086;   53.501;  -10.310;  738.220
999.638;   52.350;  -12.530;  661.380
1000.190;   51.073;  -11.840;  699.320
1000.741;   50.953;  -10.260;  742.700
1001.293;   51.020;   -8.860;  686.020
1001.845;   49.251;  -13.700;  676.640
1002.396;   49.420;  -12.100;  743.400
1002.948;   48.829;  -12.760;  737.400
1003.500;   47.715;  -10.380;  723.780
1004.051;   48.216;  -11.900;  907.580
1004.603;   45.642;  -12.250;  791.820
1005.154;   42.770;  -13.210;  608.980
1005.705;   41.615;  -10.950;  723.960
1006.257;   40.719;  -13.880;  707.220
1006.808;   40.552;  -12.840;  685.460
1007.359;   40.000;  -10.570;  763.240
1007.910;   39.671;   -9.620;  646.640
1008.461;   39.553;  -13.630;  732.940
1009.013;   37.627;  -17.200;  588.340
1009.564;   39.073;  -10.200;  793.520
1010.115;   37.244;  -12.570;  597.040
1010.665;   36.482;  -15.150;  602.160
1011.216;   35.950;  -14.480;  667.920
1011.767;   36.241;  -11.340;  697.920
1012.318;   37.469;   -9.780;  736.980
1012.869;   35.272;  -12.380;  679.000
1013.419;   34.150;  -15.560;  603.120
1013.970;   35.508;  -11.010;  666.640
1014.521;   34.409;  -11.610;  620.620
1015.071;   35.139;  -13.450;  670.380
1015.622;   34.182;  -13.870;  635.460
1016.172;   33.156;  -11.610;  596.820
1016.723;   33.511;  -12.120;  614.380
1017.273;   32.613;  -13.620;  604.160
1017.823;   32.463;  -14.140;  650.340
1018.374;   32.321;  -12.800;  611.760
1018.924;   32.662;  -12.340;  716.880
1019.474;   33.039;  -11.410;  718.880
1020.024;   31.312;  -14.770;  657.580
1020.574;   32.285;   -9.780;  726.160
1021.124;   32.427;   -8.560;  673.580
1021.674;   31.610;  -15.190;  559.120
1022.224;   32.291;  -13.530;  708.940
1022.774;   31.159;  -13.280;  668.820
1023.324;   32.565;  -10.690;  753.520
1023.874;   32.963;  -10.240;  875.760
1024.423;   30.073;  -12.540;  613.700
1024.973;   29.872;  -10.010;  610.760
1025.523;   29.765;  -10.550;  620.960
1026.072;   28.875;  -13.560;  606.420
1026.622;   29.011;  -15.120;  675.740
1027.172;   29.853;  -11.260;  715.660
1027.721;   29.456;  -11.410;  601.220
1028.270;   28.767;  -13.530;  663.400
1028.820;   28.498;  -13.680;  638.080
1029.369;   28.735;  -13.520;  612.700
1029.918;   29.747;  -10.980;  649.840
1030.468;   27.846;  -13.530;  564.780
1031.017;   28.037;  -13.170;  634.800
1031.566;   27.316;  -12.200;  608.900
1032.115;   28.129;   -9.960;  694.500
1032.664;   26.613;  -13.210;  596.480
1033.213;   27.874;  -12.500;  735.420
1033.762;   27.428;  -11.910;  635.620
1034.311;   26.826;   -9.640;  677.220
1034.860;   27.356;  -13.310;  691.000
1035.408;   27.317;  -11.830;  722.720
1035.957;   26.464;  -12.000;  719.540
1036.506;   25.528;  -11.690;  530.800
1037.055;   27.879;  -10.990;  844.320
1037.603;   25.506;  -15.120;  664.000
1038.152;   23.946;  -12.450;  534.760
1038.700;   24.673;  -10.560;  585.740
1039.249;   25.418;  -11.080;  681.220
1039.797;   24.869;  -12.540;  633.360
1040.345;   24.606;  -11.920;  705.420
1040.894;   24.911;  -11.410;  625.300
1041.442;   24.101;  -14.320;  632.200
1041.990;   22.722;  -16.240;  559.160
1042.538;   22.802;  -11.680;  536.180
1043.087;   23.440;  -10.760;  570.860
1043.635;   24.539;  -11.850;  670.500
1044.183;   22.981;  -15.480;  586.400
1044.731;   22.888;  -11.770;  576.000
1045.279;   23.236;  -13.090;  674.920
1045.827;   24.507;  -12.440;  892.400
1046.374;   22.137;  -13.840;  515.420
1046.922;   22.270;  -13.220;  590.580
1047.470;   23.493;  -10.230;  691.300
1048.018;   22.572;  -14.590;  647.960
1048.565;   23.296;  -12.050;  708.600
1049.113;   21.544;  -11.650;  557.000
1049.660;   21.462;  -10.510;  629.660
1050.208;   22.418;  -13.310;  675.640
1050.755;   20.570;  -15.900;  606.580
1051.303;   21.798;  -11.430;  686.820
1051.850;   21.269;   -8.480;  635.120
1052.397;   20.113;  -15.010;  473.960
1052.945;   19.793;  -13.960;  617.760
1053.492;   21.884;  -13.150;  741.840
1054.039;   21.116;   -9.630;  720.180
1054.586;   19.967;  -13.680;  557.240
1055.133;   19.965;  -14.570;  693.140
1055.680;   20.267;  -13.820;  646.620
1056.227;   20.639;  -11.730;  542.780
1056.774;   21.044;  -12.480;  794.980
1057.321;   18.917;  -13.930;  523.260
1057.868;   19.340;  -11.690;  651.320
1058.415;   19.623;   -9.520;  651.980
1058.961;   19.682;  -13.160;  678.940
1059.508;   19.320;  -12.920;  643.820
1060.055;   19.107;  -11.920;  581.780
1060.601;   20.080;  -11.500;  624.300
1061.148;   19.657;  -14.330;  616.820
1061.694;   17.956;  -16.870;  592.580
1062.241;   19.364;  -10.330;  596.320
1062.787;   19.494;  -10.620;  663.140
1063.334;   19.736;  -10.110;  808.560
1063.880;   18.391;  -13.400;  668.360
1064.426;   18.765;  -10.680;  706.820
1064.972;   17.727;   -9.920;  601.340
1065.518;   16.567;  -10.980;  566.640
1066.065;   17.289;  -14.890;  624.460
1066.611;   16.520;  -12.870;  598.800
1067.157;   18.319;  -12.950;  641.860
1067.703;   17.577;  -13.540;  668.480
1068.249;   17.884;  -13.540;  605.220
1068.794;   17.127;  -12.600;  626.880
1069.340;   16.410;  -10.620;  578.960
1069.886;   16.691;  -12.830;  590.700
1070.432;   15.971;  -14.870;  541.720
1070.977;   15.613;  -11.980;  601.080
1071.523;   16.102;   -8.200;  573.060
1072.068;   16.238;  -12.330;  582.000
1072.614;   15.360;  -16.370;  527.760
1073.160;   16.669;  -11.100;  687.040
1073.705;   15.049;  -10.480;  572.520
1074.250;   15.332;  -14.520;  559.900
1074.796;   16.207;  -11.460;  655.160
1075.341;   16.132;  -11.950;  664.100
1075.886;   16.205;  -11.460;  594.240
1076.431;   14.979;  -13.770;  649.880
1076.976;   15.209;  -12.680;  639.220
1077.521;   14.522;  -13.170;  583.080
1078.067;   14.860;  -10.860;  579.400
1078.612;   15.511;  -13.920;  661.620
1079.156;   14.294;  -13.880;  601.540
1079.701;   15.292;  -13.120;  693.260
1080.246;   15.478;   -9.940;  696.300
1080.791;   14.550;  -14.740;  625.020
1081.336;   13.717;  -13.750;  659.320
1081.880;   13.765;  -13.400;  649.680
1082.425;   13.420;  -12.220;  573.480
1082.970;   14.205;  -11.610;  717.040
1083.514;   13.525;  -13.580;  597.000
1084.059;   12.623;  -12.810;  586.720
1084.603;   13.457;  -12.320;  565.840
1085.147;   13.167;  -13.190;  645.220
1085.692;   14.071;  -12.480;  716.800
1086.236;   12.190;  -13.020;  503.140
1086.780;   14.294;   -9.190;  751.440
1087.325;   13.227;  -12.480;  654.620
1087.869;   13.031;  -12.450;  610.700
1088.413;   13.614;  -12.240;  705.040
1088.957;   11.415;   -9.020;  543.400
1089.501;   12.691;  -10.320;  766.640
1090.045;   12.145;  -12.720;  726.480
1090.589;   10.210;  -13.690;  569.920
1091.133;   12.358;  -10.020;  673.340
1091.676;   12.130;  -12.330;  591.940
1092.220;   11.491;  -14.970;  600.920
1092.764;   12.252;  -12.430;  706.960
1093.307;   12.781;   -9.800;  673.780
1093.851;   10.977;  -14.970;  556.540
1094.395;   11.490;  -15.310;  683.140
1094.938;   10.464;  -10.370;  632.520
1095.482;   11.584;  -11.050;  559.800
1096.025;   11.807;  -11.840;  710.880
1096.568;   12.168;  -12.840;  779.280
1097.112;    9.358;  -14.700;  508.180
1097.655;   11.272;   -8.720;  603.000
1098.198;    9.657;  -13.610;  600.180
1098.741;    9.395;  -13.350;  612.860
1099.285;   11.208;  -11.230;  657.300
1099.828;    8.985;  -11.840;  439.400
1100.371;   10.094;  -10.840;  608.160
1100.914;   10.440;  -14.190;  682.660
1101.457;    8.974;  -11.240;  679.900
1101.999;    8.987;  -11.270;  584.680
1102.542;    9.989;  -11.480;  641.440
1103.085;    9.127;  -11.750;  658.500
1103.628;    9.971;  -11.400;  762.060
1104.170;    9.419;  -10.490;  588.280
1104.713;   10.182;  -10.600;  646.700
1105.256;    7.833;  -14.360;  557.440
1105.798;    8.842;  -13.210;  499.980
1106.341;   10.182;  -10.270;  728.900
1106.883;    9.361;  -12.200;  521.340
1107.425;    8.447;  -13.110;  668.180
1107.968;    8.519;  -12.840;  612.380
1108.510;    9.678;   -6.480;  684.960
1109.052;    6.726;  -13.940;  612.620
1109.594;    7.517;  -13.690;  554.440
1110.136;    8.487;  -11.880;  643.220
1110.679;    7.951;   -9.500;  633.080
1111.221;    8.892;  -14.160;  604.460
1111.763;    7.012;  -13.980;  559.220
1112.304;    6.647;  -13.880;  547.140
1112.846;    7.600;  -12.210;  666.240
1113.388;   10.465;  -11.390;  942.180
1113.930;    7.807;  -14.540;  694.200
1114.472;    7.083;  -12.640;  606.540
1115.013;    6.525;  -11.620;  551.280
1115.555;    6.470;  -13.640;  587.100
1116.097;    6.454;  -15.380;  579.480
1116.638;    6.835;  -12.640;  684.600
1117.180;    7.726;   -9.850;  667.740
1117.721;    6.607;  -13.690;  568.580
1118.262;    6.320;  -12.680;  677.960
1118.804;    7.156;  -12.530;  637.340
1119.345;    6.109;  -11.690;  578.400
1119.886;    6.797;  -13.380;  704.040
1120.427;    5.275;  -14.070;  589.020
1120.969;    5.365;  -13.500;  597.920
1121.510;    5.338;  -11.480;  563.060
1122.051;    5.981;  -12.830;  723.580
1122.592;    5.411;  -14.290;  655.420
1123.133;    3.595;  -12.400;  547.940
1123.673;    6.253;  -10.130;  706.480
1124.214;    5.724;  -12.930;  612.460
1124.755;    6.578;  -14.380;  639.460
1125.296;    5.295;  -14.000;  627.320
1125.836;    5.816;  -10.070;  691.500
1126.377;    4.645;  -12.640;  599.660
1126.918;    4.992;  -12.960;  614.980
1127.458;    4.429;  -13.350;  622.220
1127.999;    5.871;  -10.750;  656.980
1128.539;    5.332;  -12.350;  694.240
1129.079;    4.582;  -14.860;  632.720
1129.620;    4.105;  -13.840;  558.100
1130.160;    3.985;  -12.330;  539.480
1130.700;    5.024;  -14.530;  640.840
1131.240;    4.718;  -12.530;  643.700
1131.781;    4.183;  -14.450;  619.680
1132.321;    4.457;   -9.790;  599.120
1132.861;    3.042;  -14.860;  564.200
1133.401;    2.613;  -14.290;  593.940
1133.941;    3.822;  -11.750;  626.280
1134.481;    3.554;   -9.920;  597.580
1135.020;    3.223;  -12.290;  609.160
1135.560;    3.810;  -11.650;  674.940
1136.100;    2.759;  -16.270;  501.160
1136.640;    2.847;  -10.890;  510.480
1137.179;    2.860;  -14.180;  537.960
1137.719;    3.186;  -16.250;  605.400
1138.258;    2.653;  -14.230;  587.360
1138.798;    4.025;   -9.090;  663.780
1139.337;    2.377;  -15.130;  482.840
1139.877;    2.944;  -13.680;  642.360
1140.416;    4.854;  -11.320;  878.060
1140.955;    2.585;  -10.860;  535.380
1141.494;    2.520;  -12.920;  669.280
1142.034;    1.835;  -13.930;  583.520
1142.573;    3.702;  -11.440;  646.280
1143.112;    2.323;  -12.000;  553.480
1143.651;    2.172;  -13.670;  536.480
1144.190;    2.803;  -12.730;  691.640
1144.729;    2.366;  -14.560;  607.420
1145.267;    2.412;  -11.830;  584.900
1145.806;    3.643;  -12.230;  637.040
1146.345;    1.100;  -14.130;  635.020
1146.884;    0.926;  -11.590;  622.500
1147.422;    1.618;  -12.550;  533.060
1147.961;    3.283;  -11.180;  708.460
1148.500;    2.614;  -11.510;  669.720
1149.038;    2.132;  -11.640;  632.500
1149.577;    2.261;  -10.130;  698.640
1150.115;    0.798;  -13.970;  452.280
1150.653;    1.911;  -14.520;  607.340
1151.192;    1.301;  -12.810;  552.920
1151.730;    1.747;   -9.100;  652.560
1152.268;    0.899;  -12.220;  589.520
1152.806;    0.994;  -14.140;  571.180
1153.344;   -0.170;  -12.350;  577.640
1153.882;    1.271;   -8.980;  600.060
1154.421;   -0.269;  -15.190;  470.620
1154.958;    0.329;  -15.210;  595.240
1155.496;    1.705;  -12.850;  645.280
1156.034;    0.499;   -9.940;  721.880
1156.572;    1.607;  -13.570;  667.060
1157.110;   -0.892;  -14.590;  473.940
1157.647;    1.114;  -13.030;  676.960
1158.185;    0.476;  -12.140;  564.320
1158.723;   -0.420;  -14.390;  509.200
1159.260;    0.427;  -14.090;  701.700
1159.798;    0.161;  -11.920;  658.160
1160.335;    0.288;  -11.110;  631.820

