gmr_right
Integration time [ms]: 689.352
Averaging Nr. [scans]: 20
Smoothing Nr. [pixels]: 0
Data measured with spectrometer [name]: 7414430SP
Wave   ;Sample   ;Dark     ;Reference
[nm]   ;[counts] ;[counts] ;[counts] 

288.544;  991.906;  865.551;    6.613
289.143;  834.291;  767.582;   14.216
289.742; 1063.496;  982.674;   11.816
290.341; 1004.094;  904.492;   -4.936
290.940;  928.991;  833.434;    0.852
291.538; 1148.101; 1048.915;    1.792
292.137; 1013.454;  911.022;    6.262
292.736; 1299.194; 1220.492;    8.164
293.335;  939.405;  856.602;   -6.418
293.934; 1018.403;  919.221;   -2.904
294.532; 1397.737; 1341.722;   -5.162
295.131; 1114.455; 1041.627;  -10.283
295.730; 1063.794; 1027.220;  -16.141
296.328; 1045.078;  969.771;  -14.740
296.927; 1028.537;  960.624;   -8.768
297.525; 1034.346;  980.601;  -15.255
298.124;  838.778;  764.574;  -22.063
298.722; 1010.824;  976.110;  -14.796
299.321;  934.038;  878.277;  -10.466
299.919;  984.840;  940.485;  -10.979
300.518;  914.980;  830.954;  -12.077
301.116;  911.620;  835.225;  -13.509
301.715;  974.173;  879.506;  -11.939
302.313;  939.188;  886.228;  -15.424
302.911;  989.009;  938.017;  -19.833
303.509; 1277.621; 1231.175;   -3.567
304.108; 1031.330;  930.978;   -9.553
304.706; 1095.422; 1015.729;   -8.582
305.304; 1095.816; 1018.836;  -12.348
305.902; 1069.864; 1007.480;  -14.411
306.500;  992.558;  936.487;   -7.194
307.098; 1031.145;  940.973;   -9.322
307.696; 1079.753; 1019.049;  -19.192
308.294; 1000.124;  968.986;   -9.736
308.892; 1048.383;  963.913;  -15.482
309.490;  970.510;  899.695;  -14.107
310.088; 1096.862; 1045.125;  -15.862
310.686; 1139.228; 1060.648;  -10.781
311.284; 1070.018; 1007.944;  -14.878
311.882; 1004.482;  954.112;   -9.948
312.480;  965.984;  881.542;  -15.503
313.078; 1139.806; 1092.033;  -17.262
313.675;  959.058;  889.487;   -3.694
314.273; 1118.978; 1057.673;  -18.246
314.871;  806.310;  721.794;  -15.190
315.468;  913.759;  823.017;  -12.633
316.066;  969.060;  913.645;   -5.765
316.664;  899.575;  861.739;  -14.317
317.261; 1296.508; 1225.587;   -8.677
317.859; 1099.583; 1062.715;  -11.804
318.456; 1183.399; 1141.511;   -3.107
319.054; 1108.473; 1048.308;   -3.062
319.651; 1071.449; 1007.337;   -6.706
320.249; 1149.749; 1094.337;   -5.206
320.846; 1015.035;  953.393;   -4.679
321.443; 1194.623; 1146.259;   -7.920
322.041; 1163.739; 1123.980;  -14.105
322.638; 1002.823;  945.482;   -6.263
323.235;  943.538;  897.228;   -7.424
323.833; 1047.855;  984.553;  -14.765
324.430;  860.531;  817.458;  -10.550
325.027; 1276.675; 1205.540;   -9.951
325.624;  910.263;  861.653;   -3.712
326.221;  971.498;  897.808;   -9.368
326.818; 1174.435; 1074.343;   -5.637
327.415; 1055.578;  996.722;   -6.699
328.012;  976.079;  871.275;   -5.713
328.609; 1017.493;  951.443;   -9.983
329.206; 1101.802;  998.519;   -7.154
329.803; 1031.939;  994.005;   -1.682
330.400;  980.750;  885.312;   -2.741
330.997; 1150.934; 1048.690;   -4.339
331.594; 1114.429; 1015.128;  -10.278
332.191; 1018.409;  932.992;   -6.967
332.787; 1187.312; 1126.199;   -0.480
333.384; 1061.592;  951.741;  -10.333
333.981; 1140.913; 1052.481;  -19.900
334.578;  971.959;  879.116;  -19.816
335.174; 1008.323;  915.234;  -15.844
335.771; 1170.239; 1071.832;  -12.670
336.367;  991.841;  913.089;  -21.124
336.964; 1120.090; 1066.436;  -18.226
337.561; 1031.467;  921.341;  -13.311
338.157; 1295.902; 1225.199;  -19.006
338.754; 1122.010; 1063.498;  -19.418
339.350;  997.306;  941.960;  -29.433
339.946; 1078.242;  987.742;  -16.622
340.543; 1195.826; 1098.096;  -16.744
341.139; 1008.810;  928.300;  -21.841
341.735; 1098.685; 1056.825;  -25.012
342.332;  974.062;  855.854;  -19.156
342.928; 1121.538; 1027.106;  -20.443
343.524; 1083.978; 1051.179;  -14.397
344.120; 1038.124;  979.691;  -20.654
344.716;  997.596;  948.083;   -5.730
345.313; 1113.008; 1060.266;  -10.929
345.909;  848.971;  786.831;  -19.843
346.505; 1035.009;  997.994;  -19.645
347.101; 1163.544; 1095.049;   -9.618
347.697; 1097.930; 1033.658;  -10.305
348.293;  846.652;  837.298;  -23.189
348.889; 1036.521; 1009.682;  -18.418
349.485;  947.033;  921.816;  -10.476
350.081; 1065.548; 1014.488;  -17.320
350.676;  944.480;  880.758;  -21.088
351.272; 1132.776; 1102.294;  -12.821
351.868; 1073.946; 1029.231;  -13.165
352.464;  998.575;  965.517;  -12.464
353.059;  880.946;  823.157;  -22.547
353.655; 1082.465; 1048.887;   -9.379
354.251; 1055.796; 1018.404;   -8.266
354.846; 1014.675;  989.566;  -17.705
355.442; 1018.183; 1016.692;   -9.317
356.038; 1029.379;  994.055;  -11.049
356.633;  998.774;  987.740;  -10.006
357.229;  992.210;  968.671;  -13.120
357.824;  960.524;  917.616;  -15.647
358.420;  920.719;  895.301;  -19.204
359.015;  938.381;  912.435;  -12.263
359.610; 1054.948; 1008.661;  -16.421
360.206;  809.306;  781.836;  -20.074
360.801;  861.755;  837.356;  -13.277
361.396;  992.942;  976.742;   -5.822
361.992;  901.774;  888.616;  -11.247
362.587;  903.443;  909.322;  -21.502
363.182;  935.859;  900.721;   -7.461
363.777; 1011.521; 1004.855;   -8.719
364.372; 1013.285;  981.196;  -14.590
364.967;  919.025;  910.269;  -15.145
365.563; 1113.700; 1121.818;   -7.192
366.158;  924.142;  919.619;   -5.662
366.753;  865.860;  858.622;   -8.378
367.348; 1013.713; 1018.655;  -14.990
367.942;  929.880;  945.658;   -6.005
368.537; 1020.814; 1028.036;  -11.504
369.132;  937.361;  942.275;  -10.576
369.727;  844.001;  870.571;  -12.573
370.322;  772.093;  766.272;  -11.560
370.917;  961.280;  942.758;  -10.388
371.511; 1196.243; 1197.445;   -9.161
372.106; 1073.375; 1077.269;  -10.245
372.701;  774.061;  795.201;  -10.158
373.296; 1173.226; 1207.947;   -4.719
373.890;  859.143;  890.322;  -11.802
374.485;  937.133;  961.791;  -13.500
375.079; 1016.528; 1043.550;   -6.276
375.674; 1110.702; 1118.249;   -0.447
376.268;  923.772;  898.335;   -6.916
376.863;  764.632;  795.891;  -14.483
377.457;  891.726;  938.220;   -6.903
378.052; 1046.820; 1078.004;   -9.844
378.646; 1005.832; 1039.965;  -12.601
379.240;  975.734; 1013.345;  -14.715
379.835;  856.007;  868.613;  -12.331
380.429;  746.623;  800.112;   -9.074
381.023; 1071.686; 1112.726;   -1.729
381.617;  908.701;  960.447;  -13.714
382.212;  918.360;  972.548;   -7.060
382.806; 1040.926; 1058.220;   -2.303
383.400;  928.145;  940.529;   -0.815
383.994;  906.047;  935.909;   -4.429
384.588;  954.532;  983.088;   -6.261
385.182;  997.017; 1032.094;    0.008
385.776;  974.113;  950.432;   -3.247
386.370;  937.274;  972.715;   -1.030
386.964;  948.858;  957.167;   -1.346
387.558;  812.193;  852.396;   -2.020
388.152;  937.914;  970.086;   -5.345
388.745; 1133.700; 1150.745;   -2.774
389.339; 1038.929; 1057.104;    3.510
389.933;  949.570; 1009.028;    5.280
390.527; 1206.118; 1280.747;    2.610
391.120;  811.162;  847.805;   -7.914
391.714;  984.404; 1009.679;   -1.903
392.308; 1091.927; 1155.724;    6.023
392.901;  891.048;  904.587;   -4.103
393.495;  816.156;  870.886;    3.284
394.089; 1083.570; 1142.177;    8.655
394.682;  984.408; 1010.217;    2.312
395.275; 1027.687; 1052.230;   -7.402
395.869;  933.635; 1002.122;   -1.072
396.462;  849.342;  911.718;    6.454
397.056; 1088.613; 1171.383;    8.494
397.649; 1024.626; 1090.873;    1.599
398.242; 1007.686; 1035.800;    3.153
398.836; 1080.203; 1153.026;   11.395
399.429;  879.858;  935.117;   14.695
400.022;  930.579;  993.030;    3.627
400.615; 1148.900; 1169.968;    8.383
401.208;  962.586; 1012.750;   13.295
401.802;  989.963; 1067.482;    6.211
402.395;  958.629;  986.030;    7.227
402.988;  980.177; 1056.699;    2.700
403.581;  903.683;  958.642;   11.225
404.174;  973.471;  980.805;   18.922
404.767;  889.918;  966.797;   14.169
405.360;  871.949;  906.240;    8.999
405.953; 1082.198; 1151.711;   13.138
406.545; 1023.947; 1073.884;   13.937
407.138;  868.162;  888.705;   10.869
407.731;  861.923;  913.062;   12.768
408.324;  932.543;  994.519;   22.921
408.917;  973.117; 1031.094;   15.308
409.509; 1059.971; 1097.905;   12.239
410.102;  924.316;  983.466;   13.741
410.695;  944.517;  985.218;   20.249
411.287;  846.724;  907.913;   21.793
411.880;  820.560;  876.399;   22.965
412.472;  857.538;  864.957;   15.082
413.065;  898.866;  965.540;   23.423
413.657;  816.830;  854.732;   21.077
414.250;  923.200;  949.942;   12.349
414.842;  962.182; 1021.989;   20.423
415.434;  813.099;  833.165;   19.906
416.027;  922.868;  953.069;   26.574
416.619; 1025.121; 1055.706;   15.705
417.211;  839.156;  874.811;   17.791
417.804;  890.543;  928.544;   30.244
418.396;  861.941;  914.916;   24.177
418.988;  949.349;  964.512;   24.904
419.580;  807.962;  850.729;   20.692
420.172;  766.157;  798.538;   22.275
420.764;  960.384;  996.518;   26.773
421.356;  915.567;  963.292;   25.731
421.948;  963.719; 1015.722;   24.876
422.540;  974.647; 1021.982;   30.042
423.132;  856.365;  866.812;   32.728
423.724;  799.069;  849.672;   21.317
424.316;  881.674;  893.714;   29.359
424.908;  848.301;  874.644;   28.798
425.500;  926.272;  957.631;   30.512
426.092;  918.758;  945.513;   26.741
426.683;  997.399; 1011.363;   27.029
427.275;  913.988;  939.253;   32.611
427.867;  963.089; 1002.807;   33.796
428.458; 1050.827; 1093.846;   34.453
429.050;  988.028; 1039.500;   34.255
429.642; 1076.435; 1076.096;   39.082
430.233;  799.967;  829.217;   41.138
430.825; 1054.902; 1099.545;   31.581
431.416; 1006.884; 1036.592;   35.755
432.008;  921.425;  935.639;   40.566
432.599;  931.024;  904.036;   46.322
433.190;  914.112;  908.001;   46.897
433.782;  830.765;  878.935;   41.069
434.373; 1292.106; 1305.156;   48.778
434.964;  847.445;  877.973;   50.078
435.556;  908.046;  938.453;   52.381
436.147; 1086.899; 1108.561;   38.251
436.738;  999.656; 1015.206;   47.237
437.329; 1034.851; 1072.742;   61.304
437.920;  948.805;  961.529;   48.611
438.511;  802.677;  828.069;   44.910
439.103;  880.085;  868.293;   62.404
439.694;  974.593; 1011.493;   63.075
440.285; 1082.582; 1086.359;   61.033
440.876; 1229.203; 1255.999;   57.249
441.466;  815.591;  810.212;   61.306
442.057;  951.381;  953.656;   65.773
442.648; 1066.194; 1082.320;   65.676
443.239;  877.746;  888.527;   55.963
443.830; 1007.108; 1027.338;   69.631
444.421;  930.528;  926.672;   69.943
445.011;  985.042;  982.766;   72.791
445.602; 1062.803; 1050.172;   68.848
446.193;  669.351;  696.866;   80.044
446.783;  896.038;  901.425;   82.599
447.374;  982.956;  957.280;   77.419
447.964; 1014.891;  997.385;   72.605
448.555; 1177.633; 1183.110;   82.041
449.145;  943.252;  934.420;   76.230
449.736; 1152.879; 1153.325;   75.545
450.326; 1020.773; 1014.233;   67.945
450.917;  952.587;  936.599;   77.598
451.507;  838.612;  819.124;   68.027
452.097; 1066.247; 1058.278;   67.771
452.688; 1039.278; 1014.622;   62.884
453.278;  779.942;  721.137;   65.512
453.868; 1134.209; 1134.313;   71.796
454.458;  924.370;  893.373;   60.956
455.048; 1000.598;  964.832;   62.356
455.639;  787.483;  748.234;   58.782
456.229; 1009.168;  989.289;   65.209
456.819; 1056.400; 1018.237;   61.466
457.409; 1094.234; 1079.788;   59.967
457.999; 1039.263;  988.925;   58.093
458.589;  952.342;  918.161;   59.536
459.179; 1016.563;  973.751;   55.994
459.769;  871.394;  856.195;   43.624
460.358; 1127.114; 1085.479;   46.978
460.948;  971.293;  919.715;   49.821
461.538;  927.153;  863.295;   54.678
462.128;  930.518;  863.289;   49.309
462.717;  996.668;  928.264;   52.774
463.307;  995.986;  933.044;   48.101
463.897;  921.428;  861.993;   45.606
464.486; 1198.951; 1156.841;   45.010
465.076; 1044.114;  969.602;   45.519
465.666;  907.096;  831.624;   50.058
466.255; 1107.726; 1030.390;   44.463
466.845;  935.272;  849.901;   41.206
467.434; 1031.244;  950.392;   44.847
468.023;  923.003;  863.369;   46.760
468.613; 1020.042;  948.161;   39.736
469.202;  917.725;  855.736;   46.461
469.791; 1043.881;  933.729;   47.944
470.381; 1051.994;  960.466;   47.529
470.970; 1004.434;  881.886;   43.773
471.559; 1042.771;  945.198;   41.646
472.148;  960.090;  858.928;   37.914
472.738; 1089.439;  978.325;   48.071
473.327;  899.917;  791.784;   47.871
473.916; 1049.402;  942.765;   37.716
474.505; 1090.940;  944.879;   40.256
475.094; 1164.032;  997.580;   43.269
475.683; 1161.707; 1010.931;   36.499
476.272; 1060.492;  905.259;   44.542
476.861; 1031.856;  882.278;   42.297
477.449; 1071.017;  868.709;   46.878
478.038; 1019.812;  833.246;   35.156
478.627; 1057.379;  857.745;   42.514
479.216; 1169.212;  946.494;   43.937
479.805; 1199.177;  937.339;   51.393
480.393; 1568.363; 1309.147;   53.239
480.982; 1415.562; 1089.420;   38.955
481.571; 1438.278; 1037.116;   45.436
482.159; 1268.725;  847.958;   51.007
482.748; 1543.989;  972.176;   49.695
483.336; 1708.090; 1012.903;   48.280
483.925; 1731.325;  911.835;   47.166
484.513; 1870.029;  901.570;   55.404
485.102; 2165.368;  927.412;   54.238
485.690; 2760.497; 1254.449;   55.748
486.278; 3054.377; 1199.463;   55.934
486.867; 3170.019;  903.040;   57.106
487.455; 3898.145; 1071.168;   56.979
488.043; 4056.530;  802.273;   57.564
488.631; 5050.709; 1216.360;   57.432
489.220; 5575.497; 1054.796;   63.646
489.808; 6341.753;  770.368;   65.449
490.396; 7739.444;  995.515;   61.977
490.984; 8471.183;  856.554;   68.834
491.572; 9182.577; 1030.413;   70.775
492.160; 9550.180; 1006.273;   67.564
492.748;10353.059;  867.509;   66.808
493.336;12143.936; 1037.439;   79.747
493.924;14086.357;  841.930;   88.688
494.512;16203.479;  992.843;   84.120
495.100;17632.510; 1000.286;   86.250
495.687;18867.953; 1065.219;  103.074
496.275;20003.311;  851.914;  108.717
496.863;20858.900;  931.657;  107.035
497.451;21211.754;  887.971;  117.993
498.038;21806.277;  958.537;  120.116
498.626;23466.271;  912.048;  143.059
499.214;25766.877;  945.463;  153.434
499.801;26883.611;  934.394;  175.121
500.389;27043.934;  753.455;  185.617
500.976;27759.709; 1009.757;  215.789
501.564;28284.668;  960.486;  240.321
502.151;28261.580;  647.050;  267.007
502.738;28274.156;  868.426;  317.961
503.326;29347.922;  895.445;  361.216
503.913;30066.432;  919.728;  401.433
504.500;30515.248;  987.053;  446.492
505.088;32287.590;  807.804;  512.063
505.675;34787.336;  902.563;  586.387
506.262;36811.652;  915.037;  671.021
506.849;37522.641;  951.977;  759.062
507.436;37342.320; 1051.114;  849.788
508.023;36351.191;  938.481;  944.288
508.610;35828.625; 1018.859; 1020.690
509.197;36042.340;  976.572; 1089.052
509.784;37504.723;  944.148; 1133.776
510.371;38650.773;  737.999; 1165.501
510.958;39619.137;  957.473; 1251.735
511.545;39051.859; 1080.633; 1350.248
512.132;39699.527;  904.694; 1525.945
512.719;39109.281;  835.728; 1834.933
513.305;39335.480;  862.001; 1965.349
513.892;41103.953; 1072.641; 1963.265
514.479;41467.348;  952.796; 2046.446
515.066;42185.809; 1037.203; 2252.803
515.652;41890.980;  925.347; 2567.247
516.239;40822.551;  953.384; 2636.919
516.825;39589.684;  800.662; 2482.304
517.412;39831.566; 1213.626; 2427.031
517.998;37758.063;  906.171; 2540.463
518.585;35392.629;  899.050; 2609.007
519.171;35251.359;  948.930; 2842.088
519.758;34627.980;  821.744; 3090.703
520.344;36674.172; 1024.148; 3176.076
520.930;37855.777;  811.942; 3295.037
521.516;38975.867;  988.956; 3500.959
522.103;39263.230; 1067.570; 3736.704
522.689;39480.867;  898.313; 3971.022
523.275;39446.863; 1047.617; 4213.778
523.861;38277.336;  868.885; 4190.361
524.447;37022.785; 1062.009; 4070.602
525.033;37121.172; 1039.420; 4088.892
525.619;35995.371;  830.470; 4416.851
526.205;35138.984;  810.381; 4836.835
526.791;35393.340;  887.927; 4885.903
527.377;35673.242;  868.234; 4544.907
527.963;35854.457;  950.625; 4321.995
528.549;35377.660;  962.444; 4473.979
529.135;33812.047;  847.896; 4788.663
529.721;31725.033;  936.158; 4888.577
530.306;32256.463; 1231.444; 4775.779
530.892;32716.881;  857.224; 4793.906
531.478;34593.680;  848.174; 4956.948
532.063;35288.672;  830.024; 5136.936
532.649;35875.449; 1174.202; 5336.867
533.235;34777.195;  806.788; 5748.092
533.820;33726.730; 1024.678; 6456.875
534.406;32493.842;  872.110; 6590.167
534.991;32336.113;  830.221; 6179.622
535.576;30792.955;  890.145; 6098.691
536.162;29905.145; 1261.738; 6441.234
536.747;29965.598;  785.425; 6816.224
537.333;31512.678;  840.215; 6889.752
537.918;32481.867;  891.362; 7154.280
538.503;31159.848;  905.449; 7150.848
539.088;30830.688;  963.969; 7253.308
539.673;32389.273;  878.454; 7625.180
540.259;34058.699;  855.880; 8226.793
540.844;35911.820;  759.420; 8745.092
541.429;35255.012; 1121.766; 8762.553
542.014;33832.234;  778.737; 8871.497
542.599;33204.109;  970.509; 8886.008
543.184;32395.973;  825.504; 9079.139
543.769;32914.195;  859.648; 9076.182
544.354;32186.725;  891.281; 8354.081
544.938;30893.715;  968.428; 8236.809
545.523;29291.939; 1108.076; 8222.179
546.108;29937.207;  901.832; 8114.082
546.693;31045.301;  924.459; 8535.912
547.278;29967.602;  908.864; 9238.322
547.862;28509.564;  941.948; 9034.405
548.447;28121.076; 1008.265; 7795.011
549.031;27925.668;  856.115; 7485.099
549.616;28672.693;  928.061; 7626.308
550.201;29552.238;  900.795; 7627.909
550.785;30969.881; 1021.976; 7859.125
551.370;32442.172;  813.777; 7990.654
551.954;33446.152; 1030.121; 8196.468
552.538;33156.016;  982.808; 7959.495
553.123;32336.820;  848.619; 7964.826
553.707;33601.863;  887.073; 8515.957
554.291;34160.809; 1078.609; 8724.024
554.876;34618.090; 1036.449; 8524.211
555.460;32664.340;  884.879; 8704.456
556.044;31026.346;  897.070; 9141.473
556.628;30281.150;  944.013; 9250.197
557.212;29462.539; 1066.126; 9444.237
557.796;29287.531;  898.026; 9379.783
558.380;29894.908;  957.808; 9353.658
558.964;29932.771;  902.346; 9210.310
559.548;30077.645;  803.491; 8475.153
560.132;30338.947;  875.128; 7954.084
560.716;30439.404;  816.650; 7489.529
561.300;30018.361;  800.940; 7211.952
561.884;29957.395; 1005.367; 7141.313
562.467;29343.133;  992.506; 7155.386
563.051;28756.734;  922.440; 7323.158
563.635;27517.729;  867.745; 7709.114
564.219;25917.355;  923.328; 7678.855
564.802;25946.705; 1024.873; 7376.187
565.386;26976.695;  934.243; 7054.372
565.969;27869.078; 1071.819; 6589.196
566.553;28262.389; 1193.325; 6279.371
567.136;28056.871; 1061.926; 5967.930
567.720;27652.148;  926.054; 5660.703
568.303;28404.523;  949.480; 5648.615
568.887;29427.125;  965.810; 5618.443
569.470;29228.602;  971.815; 5411.875
570.053;27005.574;  999.356; 5149.274
570.637;25630.979;  870.472; 5122.798
571.220;25296.422; 1005.223; 4957.369
571.803;25469.031; 1192.051; 4933.018
572.386;26517.773;  888.529; 4840.973
572.969;27676.703;  885.047; 4592.886
573.552;28690.148;  918.781; 4348.387
574.135;27983.566;  817.537; 4002.290
574.718;25349.268;  832.437; 3654.773
575.301;24880.900;  857.021; 3502.288
575.884;24412.531;  881.605; 3349.803
576.467;26165.248; 1057.054; 3191.403
577.050;26548.814;  967.776; 3062.418
577.633;26414.975; 1134.033; 3214.200
578.216;27136.100;  896.435; 3284.889
578.799;28722.180;  910.101; 3189.777
579.381;29457.643; 1167.962; 3064.502
579.964;27970.213;  867.073; 2888.357
580.547;27549.375;  977.736; 2905.760
581.129;28244.328; 1111.770; 2966.849
581.712;28909.686;  988.466; 2887.292
582.294;29530.596;  919.120; 2771.631
582.877;28795.525; 1221.687; 2711.602
583.459;27531.861;  935.321; 2577.049
584.042;27533.895;  899.269; 2454.707
584.624;27744.246;  853.649; 2305.893
585.206;28252.988;  785.474; 2189.546
585.789;27167.324;  898.836; 2112.577
586.371;25668.461;  969.594; 2153.065
586.953;24414.455; 1021.626; 2197.806
587.536;23585.400; 1088.435; 2105.489
588.118;24316.986;  931.218; 1963.911
588.700;26054.953; 1111.122; 1843.179
589.282;26401.162; 1016.049; 1813.834
589.864;26695.293;  953.888; 1777.620
590.446;25765.166;  748.132; 1733.780
591.028;25051.678;  939.646; 1676.008
591.610;25283.994;  760.046; 1631.649
592.192;25588.953;  960.022; 1632.362
592.774;24852.539;  839.004; 1569.507
593.356;24675.688;  841.549; 1524.539
593.937;23765.715;  861.429; 1569.720
594.519;24593.885; 1040.862; 1569.049
595.101;25330.363;  805.801; 1545.452
595.683;26510.572;  851.431; 1607.568
596.264;26809.467;  929.810; 1615.506
596.846;26956.465;  905.082; 1667.622
597.427;26984.473;  909.258; 1670.469
598.009;27232.447;  866.402; 1640.312
598.591;26638.121; 1014.174; 1541.022
599.172;25564.166;  893.686; 1598.665
599.753;25360.162;  799.074; 1619.068
600.335;26095.242; 1122.137; 1548.612
600.916;26222.336;  941.392; 1607.510
601.498;26244.139; 1023.499; 1745.181
602.079;26205.773;  935.035; 1801.011
602.660;24573.004;  928.651; 1834.640
603.241;23350.834;  722.515; 1787.351
603.823;24102.900;  864.237; 1684.266
604.404;25052.266;  799.835; 1654.241
604.985;26515.693;  887.294; 1758.741
605.566;27161.814; 1046.305; 1697.679
606.147;27062.873;  925.134; 1526.728
606.728;27924.391;  836.633; 1484.086
607.309;27634.396;  871.452; 1421.070
607.890;26885.801;  855.064; 1369.867
608.471;25925.135;  851.664; 1277.826
609.051;26140.389;  962.351; 1180.416
609.632;26500.609;  833.892; 1075.816
610.213;27082.441;  945.137; 1053.313
610.794;28355.961;  914.570;  979.442
611.374;27798.098;  986.055;  917.414
611.955;27270.029;  787.275;  819.987
612.536;27683.406;  957.032;  752.627
613.116;27538.293;  890.517;  690.799
613.697;27448.732;  879.483;  674.974
614.277;26307.475;  836.060;  663.846
614.858;25522.832;  844.334;  665.898
615.438;25988.535;  952.045;  660.712
616.019;26205.514; 1122.257;  632.732
616.599;27369.416;  743.761;  551.759
617.179;28982.996;  820.278;  512.871
617.760;28747.182; 1246.730;  473.655
618.340;28161.107;  911.834;  440.004
618.920;28646.059; 1125.338;  429.731
619.500;27531.707;  871.057;  441.361
620.080;27330.813;  846.273;  425.202
620.660;27893.842;  850.262;  408.164
621.241;27680.635;  881.690;  387.161
621.821;26973.916;  921.811;  378.017
622.401;27069.547; 1047.378;  379.188
622.980;28679.383;  816.739;  350.019
623.560;28988.797;  895.427;  336.446
624.140;26730.670;  951.299;  336.473
624.720;26025.799;  969.758;  334.974
625.300;27056.043;  872.443;  325.717
625.880;27616.639;  906.831;  308.519
626.459;26491.633;  935.086;  307.117
627.039;26099.514;  772.306;  290.890
627.619;27236.250; 1199.288;  286.635
628.198;27737.055; 1076.553;  282.535
628.778;28524.598; 1015.758;  285.474
629.357;29151.201;  846.916;  284.103
629.937;28488.795;  879.973;  292.178
630.516;27877.938; 1141.724;  290.749
631.096;27228.930;  867.929;  285.489
631.675;27475.734; 1119.219;  287.022
632.254;26987.924;  880.308;  286.038
632.834;27839.449;  930.560;  276.451
633.413;28011.848; 1104.254;  279.447
633.992;27990.477; 1077.416;  264.508
634.571;28196.521; 1012.978;  271.010
635.151;28181.313;  806.125;  277.338
635.730;27863.846;  933.477;  289.305
636.309;27588.818;  997.671;  285.306
636.888;28410.043;  994.469;  254.051
637.467;28551.736;  756.873;  230.324
638.046;28907.775; 1090.540;  253.349
638.625;28425.113; 1107.456;  246.866
639.204;27559.920;  989.424;  240.825
639.782;27899.543;  940.221;  261.970
640.361;27825.742; 1094.706;  277.780
640.940;27008.016;  834.595;  270.101
641.519;27126.541; 1024.484;  248.622
642.097;27347.316; 1000.373;  239.843
642.676;27393.941;  944.261;  244.264
643.255;27898.016;  904.150;  234.985
643.833;28949.141; 1016.039;  244.406
644.412;29563.266;  846.928;  244.927
644.990;29490.689;  920.817;  249.948
645.569;29621.516; 1018.706;  249.569
646.147;29670.840; 1056.594;  243.290
646.726;29500.314;  978.483;  249.511
647.304;29258.639;  913.372;  228.032
647.882;29540.764;  782.261;  214.552
648.461;29436.139;  949.150;  214.973
649.039;28436.363; 1036.038;  223.394
649.617;27485.238; 1006.927;  261.415
650.195;27315.313;  954.816;  298.736
650.773;27132.139;  898.705;  309.557
651.352;26914.113;  748.594;  297.978
651.930;26481.088;  739.482;  289.399
652.508;26175.412; 1019.371;  285.620
653.086;25175.637; 1003.260;  272.241
653.663;25915.012;  843.149;  265.062
654.241;26909.688;  800.038;  286.083
654.819;26971.662;  820.926;  286.404
655.397;27614.787;  872.815;  291.825
655.975;28887.111;  922.704;  299.145
656.553;29146.236; 1102.593;  288.866
657.130;28318.711;  867.482;  304.087
657.708;28832.936;  969.370;  302.908
658.286;28977.311;  979.259;  294.629
658.863;28547.285;  964.148;  293.350
659.441;28172.711;  972.037;  318.671
660.018;28894.385;  948.926;  333.692
660.596;30001.061;  759.814;  335.013
661.173;30540.535;  876.703;  371.534
661.750;29751.209;  874.592;  365.155
662.328;28812.434;  990.481;  349.976
662.905;26872.910;  887.370;  332.997
663.482;26368.885;  912.258;  321.717
664.060;27030.559;  847.147;  314.438
664.637;27195.633; 1000.036;  306.259
665.214;27775.508;  939.925;  314.580
665.791;29079.334;  873.814;  334.501
666.368;29637.008;  884.703;  329.222
666.945;29091.732; 1005.591;  342.143
667.522;28656.658;  874.480;  370.964
668.099;29319.082;  918.369;  396.885
668.676;29271.008;  917.258;  391.706
669.253;28678.432; 1118.146;  369.627
669.830;27711.156; 1087.035;  360.348
670.407;27873.432;  906.924;  344.769
670.984;27479.957;  920.813;  322.890
671.560;27253.932; 1006.702;  316.910
672.137;26553.307;  872.591;  322.531
672.714;28282.281;  993.479;  318.552
673.290;29760.256;  975.368;  324.473
673.867;28399.881;  884.257;  340.594
674.443;27596.955;  837.146;  319.515
675.020;28233.180;  962.035;  286.336
675.596;27812.455;  927.923;  247.557
676.173;27806.430;  800.812;  227.778
676.749;29033.055;  709.701;  224.399
677.326;28510.129;  771.590;  230.520
677.902;29053.404;  866.479;  241.841
678.478;29181.629;  821.367;  239.762
679.054;29506.904; 1349.256;  248.583
679.631;28663.129;  948.145;  237.503
680.207;29645.104; 1137.034;  245.924
680.783;29441.027;  735.923;  224.845
681.359;30257.504;  865.811;  209.666
681.935;31750.479;  933.700;  191.687
682.511;32596.752;  974.589;  210.008
683.087;31738.078;  983.478;  213.329
683.663;29912.852;  868.367;  216.850
684.239;29520.877;  809.255;  229.471
684.815;30136.053; 1043.144;  248.792
685.390;31533.176; 1204.033;  231.813
685.966;30757.951;  923.922;  221.234
686.542;29648.676;  832.811;  214.255
687.118;29657.551;  940.699;  212.276
687.693;29811.176;  983.588;  233.096
688.269;29571.400;  888.477;  246.917
688.844;30301.676;  984.366;  236.938
689.420;30631.150;  916.255;  242.059
689.995;30731.426; 1124.144;  245.480
690.571;30403.900; 1110.032;  244.701
691.146;31158.074;  895.921;  251.922
691.722;30531.650; 1005.810;  284.743
692.297;30269.174;  909.699;  320.664
692.872;30326.898;  827.588;  313.885
693.448;29818.324;  788.476;  290.106
694.023;29264.049;  953.365;  304.327
694.598;29002.324;  942.254;  319.648
695.173;29368.549;  870.143;  323.169
695.748;28531.373;  765.032;  376.389
696.323;28124.549;  925.920;  397.610
696.898;27265.373; 1087.809;  430.231
697.473;26593.598;  726.698;  454.952
698.048;27396.922;  870.587;  478.973
698.623;29168.146;  781.476;  477.094
699.198;31230.771;  932.364;  496.915
699.773;32073.496;  845.253;  490.236
700.348;31291.221;  838.142;  519.957
700.922;31474.596;  938.031;  575.678
701.497;31510.771;  885.920;  621.399
702.072;30994.797;  984.808;  664.420
702.646;32410.320;  981.697;  690.541
703.221;32583.695;  959.586;  748.862
703.795;32492.371;  829.475;  774.282
704.370;31711.645;  667.364;  799.803
704.944;30371.869;  905.252;  875.824
705.519;29923.795;  977.141;  902.945
706.093;31667.719;  844.030;  889.266
706.668;33019.895; 1028.919;  903.487
707.242;31284.719;  967.808;  881.708
707.816;29974.295;  862.696;  892.329
708.390;28667.068;  908.585;  970.250
708.965;28148.344;  948.474;  984.671
709.539;28733.418;  898.363; 1026.092
710.113;29265.293;  914.252; 1067.913
710.687;30315.518;  975.141; 1166.434
711.261;30071.893;  818.029; 1190.854
711.835;29307.068;  805.918; 1197.275
712.409;28314.842;  790.807; 1308.096
712.983;28707.918;  754.696; 1461.617
713.557;30109.941;  741.585; 1611.838
714.131;30465.666;  870.473; 1554.359
714.704;31319.441;  838.362; 1520.780
715.278;31764.166;  947.251; 1575.101
715.852;30894.342;  985.140; 1689.822
716.425;29645.365; 1094.029; 1829.143
716.999;29735.791;  720.917; 2008.664
717.573;30712.016; 1020.806; 2000.485
718.146;32088.740; 1094.695; 1914.506
718.720;32328.365;  927.584; 1818.026
719.293;31288.391;  990.473; 1734.147
719.867;30268.865;  853.361; 1716.968
720.440;30348.391; 1043.250; 1918.589
721.013;30374.064;  894.139; 1975.410
721.587;30198.789;  757.028; 2073.331
722.160;30591.363; 1001.917; 2357.852
722.733;28970.639;  951.805; 2657.073
723.306;29203.564;  908.694; 2703.894
723.880;30080.039;  941.583; 2549.415
724.453;29848.113; 1061.472; 2414.336
725.026;28891.738;  833.361; 2298.557
725.599;28000.813;  962.249; 2168.778
726.172;29196.338; 1033.138; 2106.099
726.745;29238.563;  933.027; 2253.320
727.318;28307.238; 1016.916; 2404.740
727.891;27509.813;  950.805; 2680.161
728.463;27527.438;  953.693; 2838.882
729.036;27304.262;  852.582; 2755.103
729.609;26366.137;  826.471; 2731.824
730.182;27598.361;  980.360; 2855.645
730.754;27919.836;  667.249; 2946.866
731.327;29090.912;  959.138; 2840.187
731.900;29160.285;  778.026; 2647.608
732.472;28513.012;  910.915; 2473.929
733.045;27292.186;  875.804; 2445.750
733.617;26701.611;  775.693; 2511.771
734.190;27142.035;  951.582; 2581.592
734.762;28139.760;  912.470; 2710.813
735.334;28530.734;  941.359; 3005.733
735.907;28972.311;  931.248; 3154.954
736.479;28942.684; 1027.137; 3171.675
737.051;28133.260; 1001.026; 3217.496
737.623;28684.635; 1017.914; 3246.217
738.195;29016.709;  863.803; 2985.238
738.768;28200.334;  718.692; 2727.559
739.340;28455.008;  854.581; 2666.880
739.912;27378.584; 1011.470; 2769.601
740.484;26233.607;  980.358; 2731.422
741.056;25654.982;  899.247; 2963.043
741.628;26049.008;  778.136; 3361.364
742.199;26904.982; 1058.025; 3641.185
742.771;25776.258;  762.914; 3932.005
743.343;26385.982;  828.802; 4319.926
743.915;26821.857;  966.691; 4706.647
744.487;26351.682; 1007.580; 4874.968
745.058;26341.707;  973.469; 4616.589
745.630;26446.682;  996.358; 4253.410
746.201;26268.506;  835.246; 4056.131
746.773;26100.480;  988.135; 3772.952
747.344;26391.307;  874.024; 3642.473
747.916;24998.531;  926.913; 3752.294
748.487;24386.656;  956.802; 4106.215
749.059;24181.580;  797.690; 4457.835
749.630;25888.756;  840.579; 4366.457
750.201;26313.529;  887.468; 4600.078
750.773;25272.504;  829.357; 4658.499
751.344;25584.930;  914.246; 4609.319
751.915;25758.205;  891.134; 4526.440
752.486;26317.279;  816.023; 4536.061
753.057;27106.055;  909.912; 4383.282
753.628;26817.129;  840.801; 4296.503
754.199;25863.053;  860.690; 4383.224
754.770;25031.578;  969.578; 4653.545
755.341;25059.754;  987.467; 4831.666
755.912;25038.928;  894.356; 4831.387
756.483;24820.902;  928.245; 4735.808
757.054;24148.127;  866.134; 4685.029
757.625;24688.002;  774.023; 4994.250
758.195;26077.877;  772.911; 5051.471
758.766;25051.053;  926.800; 5317.792
759.337;24320.176;  729.689; 5646.512
759.907;25797.902;  788.578; 5404.133
760.478;26250.775;  886.467; 5090.954
761.048;26302.801;  985.355; 4871.175
761.619;26026.977;  946.244; 4589.396
762.189;25480.102;  908.133; 4171.317
762.760;24827.926; 1013.022; 3872.538
763.330;24275.451;  977.911; 3832.259
763.900;24565.275;  919.799; 4150.180
764.471;24869.150;  809.688; 4529.801
765.041;26209.824; 1042.577; 4715.922
765.611;26717.350;  977.466; 4681.442
766.181;28536.225;  903.355; 4717.063
766.751;28588.949;  902.243; 4710.285
767.321;27344.975;  761.132; 4450.305
767.891;27860.248;  934.021; 4274.126
768.461;26261.473;  918.910; 4215.047
769.031;25688.299;  895.799; 4173.068
769.601;24962.623; 1035.688; 4174.689
770.171;23346.299;  768.576; 4229.310
770.741;23633.473;  835.465; 4352.031
771.311;25354.697;  971.354; 4336.652
771.880;25996.822;  788.243; 4300.873
772.450;25791.047;  836.131; 4387.194
773.020;25020.922;  736.020; 4220.415
773.589;24953.098;  831.909; 4075.835
774.159;25126.021;  801.798; 4105.756
774.729;25689.646;  821.687; 4114.978
775.298;24439.422;  831.576; 3693.298
775.867;23884.445;  835.464; 3343.119
776.437;23642.121;  919.353; 3062.040
777.006;22662.646;  794.242; 2927.161
777.576;22578.971;  948.131; 3046.482
778.145;22455.145;  941.020; 3230.203
778.714;23075.721;  868.908; 3253.324
779.283;23611.945;  970.797; 3129.745
779.853;23336.320;  874.686; 2983.566
780.422;22993.195;  881.575; 2929.887
780.991;23015.270;  945.464; 2863.908
781.560;22070.943; 1057.352; 2948.029
782.129;21752.568;  916.241; 3074.149
782.698;22517.395; 1040.130; 2893.970
783.267;21110.918;  846.019; 2721.391
783.836;21315.893;  893.908; 2659.712
784.404;21020.018;  777.796; 2622.233
784.973;20856.143;  664.685; 2600.754
785.542;20703.268;  868.574; 2528.475
786.111;20865.893; 1057.463; 2404.396
786.679;21600.867;  951.352; 2365.717
787.248;20987.992;  747.240; 2498.438
787.817;21043.367;  861.129; 2645.659
788.385;21164.342; 1043.018; 2709.280
788.954;20109.666;  750.907; 2620.500
789.522;20286.191;  935.796; 2625.422
790.090;20928.166;  773.684; 2743.843
790.659;21355.541;  846.573; 2635.163
791.227;20860.766;  901.462; 2495.484
791.795;20236.240;  905.351; 2413.705
792.364;20022.316;  810.240; 2345.326
792.932;20200.590;  949.128; 2350.447
793.500;19826.416;  855.017; 2429.768
794.068;19497.590;  754.906; 2513.589
794.636;19125.814;  848.795; 2664.310
795.204;17911.639;  768.684; 2721.431
795.772;17427.164;  818.573; 2802.052
796.340;17609.488;  829.461; 2847.173
796.908;18478.465;  705.350; 2997.194
797.476;18217.939;  786.239; 3151.615
798.044;17896.363;  722.128; 3110.735
798.612;18093.039;  887.017; 2931.656
799.180;17607.264;  887.905; 2785.777
799.747;17456.037;  875.794; 2899.098
800.315;17847.764;  782.683; 2955.519
800.883;17215.238;  718.572; 2948.940
801.450;15753.112;  862.461; 2965.361
802.018;15677.837;  901.349; 3070.582
802.585;15272.712;  889.238; 3156.103
803.153;15609.437;  826.127; 3199.524
803.720;16461.711;  852.016; 3168.845
804.287;16468.186;  881.905; 3248.366
804.855;16219.961;  985.793; 3406.187
805.422;15831.886;  849.682; 3430.907
805.989;15566.811;  775.571; 3453.528
806.556;15668.086;  834.460; 3612.649
807.124;16398.510;  953.349; 3736.570
807.691;15671.085;  787.237; 3770.491
808.258;15638.410;  881.126; 3705.012
808.825;15847.185;  992.015; 3828.733
809.392;15105.810; 1015.904; 3986.754
809.959;14327.334;  912.793; 4410.075
810.526;14266.109; 1097.681; 4774.996
811.093;14458.484; 1006.570; 4754.217
811.659;14482.309;  874.459; 4661.238
812.226;14788.233;  854.348; 4672.559
812.793;15138.158;  888.237; 4822.979
813.360;14529.383;  881.125; 5189.800
813.926;15033.058;  909.014; 5310.622
814.493;15275.333;  734.903; 5414.542
815.060;14585.808;  702.792; 5548.963
815.626;14253.732;  759.681; 5452.284
816.193;14482.558;  900.570; 5339.305
816.759;15131.932;  798.458; 5544.426
817.325;15446.457;  739.347; 5706.547
817.892;14529.981;  989.236; 5623.468
818.458;14222.106;  893.125; 5586.689
819.024;14121.882; 1016.014; 5647.910
819.591;13626.756;  850.902; 5762.031
820.157;13768.881;  774.791; 6284.452
820.723;14073.906;  891.680; 6906.973
821.289;14467.831; 1325.569; 7086.894
821.855;14289.155;  939.458; 7054.915
822.421;14352.730;  838.346; 7112.035
822.987;14778.605;  764.235; 7256.156
823.553;14420.130;  839.124; 7538.077
824.119;13412.104;  980.013; 7594.298
824.685;13256.630; 1068.902; 7613.619
825.251;13158.854;  923.790; 7644.140
825.816;12892.029; 1076.679; 7720.261
826.382;12628.554;  968.568; 8014.282
826.948;12667.879;  980.457; 8281.503
827.513;12501.504;  835.346; 8289.624
828.079;12788.528;  806.234; 8587.045
828.645;13577.854;  983.123; 8821.865
829.210;13295.028;  789.012; 9054.486
829.776;13469.703;  908.901; 9054.607
830.341;12823.978;  943.790; 9415.628
830.906;12333.202;  981.678; 9932.449
831.472;11921.427;  805.567;10150.271
832.037;12332.652;  966.456; 9420.391
832.602;11704.727;  830.345; 8664.912
833.167;11879.852;  900.234; 8491.933
833.733;11763.677;  995.122; 8872.854
834.298;11669.352;  777.011; 9370.575
834.863;11240.776;  924.900; 9610.695
835.428;11297.201;  932.789; 9655.616
835.993;11458.376;  951.678; 9437.838
836.558;10880.150;  937.566; 9441.459
837.123;10977.976; 1148.455; 9600.979
837.688;10453.350;  906.344; 9798.301
838.253;10456.725;  924.233; 9902.921
838.817;10605.399;  871.122;10339.742
839.382;10957.274;  980.010;10548.363
839.947;11185.199;  899.899;10252.484
840.511;11315.474; 1052.788;10040.005
841.076;10602.949;  683.677;10099.926
841.641;10514.974;  932.566;10347.347
842.205;10418.398;  891.455;10817.368
842.770;10399.224; 1071.343;11435.289
843.334; 9998.948;  875.232;12072.409
843.898; 9960.573;  835.121;12635.431
844.463;10098.798; 1055.010;12537.252
845.027; 9771.423;  860.899;12759.673
845.591; 9939.797;  970.787;12821.993
846.156; 9657.272;  822.676;12520.914
846.720; 9757.146;  972.565;12390.436
847.284; 9612.321;  910.454;12956.456
847.848; 9966.597;  931.343;13240.177
848.412; 9450.671;  906.231;13216.998
848.976; 9676.996; 1048.120;13014.619
849.540; 9402.471; 1129.009;12355.740
850.104; 9104.646; 1043.898;12208.761
850.668; 8836.721;  707.787;12106.882
851.232; 8669.346;  733.675;11862.103
851.796; 8826.920;  910.564;11700.523
852.359; 8793.345; 1004.453;12375.944
852.923; 8495.520;  994.342;13087.966
853.487; 8639.795;  944.231;13297.187
854.050; 8291.869;  611.119;13851.207
854.614; 8000.394;  875.008;14854.229
855.177; 7979.919;  943.897;15802.149
855.741; 7989.694;  938.786;16603.570
856.304; 7919.869;  955.675;16359.891
856.868; 7511.644;  791.563;14365.512
857.431; 7676.818;  889.452;13361.333
857.995; 7660.643;  879.341;14130.554
858.558; 7494.268;  899.230;14883.175
859.121; 7480.792; 1003.119;15754.195
859.684; 7215.268;  887.008;15995.017
860.247; 7042.642;  909.896;15149.537
860.810; 7109.117;  852.785;14640.358
861.374; 7196.942; 1156.674;15551.079
861.937; 6884.417;  772.563;16519.801
862.500; 7160.691;  832.452;16796.521
863.062; 6894.716;  818.340;16538.742
863.625; 6707.641;  935.229;16716.764
864.188; 6439.216;  835.118;17055.084
864.751; 6683.041;  861.007;17197.705
865.314; 6722.766;  904.896;17151.625
865.876; 6459.640;  963.784;17783.547
866.439; 6388.765;  960.673;19283.467
867.002; 6449.090; 1154.562;20256.389
867.564; 6340.915; 1029.451;20485.410
868.127; 5831.589;  877.340;20789.730
868.689; 5690.614;  928.228;21981.951
869.252; 5856.739; 1005.117;23803.771
869.814; 5559.314;  794.006;24974.094
870.377; 5651.939;  904.895;24690.314
870.939; 6132.764; 1264.784;23963.436
871.501; 5603.088;  934.672;25167.156
872.063; 5186.413;  664.561;26995.477
872.626; 5171.538;  731.450;27443.098
873.188; 5509.263;  906.339;26718.418
873.750; 5289.288;  870.228;26558.840
874.312; 5104.563;  849.116;26701.561
874.874; 5300.837; 1076.005;27970.582
875.436; 5064.312;  945.894;29173.402
875.998; 4963.437; 1030.783;30376.623
876.560; 4777.711;  986.672;32507.344
877.122; 4576.586;  806.560;34833.066
877.683; 4486.161;  965.449;36458.285
878.245; 4209.536;  830.338;37248.207
878.807; 4141.011;  923.227;36758.027
879.369; 3903.586;  785.116;35223.551
879.930; 3960.210;  777.005;33824.969
880.492; 4096.535; 1017.893;34436.492
881.053; 3861.510;  804.782;37745.313
881.615; 3875.485;  838.671;41184.633
882.176; 3764.060;  871.560;42871.555
882.738; 3834.435;  973.449;41693.074
883.299; 3444.009;  694.337;40289.895
883.860; 3404.134;  725.226;39231.215
884.422; 3629.109;  954.115;38264.039
884.983; 3346.784;  773.004;37171.859
885.544; 3336.158;  945.893;35842.379
886.105; 3198.933;  883.781;34810.000
886.666; 3054.058;  851.670;34519.020
887.227; 2806.183;  731.559;33905.641
887.788; 2887.208;  905.448;34502.965
888.349; 2702.333;  759.337;34241.785
888.910; 2828.707;  932.225;33722.203
889.471; 2730.982;  914.114;32539.625
890.032; 2623.907;  902.003;31528.346
890.593; 2603.182;  940.892;32655.068
891.153; 2437.757;  855.781;33882.289
891.714; 2244.331;  712.669;33318.711
892.275; 2194.856;  749.558;31848.930
892.835; 2357.381; 1003.447;30339.752
893.396; 2312.256;  976.336;30074.973
893.956; 2070.681;  838.225;30338.393
894.517; 2071.105;  918.113;30864.113
895.077; 2066.980;  917.002;29766.734
895.638; 2137.255; 1067.891;26379.557
896.198; 1785.580;  789.780;24056.277
896.758; 1909.355;  958.669;22961.898
897.319; 1753.229;  874.557;21772.020
897.879; 1755.054;  874.446;20877.539
898.439; 1583.229;  741.335;19509.461
898.999; 1738.854;  928.224;17297.582
899.559; 1703.679;  917.113;14712.002
900.119; 1528.004;  789.002;12790.224
900.679; 1771.178; 1034.890;11586.744
901.239; 1655.103;  971.779;10776.465
901.799; 1558.028;  871.668; 9691.687
902.359; 1439.203;  773.557; 8725.907
902.919; 1401.878;  781.446; 8305.728
903.479; 1391.452;  780.334; 8172.649
904.038; 1342.677;  767.223; 7913.870
904.598; 1209.802;  671.112; 7262.291
905.158; 1371.227;  806.001; 6609.012
905.717; 1402.202;  857.890; 6236.133
906.277; 1402.476;  860.778; 5829.054
906.836; 1445.651;  910.667; 5396.674
907.396; 1433.426;  930.556; 4964.195
907.955; 1431.551;  971.445; 4528.917
908.515; 1337.026;  849.334; 4223.837
909.074; 1338.400;  863.222; 4023.958
909.633; 1333.975;  840.111; 4065.379
910.192; 1550.950; 1082.000; 4066.300
910.752; 1319.150;  810.000; 3971.600
911.311; 1298.900;  815.000; 3839.600
911.870; 1262.400;  798.000; 3684.500
912.429; 1459.450;  993.000; 3635.600
912.988; 1438.200;  974.000; 3689.800
913.547; 1238.000;  780.000; 3737.700
914.106; 1346.300;  872.000; 3740.300
914.665; 1333.100;  912.000; 3604.600
915.224; 1423.150;  959.000; 3358.700
915.782; 1254.300;  808.000; 3188.400
916.341; 1449.750; 1023.000; 3091.400
916.900; 1274.700;  879.000; 3044.800
917.458; 1215.750;  803.000; 2888.600
918.017; 1302.100;  874.000; 2818.900
918.576; 1278.750;  839.000; 2838.600
919.134; 1162.500;  742.000; 2880.100
919.693; 1266.400;  822.000; 2996.300
920.251; 1242.050;  802.000; 3183.100
920.809; 1185.450;  742.000; 3247.000
921.368; 1262.750;  820.000; 3156.600
921.926; 1196.500;  786.000; 2964.900
922.484; 1284.800;  874.000; 2846.300
923.042; 1260.800;  836.000; 2890.400
923.601; 1449.350; 1034.000; 2987.700
924.159; 1353.550;  937.000; 3049.800
924.717; 1201.400;  786.000; 3087.000
925.275; 1298.600;  852.000; 3093.400
925.833; 1113.700;  695.000; 3182.400
926.391; 1351.050;  936.000; 3397.900
926.949; 1233.600;  791.000; 3575.400
927.506; 1323.150;  886.000; 3713.400
928.064; 1271.100;  813.000; 3871.300
928.622; 1284.350;  826.000; 4092.800
929.180; 1186.750;  761.000; 4499.300
929.737; 1168.750;  726.000; 4813.200
930.295; 1344.450;  960.000; 5084.100
930.853; 1225.850;  761.000; 5185.000
931.410; 1181.850;  748.000; 5313.100
931.968; 1371.800;  945.000; 5339.600
932.525; 1328.800;  888.000; 5399.900
933.082; 1178.450;  717.000; 5457.500
933.640; 1351.650;  879.000; 5692.900
934.197; 1285.850;  781.000; 5821.200
934.754; 1288.050;  833.000; 5617.900
935.312; 1237.150;  777.000; 5512.400
935.869; 1469.550;  973.000; 5582.400
936.426; 1255.050;  766.000; 5650.100
936.983; 1280.700;  807.000; 5657.400
937.540; 1196.150;  715.000; 5564.300
938.097; 1367.050;  903.000; 5574.000
938.654; 1299.350;  811.000; 5665.900
939.211; 1380.600;  890.000; 5931.600
939.768; 1323.150;  860.000; 6153.600
940.324; 1297.350;  784.000; 6397.600
940.881; 1263.350;  792.000; 6454.200
941.438; 1465.700; 1026.000; 6206.900
941.995; 1422.650;  914.000; 6003.900
942.551; 1228.800;  767.000; 6228.300
943.108; 1343.800;  869.000; 6603.500
943.664; 1251.100;  779.000; 7188.100
944.221; 1553.550; 1068.000; 7579.900
944.777; 1206.850;  700.000; 7658.100
945.334; 1228.100;  736.000; 7670.400
945.890; 1321.350;  847.000; 7525.100
946.446; 1307.750;  840.000; 7261.500
947.003; 1334.100;  897.000; 6949.200
947.559; 1483.900; 1007.000; 6773.100
948.115; 1429.600; 1001.000; 6668.400
948.671; 1335.700;  850.000; 6488.400
949.227; 1172.250;  719.000; 6236.600
949.783; 1156.000;  687.000; 6008.900
950.339; 1375.200;  936.000; 5934.100
950.895; 1425.850;  933.000; 5933.500
951.451; 1273.650;  788.000; 6074.700
952.007; 1402.800;  886.000; 6066.400
952.563; 1288.800;  822.000; 5884.100
953.118; 1252.150;  791.000; 5733.800
953.674; 1301.350;  831.000; 5734.300
954.230; 1317.000;  851.000; 6039.700
954.785; 1301.250;  850.000; 6383.500
955.341; 1391.000;  918.000; 6568.200
955.897; 1161.050;  680.000; 6488.600
956.452; 1353.150;  878.000; 6239.200
957.008; 1551.250; 1108.000; 5954.600
957.563; 1432.000;  958.000; 5816.700
958.118; 1219.100;  782.000; 5828.200
958.674; 1314.400;  869.000; 5717.400
959.229; 1422.900;  996.000; 5506.800
959.784; 1153.350;  733.000; 5292.200
960.339; 1417.350;  996.000; 5101.900
960.894; 1352.700;  942.000; 5093.200
961.449; 1187.450;  789.000; 5227.900
962.004; 1738.800; 1299.000; 5349.300
962.559; 1209.800;  791.000; 5514.900
963.114; 1025.300;  591.000; 5717.300
963.669; 1274.450;  854.000; 5841.400
964.224; 1222.200;  787.000; 5805.900
964.779; 1159.050;  722.000; 5723.400
965.334; 1439.000; 1014.000; 5779.500
965.888; 1227.550;  796.000; 5948.500
966.443; 1363.100;  952.000; 6344.200
966.998; 1125.700;  712.000; 6666.300
967.552; 1273.550;  840.000; 6710.100
968.107; 1215.050;  774.000; 6593.500
968.661; 1297.600;  901.000; 6344.100
969.216; 1184.750;  759.000; 6062.400
969.770; 1289.950;  859.000; 5785.500
970.324; 1289.450;  877.000; 5426.800
970.879; 1326.950;  920.000; 5016.800
971.433; 1343.100;  955.000; 4904.500
971.987; 1262.650;  858.000; 4991.000
972.541; 1292.950;  912.000; 4978.500
973.095; 1424.700; 1043.000; 4832.000
973.649; 1102.000;  749.000; 4767.900
974.203; 1160.350;  762.000; 4881.200
974.757; 1187.500;  800.000; 4969.500
975.311; 1213.650;  811.000; 4953.000
975.865; 1229.650;  832.000; 4884.300
976.419; 1204.300;  789.000; 4739.800
976.973; 1189.250;  808.000; 4698.100
977.526; 1329.450;  949.000; 4631.100
978.080; 1096.850;  722.000; 4621.600
978.634; 1280.650;  911.000; 4650.200
979.187; 1259.500;  919.000; 4669.200
979.741; 1440.100; 1057.000; 4658.000
980.294; 1081.750;  751.000; 4579.100
980.848;  983.000;  620.000; 4452.800
981.401; 1133.800;  806.000; 4271.900
981.955; 1186.000;  852.000; 4087.800
982.508; 1035.150;  689.000; 3973.900
983.061; 1292.600;  934.000; 3928.600
983.615; 1105.650;  789.000; 3851.200
984.168; 1063.300;  718.000; 3734.800
984.721; 1221.200;  865.000; 3628.300
985.274; 1191.400;  889.000; 3564.300
985.827; 1153.550;  854.000; 3558.100
986.380;  990.000;  671.000; 3559.900
986.933; 1207.000;  902.000; 3688.700
987.486; 1197.750;  911.000; 3778.500
988.039; 1191.000;  899.000; 3559.900
988.591; 1255.000;  964.000; 3219.300
989.144; 1010.800;  690.000; 2902.900
989.697; 1056.500;  780.000; 2722.600
990.250; 1203.150;  890.000; 2618.000
990.802; 1042.900;  754.000; 2523.900
991.355; 1388.150; 1135.000; 2436.500
991.907; 1215.425;  960.000; 2412.200
992.460; 1042.700;  785.000; 2387.900
993.012; 1046.900;  794.000; 2365.800
993.565;  969.400;  730.000; 2311.100
994.117; 1335.750; 1118.000; 2308.700
994.669;  975.750;  736.000; 2249.300
995.221; 1116.000;  893.000; 2158.100
995.774; 1102.850;  864.000; 2085.600
996.326; 1034.450;  818.000; 2068.100
996.878; 1172.500; 1002.000; 1975.300
997.430;  974.150;  769.000; 1929.500
997.982; 1047.850;  841.000; 1861.900
998.534; 1039.200;  847.000; 1830.200
999.086; 1030.100;  854.000; 1823.200
999.638;  920.700;  696.000; 1815.000
1000.190;  992.600;  749.000; 1796.600
1000.741; 1043.800;  843.000; 1738.800
1001.293;  958.450;  792.000; 1666.200
1001.845;  951.700;  746.000; 1566.500
1002.396; 1044.750;  851.000; 1471.900
1002.948; 1043.500;  865.000; 1398.000
1003.500; 1013.950;  846.000; 1356.500
1004.051; 1308.400; 1121.000; 1294.200
1004.603; 1135.700;  978.000; 1190.000
1005.154;  845.150;  708.000; 1063.900
1005.705; 1016.350;  889.000;  968.300
1006.257; 1002.250;  858.000;  889.800
1006.808;  963.450;  811.000;  801.500
1007.359; 1091.600;  930.000;  716.400
1007.910;  913.200;  831.000;  639.100
1008.461; 1038.300;  919.000;  561.600
1009.013;  823.100;  722.000;  500.400
1009.564; 1130.300; 1032.000;  476.100
1010.115;  831.200;  714.000;  431.600
1010.665;  839.800;  740.000;  409.300
1011.216;  939.950;  818.000;  399.700
1011.767;  983.250;  860.000;  388.100
1012.318; 1039.500;  943.000;  381.400
1012.869;  951.700;  876.000;  375.400
1013.419;  844.450;  729.000;  357.600
1013.970;  945.000;  830.000;  358.300
1014.521;  872.350;  765.000;  344.100
1015.071;  940.950;  880.000;  322.800
1015.622;  889.250;  793.000;  320.600
1016.172;  843.250;  751.000;  301.700
1016.723;  867.700;  798.000;  289.800
1017.273;  853.500;  747.000;  287.600
1017.823;  916.450;  809.000;  278.700
1018.374;  860.850;  753.000;  274.400
1018.924; 1018.600;  958.000;  283.200
1019.474; 1011.250;  926.000;  278.500
1020.024;  917.550;  828.000;  274.700
1020.574; 1028.150;  937.000;  272.700
1021.124;  960.800;  877.000;  278.400
1021.674;  784.700;  694.000;  269.200
1022.224; 1003.500;  928.000;  267.800
1022.774;  942.900;  883.000;  258.100
1023.324; 1078.850; 1011.000;  260.000
1023.874; 1261.350; 1179.000;  260.700
1024.423;  863.700;  782.000;  252.700
1024.973;  857.250;  763.000;  234.700
1025.523;  873.800;  792.000;  226.500
1026.072;  848.800;  772.000;  225.500
1026.622;  946.250;  864.000;  210.100
1027.172; 1011.700;  940.000;  213.000
1027.721;  845.450;  774.000;  207.700
1028.270;  948.900;  899.000;  205.400
1028.820;  908.550;  819.000;  201.000
1029.369;  860.350;  779.000;  201.000
1029.918;  914.400;  851.000;  198.400
1030.468;  796.950;  718.000;  199.200
1031.017;  907.700;  812.000;  192.600
1031.566;  858.700;  818.000;  197.400
1032.115;  985.800;  904.000;  188.300
1032.664;  845.750;  754.000;  193.700
1033.213; 1049.750;  970.000;  191.900
1033.762;  906.250;  835.000;  184.500
1034.311;  959.850;  848.000;  194.300
1034.860;  992.000;  915.000;  192.300
1035.408; 1033.750;  944.000;  182.600
1035.957; 1018.250;  950.000;  173.900
1036.506;  743.500;  668.000;  185.200
1037.055; 1214.500; 1137.000;  182.500
1037.603;  949.350;  878.000;  167.600
1038.152;  745.900;  671.000;  168.200
1038.700;  819.100;  758.000;  169.600
1039.249;  966.700;  901.000;  164.300
1039.797;  892.650;  827.000;  169.600
1040.345; 1009.150;  914.000;  167.100
1040.894;  896.550;  826.000;  164.400
1041.442;  900.500;  844.000;  158.300
1041.990;  793.400;  697.000;  160.000
1042.538;  757.000;  652.000;  156.800
1043.087;  802.750;  742.000;  146.600
1043.635;  961.800;  888.000;  162.400
1044.183;  833.450;  763.000;  156.300
1044.731;  811.850;  731.000;  158.100
1045.279;  959.950;  901.000;  154.500
1045.827; 1308.050; 1218.000;  146.200
1046.374;  719.300;  647.000;  154.000
1046.922;  837.950;  752.000;  149.000
1047.470;  982.800;  914.000;  154.900
1048.018;  928.600;  867.000;  148.400
1048.565; 1026.200;  954.000;  146.300
1049.113;  784.950;  748.000;  156.100
1049.660;  888.400;  841.000;  154.300
1050.208;  966.300;  886.000;  149.400
1050.755;  860.100;  794.000;  157.500
1051.303;  986.250;  894.000;  157.700
1051.850;  910.750;  805.000;  152.800
1052.397;  661.250;  617.000;  146.300
1052.945;  876.650;  778.000;  149.500
1053.492; 1068.450; 1006.000;  149.300
1054.039; 1029.950;  998.000;  163.100
1054.586;  791.650;  711.000;  150.400
1055.133;  991.250;  931.000;  153.500
1055.680;  920.300;  856.000;  155.600
1056.227;  765.850;  698.000;  148.700
1056.774; 1141.200; 1076.000;  151.500
1057.321;  736.450;  660.000;  143.700
1057.868;  924.600;  816.000;  145.300
1058.415;  932.250;  857.000;  153.500
1058.961;  960.700;  916.000;  149.900
1059.508;  911.450;  865.000;  147.300
1060.055;  828.400;  765.000;  151.000
1060.601;  883.950;  827.000;  148.700
1061.148;  886.650;  811.000;  153.800
1061.694;  845.400;  779.000;  150.500
1062.241;  853.600;  781.000;  149.100
1062.787;  946.550;  915.000;  153.000
1063.334; 1164.850; 1106.000;  153.200
1063.880;  961.450;  902.000;  148.400
1064.426; 1017.350;  954.000;  149.200
1064.972;  850.100;  813.000;  156.400
1065.518;  805.300;  730.000;  144.700
1066.065;  890.900;  834.000;  139.400
1066.611;  858.100;  784.000;  139.300
1067.157;  913.600;  848.000;  138.400
1067.703;  957.250;  927.000;  142.700
1068.249;  867.900;  800.000;  136.700
1068.794;  898.950;  834.000;  139.400
1069.340;  823.650;  761.000;  142.700
1069.886;  850.950;  799.000;  135.600
1070.432;  766.050;  712.000;  133.400
1070.977;  859.250;  797.000;  138.200
1071.523;  810.250;  768.000;  132.400
1072.068;  824.950;  761.000;  132.700
1072.614;  738.750;  670.000;  127.000
1073.160;  996.000;  947.000;  131.300
1073.705;  822.000;  775.000;  135.700
1074.250;  795.850;  727.000;  133.000
1074.796;  938.700;  869.000;  138.000
1075.341;  962.250;  908.000;  137.300
1075.886;  849.150;  754.000;  134.300
1076.431;  939.900;  876.000;  138.200
1076.976;  915.950;  874.000;  132.200
1077.521;  830.750;  761.000;  138.900
1078.067;  822.650;  773.000;  128.600
1078.612;  959.600;  852.000;  138.900
1079.156;  862.400;  819.000;  128.900
1079.701; 1001.150;  956.000;  129.700
1080.246; 1002.000;  973.000;  128.600
1080.791;  908.850;  803.000;  122.600
1081.336;  941.400;  871.000;  122.000
1081.880;  931.250;  858.000;  123.900
1082.425;  820.900;  795.000;  120.600
1082.970; 1031.400;  977.000;  124.500
1083.514;  847.000;  786.000;  112.000
1084.059;  836.200;  776.000;  120.700
1084.603;  808.000;  766.000;  116.000
1085.147;  932.050;  894.000;  116.300
1085.692; 1033.250;  991.000;  108.200
1086.236;  714.100;  648.000;  114.600
1086.780; 1092.400; 1019.000;  118.900
1087.325;  945.750;  914.000;  120.400
1087.869;  875.700;  848.000;  110.500
1088.413; 1023.200;  976.000;  114.000
1088.957;  760.400;  747.000;  114.300
1089.501; 1114.300; 1058.000;  114.600
1090.045; 1046.750;  956.000;  114.200
1090.589;  816.750;  747.000;  105.500
1091.133;  973.450;  923.000;  111.800
1091.676;  845.800;  788.000;  110.900
1092.220;  851.500;  812.000;  110.100
1092.764; 1023.650;  965.000;  108.100
1093.307;  969.550;  910.000;  109.900
1093.851;  795.550;  758.000;  107.500
1094.395;  983.250;  933.000;   96.200
1094.938;  914.500;  855.000;   99.300
1095.482;  801.350;  729.000;   97.700
1096.025; 1021.000;  970.000;   84.900
1096.568; 1127.800; 1054.000;   88.500
1097.112;  715.450;  645.000;   95.700
1097.655;  860.950;  818.000;   97.300
1098.198;  866.400;  831.000;   92.600
1098.741;  885.450;  840.000;   91.800
1099.285;  940.700;  860.000;   88.000
1099.828;  626.000;  557.000;   91.700
1100.371;  878.900;  818.000;   89.900
1100.914;  984.850;  932.000;   91.500
1101.457;  979.000;  951.000;   88.100
1101.999;  830.650;  765.000;   86.400
1102.542;  927.750;  893.000;   90.800
1103.085;  958.750;  880.000;   95.400
1103.628; 1102.250; 1057.000;   97.700
1104.170;  845.950;  802.000;   84.000
1104.713;  937.200;  899.000;   93.900
1105.256;  792.750;  771.000;   93.000
1105.798;  722.550;  655.000;   85.600
1106.341; 1063.200; 1001.000;   87.100
1106.883;  752.250;  692.000;   85.200
1107.425;  959.700;  914.000;   85.000
1107.968;  882.850;  874.000;   84.300
1108.510;  991.700;  960.000;   88.200
1109.052;  888.200;  841.000;   86.600
1109.594;  794.650;  729.000;   79.400
1110.136;  928.800;  872.000;   81.700
1110.679;  913.900;  864.000;   75.500
1111.221;  873.050;  863.000;   88.500
1111.763;  794.800;  751.000;   87.700
1112.304;  783.550;  755.000;   89.700
1112.846;  957.950;  873.000;   81.900
1113.388; 1386.700; 1351.000;   86.400
1113.930;  997.850;  950.000;   84.700
1114.472;  876.900;  832.000;   78.900
1115.013;  789.050;  786.000;   78.100
1115.555;  848.900;  817.000;   84.900
1116.097;  830.500;  794.000;   79.200
1116.638;  991.550;  946.000;   83.700
1117.180;  973.200;  931.000;   85.500
1117.721;  819.100;  784.000;   78.800
1118.262;  980.800;  955.000;   77.400
1118.804;  921.500;  890.000;   81.400
1119.345;  832.050;  816.000;   77.800
1119.886; 1019.850;  974.000;   81.200
1120.427;  856.050;  785.000;   77.200
1120.969;  866.700;  830.000;   75.200
1121.510;  810.700;  766.000;   80.900
1122.051; 1057.600; 1013.000;   77.300
1122.592;  940.100;  900.000;   73.300
1123.133;  778.700;  775.000;   90.100
1123.673; 1027.400;  978.000;   75.000
1124.214;  888.150;  842.000;   80.600
1124.755;  928.900;  923.000;   78.000
1125.296;  896.500;  853.000;   77.500
1125.836; 1002.900; 1004.000;   80.400
1126.377;  867.250;  780.000;   75.600
1126.918;  885.950;  824.000;   78.900
1127.458;  891.650;  858.000;   78.000
1127.999;  949.300;  951.000;   76.100
1128.539; 1005.000;  993.000;   81.400
1129.079;  917.700;  855.000;   77.400
1129.620;  800.700;  775.000;   68.000
1130.160;  777.150;  740.000;   77.500
1130.700;  926.100;  888.000;   76.300
1131.240;  920.150;  929.000;   66.800
1131.781;  901.650;  828.000;   70.600
1132.321;  867.750;  854.000;   77.200
1132.861;  813.650;  791.000;   70.400
1133.401;  862.350;  785.000;   68.700
1133.941;  904.950;  865.000;   68.500
1134.481;  872.600;  835.000;   75.900
1135.020;  877.000;  832.000;   66.600
1135.560;  975.700;  910.000;   68.100
1136.100;  713.750;  695.000;   64.900
1136.640;  737.000;  713.000;   72.500
1137.179;  773.200;  750.000;   69.700
1137.719;  875.150;  823.000;   68.400
1138.258;  847.350;  790.000;   67.000
1138.798;  960.550;  952.000;   69.600
1139.337;  690.750;  655.000;   64.000
1139.877;  934.550;  886.000;   64.500
1140.416; 1284.050; 1232.000;   74.900
1140.955;  768.250;  716.000;   67.200
1141.494;  975.100;  941.000;   69.900
1142.034;  835.350;  792.000;   59.100
1142.573;  941.400;  894.000;   65.900
1143.112;  803.350;  775.000;   70.600
1143.651;  774.200;  761.000;   67.100
1144.190; 1002.950;  935.000;   56.700
1144.729;  873.400;  871.000;   61.800
1145.267;  836.500;  828.000;   62.500
1145.806;  918.800;  834.000;   68.500
1146.345;  929.450;  869.000;   58.300
1146.884;  910.150;  840.000;   63.100
1147.422;  765.750;  750.000;   54.800
1147.961; 1039.950; 1017.000;   67.600
1148.500;  981.300;  940.000;   64.700
1149.038;  923.300;  925.000;   61.000
1149.577; 1023.700;  989.000;   65.100
1150.115;  644.750;  634.000;   58.100
1150.653;  879.350;  815.000;   60.500
1151.192;  801.200;  761.000;   56.600
1151.730;  953.400;  905.000;   62.300
1152.268;  847.100;  809.000;   55.500
1152.806;  831.500;  818.000;   58.200
1153.344;  823.750;  782.000;   55.000
1153.882;  863.600;  869.000;   64.200
1154.421;  678.850;  655.000;   60.300
1154.958;  871.450;  775.000;   58.100
1155.496;  941.050;  912.000;   55.800
1156.034; 1049.050;  996.000;   61.000
1156.572;  977.450;  965.000;   56.200
1157.110;  671.600;  656.000;   53.200
1157.647;  990.850;  960.000;   57.400
1158.185;  823.750;  795.000;   55.500
1158.723;  738.250;  705.000;   58.000
1159.260; 1011.750;  961.000;   53.700
1159.798;  953.800;  913.000;   51.700
1160.335;  919.050;  909.000;   59.600

