
Integration time [ms]:   3.882
Averaging Nr. [scans]: 1000
Smoothing Nr. [pixels]: 0
Data measured with spectrometer [name]: 7414430SP
Wave   ;Sample   ;Dark     ;Reference
[nm]   ;[counts] ;[counts] ;[counts] 

288.544;  141.449;    7.153;  793.890
289.143;  145.538;    8.402;  681.602
289.742;  144.827;    7.062;  828.814
290.341;  132.435;    0.191;  789.841
290.940;  123.004;    0.321;  730.702
291.538;  124.584;    3.811;  881.108
292.137;  121.790;   -3.438;  792.581
292.736;  125.702;   -2.809;  975.101
293.335;  122.291;   -5.239;  735.086
293.934;  123.757;   -4.939;  781.677
294.532;  123.843;   -2.199; 1031.958
295.131;  109.145;   -6.831;  834.394
295.730;  108.912;   -6.620;  809.588
296.328;  107.097;   -6.471;  783.442
296.927;  106.287;   -6.571;  779.652
297.525;  107.280;   -7.391;  781.236
298.124;   98.165;   -9.402;  654.009
298.722;  103.498;   -5.781;  761.933
299.321;  101.793;   -6.351;  708.597
299.919;   98.624;   -8.661;  751.918
300.518;   94.976;  -11.922;  689.338
301.116;   96.787;   -6.941;  691.381
301.715;   96.232;   -5.471;  730.222
302.313;   95.194;   -8.361;  704.943
302.911;   92.180;   -9.082;  733.830
303.509;   97.183;   -4.571;  925.627
304.108;   92.999;   -7.111;  760.383
304.706;   92.502;   -7.681;  801.664
305.304;   88.619;   -9.162;  796.707
305.902;   94.190;   -6.761;  784.484
306.500;   88.685;   -6.921;  728.200
307.098;   86.144;   -6.491;  746.560
307.696;   85.185;   -6.941;  780.432
308.294;   86.779;   -6.301;  731.359
308.892;   87.552;   -4.771;  759.769
309.490;   84.120;   -5.141;  712.161
310.088;   82.619;   -2.912;  788.444
310.686;   87.272;   -0.421;  821.749
311.284;   82.701;   -3.461;  766.040
311.882;   80.418;   -6.282;  731.225
312.480;   77.832;   -3.632;  697.167
313.078;   80.832;   -2.112;  808.331
313.675;   79.702;   -1.931;  691.600
314.273;   74.462;   -1.442;  797.837
314.871;   74.614;   -3.002;  589.829
315.468;   73.104;   -2.252;  652.090
316.066;   75.908;   -1.091;  694.427
316.664;   68.094;   -4.512;  656.351
317.261;   73.109;   -0.062;  910.128
317.859;   68.806;   -0.952;  768.735
318.456;   69.140;    0.719;  830.096
319.054;   64.358;   -4.002;  787.828
319.651;   64.428;   -4.972;  759.928
320.249;   64.503;   -1.162;  810.188
320.846;   61.143;   -2.651;  714.286
321.443;   59.552;   -3.832;  832.135
322.041;   55.859;   -4.312;  812.315
322.638;   54.422;   -3.872;  701.456
323.235;   55.226;   -4.361;  665.683
323.833;   52.781;   -4.821;  740.354
324.430;   48.334;   -6.971;  615.900
325.027;   50.272;   -4.361;  876.855
325.624;   49.882;   -5.581;  644.532
326.221;   46.341;   -6.601;  689.717
326.818;   45.970;   -7.301;  818.332
327.415;   49.610;   -6.180;  748.828
328.012;   48.647;   -5.920;  690.585
328.609;   47.028;   -8.390;  731.389
329.206;   44.814;   -6.121;  778.621
329.803;   44.364;   -5.241;  737.841
330.400;   46.537;   -7.420;  704.260
330.997;   46.816;   -5.931;  817.147
331.594;   44.725;   -5.641;  788.185
332.191;   51.356;   -6.451;  728.722
332.787;   53.192;   -4.651;  844.463
333.384;   52.066;   -5.472;  763.093
333.981;   49.952;   -6.303;  815.687
334.578;   53.422;   -5.892;  708.378
335.174;   54.915;   -4.102;  731.469
335.771;   53.060;   -8.053;  836.456
336.367;   51.046;   -7.363;  710.631
336.964;   55.937;   -6.243;  793.266
337.561;   53.750;   -5.653;  731.112
338.157;   49.365;   -7.074;  911.916
338.754;   47.058;   -5.474;  796.589
339.350;   46.257;   -5.624;  722.493
339.946;   47.565;   -5.054;  773.135
340.543;   40.067;   -6.695;  846.136
341.139;   34.022;   -6.215;  720.836
341.735;   33.366;   -5.746;  772.593
342.332;   31.590;   -7.335;  691.472
342.928;   31.554;   -4.835;  795.394
343.524;   26.372;   -4.586;  761.684
344.120;   23.243;   -3.946;  738.562
344.716;   26.288;   -4.835;  723.717
345.313;   23.815;   -5.325;  795.342
345.909;   19.271;   -6.535;  627.336
346.505;   21.821;   -4.725;  740.247
347.101;   21.525;   -4.164;  827.864
347.697;   22.306;   -5.274;  785.398
348.293;   16.375;   -7.145;  627.244
348.889;   17.943;   -4.364;  745.914
349.485;   16.565;   -6.404;  688.205
350.081;   17.723;   -7.534;  772.592
350.676;   13.315;   -6.995;  691.606
351.272;   17.509;   -3.544;  809.530
351.868;   17.657;   -5.324;  780.497
352.464;   14.542;   -7.204;  723.932
353.059;   11.048;   -6.894;  646.017
353.655;   14.490;   -3.754;  777.063
354.251;   14.772;   -6.143;  759.845
354.846;    9.521;   -9.464;  740.646
355.442;    7.602;   -7.555;  753.071
356.038;    9.681;   -5.474;  751.708
356.633;    9.869;   -5.914;  728.594
357.229;    7.109;   -8.944;  724.757
357.824;    6.253;   -6.794;  703.600
358.420;    6.284;   -5.754;  679.726
359.015;    5.590;   -5.664;  695.357
359.610;    6.143;   -8.004;  763.920
360.206;    0.599;   -8.815;  603.240
360.801;    4.233;   -8.834;  646.503
361.396;    5.872;   -6.274;  725.975
361.992;    0.931;   -8.574;  668.220
362.587;   -0.694;   -9.265;  670.160
363.182;    1.340;   -5.484;  689.631
363.777;    1.760;   -5.164;  738.242
364.372;    0.875;   -6.954;  737.314
364.967;   -2.491;   -7.065;  680.744
365.563;    3.131;   -5.684;  815.567
366.158;   -0.630;   -6.484;  685.161
366.753;   -0.972;   -8.004;  649.263
367.348;   -1.908;  -10.114;  746.056
367.942;   -1.356;   -7.764;  697.298
368.537;   -2.723;   -4.554;  754.245
369.132;   -2.785;   -7.664;  703.428
369.727;   -7.041;   -8.905;  638.079
370.322;   -5.313;   -4.945;  580.186
370.917;   -5.656;   -7.095;  710.646
371.511;   -2.562;   -6.574;  861.834
372.106;   -5.915;   -6.515;  776.964
372.701;   -9.150;   -8.225;  585.988
373.296;   -3.480;   -4.494;  863.135
373.890;   -8.894;   -7.965;  647.840
374.485;  -10.298;   -9.745;  691.199
375.079;   -6.259;   -5.554;  738.685
375.674;   -5.485;   -4.724;  812.970
376.268;  -10.509;   -8.365;  691.759
376.863;  -15.300;   -8.126;  580.327
377.457;   -8.926;   -6.045;  662.490
378.052;  -10.514;   -6.835;  764.884
378.646;  -11.900;   -9.375;  741.167
379.240;  -12.327;   -6.185;  721.176
379.835;  -10.676;   -6.135;  636.978
380.429;  -13.632;   -8.365;  562.557
381.023;  -12.787;   -7.935;  779.205
381.617;  -14.821;   -8.325;  680.106
382.212;  -11.166;   -7.405;  685.303
382.806;  -10.502;   -4.155;  760.690
383.400;  -15.210;   -8.945;  672.281
383.994;  -15.804;   -8.365;  664.870
384.588;  -11.121;   -7.824;  697.701
385.182;  -10.904;   -7.984;  726.624
385.776;  -13.036;  -10.404;  706.875
386.370;  -15.793;   -7.335;  681.968
386.964;  -14.225;   -7.485;  684.155
387.558;  -12.651;   -8.174;  598.360
388.152;  -16.314;  -10.415;  681.959
388.745;  -13.549;   -9.595;  814.707
389.339;  -11.706;   -6.454;  747.642
389.933;  -11.438;   -5.804;  695.370
390.527;  -12.738;   -6.854;  859.029
391.120;  -18.973;   -7.665;  595.318
391.714;  -15.132;   -7.245;  711.633
392.308;  -11.983;   -4.514;  780.253
392.901;  -17.240;   -7.935;  642.460
393.495;  -17.808;   -8.585;  595.414
394.089;  -15.530;   -5.245;  760.452
394.682;  -16.264;   -6.305;  697.188
395.275;  -17.597;   -9.335;  719.927
395.869;  -18.707;   -7.375;  667.314
396.462;  -16.622;   -7.055;  616.609
397.056;  -13.172;   -5.434;  776.621
397.649;  -18.449;   -9.525;  731.575
398.242;  -14.576;   -7.574;  712.645
398.836;  -13.640;   -5.134;  766.408
399.429;  -15.373;   -6.544;  631.041
400.022;  -18.866;   -9.215;  665.902
400.615;  -15.792;   -8.105;  805.609
401.208;  -13.778;   -7.614;  691.451
401.802;  -15.968;   -8.085;  699.329
402.395;  -18.836;   -9.575;  683.502
402.988;  -19.138;   -9.285;  696.627
403.581;  -14.967;   -7.514;  646.878
404.174;  -12.845;   -6.404;  686.568
404.767;  -16.483;   -8.775;  638.583
405.360;  -18.862;   -7.415;  621.445
405.953;  -12.055;   -5.624;  759.034
406.545;  -12.583;   -6.474;  725.342
407.138;  -17.421;   -8.445;  618.350
407.731;  -15.256;  -10.044;  613.303
408.324;  -10.569;   -8.484;  660.554
408.917;  -12.232;   -7.624;  681.864
409.509;  -14.706;   -8.304;  740.396
410.102;  -16.574;   -8.495;  643.948
410.695;  -10.131;   -7.824;  665.758
411.287;  -11.501;   -7.754;  599.821
411.880;  -12.151;   -9.294;  585.421
412.472;  -15.820;   -8.814;  613.092
413.065;  -12.182;   -6.674;  629.408
413.657;  -10.591;   -9.664;  576.678
414.250;  -10.668;  -10.264;  646.681
414.842;  -11.867;   -8.664;  676.353
415.434;   -9.288;   -8.584;  570.463
416.027;   -6.129;   -9.423;  652.196
416.619;   -7.749;  -10.764;  713.400
417.211;   -8.360;   -7.404;  599.352
417.804;   -4.325;   -7.383;  628.499
418.396;   -8.532;   -8.334;  607.643
418.988;   -6.402;   -9.633;  659.238
419.580;   -9.825;  -10.554;  568.276
420.172;   -7.581;   -8.683;  536.196
420.764;   -3.764;   -9.713;  672.482
421.356;   -5.370;  -11.303;  636.898
421.948;   -5.246;   -8.453;  677.661
422.540;    0.706;   -5.793;  680.027
423.132;   -0.868;   -7.162;  600.641
423.724;   -5.263;   -7.933;  561.267
424.316;   -1.852;   -9.083;  621.345
424.908;    1.425;   -8.392;  591.517
425.500;    1.691;   -8.062;  647.978
426.092;    1.576;   -9.692;  648.268
426.683;    0.761;   -8.223;  684.836
427.275;    3.966;   -8.602;  641.471
427.867;    5.333;   -8.382;  668.948
428.458;    6.020;  -10.472;  732.344
429.050;    4.450;   -9.112;  680.749
429.642;    7.384;   -7.752;  743.124
430.233;    7.219;   -8.832;  569.356
430.825;    7.769;   -8.292;  724.809
431.416;    5.751;   -7.522;  698.241
432.008;   10.380;   -9.262;  651.723
432.599;   10.180;   -6.441;  656.073
433.190;    6.688;   -9.222;  637.670
433.782;    5.867;  -11.832;  590.395
434.373;   14.936;   -7.121;  884.765
434.964;   12.392;   -9.141;  602.920
435.556;    8.711;   -9.332;  634.537
436.147;   12.757;   -8.892;  758.490
436.738;   12.629;   -8.151;  701.099
437.329;   18.023;   -8.281;  721.723
437.920;   11.040;   -9.062;  666.688
438.511;   10.733;  -11.182;  564.526
439.103;   17.956;   -7.461;  623.998
439.694;   19.251;   -8.541;  681.583
440.285;   19.690;   -7.351;  764.432
440.876;   18.942;   -8.201;  845.738
441.466;   17.786;  -10.381;  575.162
442.057;   22.456;   -7.620;  665.814
442.648;   21.110;   -8.461;  746.255
443.239;   19.675;   -8.991;  620.477
443.830;   25.914;   -7.910;  704.958
444.421;   26.556;   -7.340;  655.474
445.011;   22.259;   -8.981;  693.619
445.602;   22.833;   -9.341;  743.126
446.193;   25.186;  -11.390;  488.117
446.783;   29.152;  -11.240;  640.397
447.374;   24.427;   -8.471;  692.759
447.964;   25.006;   -8.471;  713.770
448.555;   34.223;   -6.590;  822.742
449.145;   29.642;   -8.200;  662.853
449.736;   30.263;  -11.040;  803.179
450.326;   31.156;   -9.640;  713.626
450.917;   36.473;   -9.480;  675.324
451.507;   34.339;   -8.020;  600.661
452.097;   35.151;  -10.210;  746.267
452.688;   36.860;   -7.810;  742.160
453.278;   36.855;   -9.360;  566.840
453.868;   41.100;   -8.669;  793.550
454.458;   38.346;  -10.950;  651.141
455.048;   38.631;  -10.200;  711.783
455.639;   40.298;   -9.369;  567.096
456.229;   43.701;   -7.739;  710.694
456.819;   45.348;   -8.939;  751.158
457.409;   45.765;   -7.169;  773.993
457.999;   49.020;   -7.779;  737.505
458.589;   48.095;   -7.039;  686.606
459.179;   48.293;   -9.019;  717.658
459.769;   45.677;   -8.909;  627.099
460.358;   51.918;   -8.659;  797.262
460.948;   50.590;   -8.209;  689.503
461.538;   51.919;   -9.879;  660.677
462.128;   50.631;   -9.379;  664.934
462.717;   58.011;   -9.158;  710.326
463.307;   60.571;   -8.638;  705.846
463.897;   55.113;   -8.869;  656.942
464.486;   55.541;   -7.409;  837.128
465.076;   60.873;   -9.618;  733.776
465.666;   63.774;   -7.578;  652.900
466.255;   60.552;   -9.369;  785.651
466.845;   59.790;  -10.049;  666.749
467.434;   64.325;   -8.168;  725.873
468.023;   64.087;   -9.188;  658.357
468.613;   61.984;   -9.849;  713.946
469.202;   65.681;  -12.958;  646.507
469.791;   70.658;   -9.488;  737.811
470.381;   71.777;   -6.468;  742.813
470.970;   71.589;  -10.248;  711.099
471.559;   71.421;  -11.428;  733.291
472.148;   75.051;   -9.738;  675.737
472.738;   76.883;   -7.877;  765.466
473.327;   76.459;  -11.868;  637.529
473.916;   76.003;   -8.578;  737.446
474.505;   80.817;  -11.137;  751.703
475.094;   83.656;   -9.407;  806.570
475.683;   81.991;   -9.977;  797.699
476.272;   83.310;  -10.807;  730.632
476.861;   87.244;  -11.017;  706.754
477.449;   92.604;  -10.316;  728.487
478.038;   86.340;  -10.187;  692.513
478.627;   87.001;  -12.458;  714.852
479.216;   95.109;  -10.127;  769.441
479.805;   98.229;   -6.256;  783.375
480.393;   97.159;   -8.737; 1008.945
480.982;   95.789;   -9.087;  874.501
481.571;  102.731;   -7.806;  858.333
482.159;  102.997;  -10.596;  705.386
482.748;  102.508;  -11.507;  821.385
483.336;  105.755;   -8.366;  858.209
483.925;  107.954;   -7.497;  774.373
484.513;  113.399;   -8.326;  758.962
485.102;  110.448;  -10.277;  810.965
485.690;  118.748;   -8.256; 1011.050
486.278;  120.721;   -7.146;  979.329
486.867;  121.683;   -7.986;  809.662
487.455;  123.000;   -9.926;  898.229
488.043;  124.267;  -10.026;  748.361
488.631;  133.619;   -7.226; 1005.079
489.220;  137.007;   -8.696;  908.626
489.808;  135.627;  -12.276;  741.415
490.396;  143.167;   -9.386;  914.645
490.984;  148.732;   -8.506;  830.161
491.572;  159.378;   -8.226;  940.315
492.160;  163.705;   -9.836;  919.081
492.748;  174.261;  -10.316;  884.341
493.336;  195.176;   -7.146; 1019.693
493.924;  216.028;   -7.965;  958.077
494.512;  239.363;  -10.316; 1066.638
495.100;  275.190;  -10.186; 1103.280
495.687;  326.057;   -7.805; 1206.373
496.275;  386.543;   -9.686; 1150.796
496.863;  464.548;  -11.566; 1281.171
497.451;  554.225;  -11.406; 1386.805
498.038;  673.500;   -8.235; 1556.729
498.626;  783.162;   -7.485; 1741.407
499.214;  938.784;   -8.646; 2016.609
499.801; 1171.566;   -9.936; 2220.633
500.389; 1367.297;   -8.056; 2312.494
500.976; 1541.713;   -6.166; 2744.849
501.564; 1736.450;   -9.126; 3148.565
502.151; 2035.639;  -12.456; 3515.999
502.738; 2419.995;  -10.056; 3971.274
503.326; 2793.582;  -10.605; 4403.796
503.913; 3146.237;  -10.576; 5161.749
504.500; 3647.783;   -9.056; 5986.420
505.088; 4105.209;  -10.136; 6381.201
505.675; 4815.227;   -9.075; 6925.547
506.262; 5265.315;  -11.346; 7619.060
506.849; 5849.139;   -9.376; 8733.969
507.436; 6384.061;   -7.365; 9790.121
508.023; 6711.719;   -8.686; 9985.472
508.610; 7145.618;   -8.846;10434.618
509.197; 8044.118;   -9.077;11198.435
509.784; 9282.005;  -10.246;12391.194
510.371; 9769.835;   -9.825;13603.713
510.958;10517.924;  -10.896;14426.586
511.545;11224.049;   -9.006;15243.775
512.132;11903.188;   -8.765;15945.876
512.719;12972.995;   -8.286;16340.369
513.305;14873.790;   -9.256;18011.766
513.892;17019.240;  -11.106;19754.971
514.479;18800.211;   -8.576;20967.805
515.066;20219.430;   -9.046;22299.793
515.652;20706.660;  -10.676;22908.660
516.239;21993.098;  -10.166;23798.875
516.825;22447.020;  -11.266;25567.275
517.412;21845.508;   -7.446;28154.959
517.998;21829.500;  -10.916;28344.111
518.585;21086.020;   -9.166;27134.219
519.171;20829.629;  -10.135;27268.576
519.758;22149.557;   -8.806;28964.129
520.344;25288.961;   -6.716;30664.494
520.930;26864.598;  -10.166;32550.605
521.516;26472.779;   -9.615;35422.895
522.103;26346.277;   -8.656;38280.004
522.689;26205.492;   -9.646;37835.117
523.275;26810.824;  -10.786;37288.613
523.861;30205.621;   -9.266;37281.395
524.447;32558.102;   -8.285;37846.949
525.033;33808.238;   -9.426;38321.949
525.619;33511.035;   -9.836;38579.285
526.205;34473.301;   -8.136;40622.875
526.791;35793.227;   -9.986;42258.836
527.377;37631.535;   -8.236;42966.902
527.963;35971.949;  -12.117;42018.949
528.549;34253.328;   -8.376;42476.828
529.135;35412.262;   -8.696;41854.852
529.721;37365.977;   -9.686;41237.711
530.306;39412.391;   -8.616;41259.445
530.892;42677.180;   -9.396;41506.047
531.478;43080.566;   -9.926;43559.613
532.063;43861.273;  -10.236;47695.563
532.649;45783.512;   -8.257;50808.324
533.235;47041.465;  -11.476;51787.500
533.820;46052.660;   -8.156;52145.035
534.406;45298.805;  -12.257;51133.488
534.991;43245.773;   -8.686;49996.805
535.576;41045.676;   -9.426;48882.852
536.162;40888.805;   -8.436;46942.285
536.747;39863.641;  -10.957;45711.746
537.333;39138.207;  -13.147;48510.180
537.918;41365.328;   -9.027;50439.891
538.503;42046.813;   -8.256;50863.711
539.088;45013.848;  -10.576;50906.922
539.673;46793.582;  -10.907;52621.965
540.259;47327.453;   -9.126;52368.094
540.844;44469.602;   -9.026;50879.109
541.429;45996.238;   -9.597;52077.777
542.014;49377.676;  -11.447;52716.695
542.599;49301.660;   -9.236;52363.281
543.184;46000.199;  -12.267;53187.137
543.769;44605.586;  -10.367;54697.605
544.354;42670.961;  -10.887;53913.914
544.938;38104.617;  -11.687;49680.164
545.523;36261.762;   -8.286;47386.277
546.108;39967.926;   -9.317;49151.949
546.693;43725.910;  -10.187;51384.637
547.278;43483.289;   -9.926;51853.254
547.862;43164.555;   -9.196;51173.750
548.447;43032.859;   -9.657;51691.395
549.031;43731.074;   -9.127;52456.703
549.616;46819.680;  -10.836;52714.516
550.201;49697.004;   -8.507;52414.598
550.785;50763.023;  -10.537;52355.059
551.370;51324.719;  -11.727;54589.453
551.954;50583.414;   -9.457;58267.348
552.538;49239.172;   -8.147;59062.176
553.123;47817.840;   -9.397;58115.285
553.707;45800.246;   -9.558;56556.285
554.291;46090.324;   -9.417;56201.668
554.876;46825.406;   -7.627;55335.762
555.460;45597.707;  -10.457;54155.703
556.044;43730.355;  -10.078;53721.484
556.628;44166.449;   -9.407;53731.016
557.212;44035.941;   -7.957;54312.531
557.796;44086.992;  -11.327;53797.773
558.380;48415.836;  -10.868;56145.984
558.964;48552.984;   -9.637;57277.930
559.548;46366.926;   -8.807;56459.641
560.132;47261.352;  -10.187;54434.543
560.716;46725.480;   -9.868;54800.617
561.300;48015.230;  -10.217;57606.945
561.884;48685.234;   -4.947;58972.445
562.467;47639.113;   -9.588;57327.570
563.051;45748.773;  -11.138;54962.434
563.635;44065.863;   -9.358;52594.473
564.219;43389.922;   -9.797;50610.410
564.802;43802.207;   -9.918;49551.180
565.386;41926.813;  -10.838;48370.953
565.969;40759.258;   -8.037;48178.871
566.553;40017.746;   -5.667;49957.305
567.136;39385.949;   -8.258;50369.594
567.720;38869.672;  -11.278;49492.004
568.303;40546.680;   -9.028;50616.352
568.887;40241.305;   -7.508;50727.148
569.470;39221.840;  -11.068;51698.379
570.053;39387.055;  -10.028;52122.078
570.637;38202.844;  -11.077;52536.438
571.220;38231.117;   -8.747;51186.098
571.803;40158.355;   -8.868;51032.762
572.386;42358.191;  -10.608;49609.887
572.969;41585.719;  -10.548;48285.926
573.552;38880.070;   -7.898;47624.285
574.135;39977.379;   -9.918;45498.641
574.718;36078.441;  -10.328;41970.434
575.301;33182.387;   -9.548;41447.137
575.884;30286.328;   -8.768;40923.836
576.467;33610.645;   -9.858;45267.723
577.050;34264.223;  -11.018;48175.543
577.633;35383.371;  -10.048;47729.328
578.216;34631.777;  -10.268;47579.793
578.799;32107.221;  -11.808;47820.996
579.381;31863.141;   -7.338;48115.551
579.964;34630.824;   -9.728;47333.766
580.547;35709.422;   -8.928;46668.969
581.129;36366.465;   -9.149;44466.141
581.712;36473.043;  -11.359;44164.922
582.294;34163.336;  -10.738;46477.855
582.877;33369.488;   -8.788;48244.254
583.459;34001.613;   -9.859;47437.895
584.042;36171.547;   -9.649;46943.219
584.624;35999.055;  -10.529;46792.227
585.206;34508.355;  -10.298;46557.250
585.789;33800.781;  -11.029;45793.773
586.371;32257.141;   -9.359;43836.391
586.953;31951.727;   -8.799;42972.492
587.536;31796.893;   -8.928;42487.211
588.118;31918.346;   -9.180;42086.414
588.700;31416.752;  -10.519;43389.930
589.282;30166.939;   -8.098;43646.039
589.864;29770.414;   -8.139;43438.109
590.446;31829.588;  -10.509;43151.926
591.028;32881.648;  -11.119;42781.867
591.610;34123.438;  -10.019;42839.098
592.192;33417.984;   -8.838;42820.402
592.774;30536.000;  -11.549;40724.277
593.356;27905.529;  -11.609;39874.789
593.937;27535.609;  -10.019;39980.648
594.519;29860.332;   -7.839;42069.633
595.101;32393.160;  -10.779;42976.031
595.683;33517.633;  -10.049;44084.441
596.264;32811.199;   -9.969;43478.797
596.846;32428.375;   -9.699;43803.672
597.427;31247.229;  -10.970;42986.934
598.009;30868.023;  -13.090;42832.219
598.591;30388.133;   -9.509;42580.086
599.172;30368.141;   -9.019;43061.805
599.753;30881.691;  -13.310;41691.469
600.335;31842.502;  -11.010;40692.520
600.916;31539.148;  -10.309;39982.422
601.498;30695.314;   -8.209;40318.617
602.079;30351.318;  -11.440;40670.609
602.660;32160.947;   -8.690;41450.898
603.241;33446.121;  -12.759;41137.738
603.823;32036.055;  -10.409;38868.797
604.404;31436.434;  -11.790;38182.785
604.985;32854.934;  -10.280;38078.047
605.566;34282.430;   -8.059;38056.633
606.147;31782.686;   -8.960;37020.418
606.728;29767.953;  -10.710;37883.359
607.309;28849.820;  -12.760;38748.273
607.890;27157.711;   -9.959;38850.230
608.471;27693.787;   -9.780;37457.918
609.051;29729.615;   -8.940;36066.457
609.632;31102.541;  -12.070;35991.074
610.213;31029.709;   -9.610;37402.641
610.794;30572.016;   -8.750;38383.363
611.374;30642.816;  -11.100;40562.387
611.955;31127.072;  -12.200;38533.727
612.536;31499.395;  -10.410;36951.789
613.116;30949.418;  -10.010;37197.891
613.697;29518.852;  -10.480;38411.125
614.277;29104.320;  -12.751;38673.938
614.858;28329.047;  -11.600;37075.863
615.438;28471.793;   -8.190;35092.906
616.019;26999.150;   -8.941;33666.301
616.599;28723.957;  -13.540;34189.023
617.179;31203.113;  -10.890;36952.047
617.760;30251.096;   -7.610;39582.574
618.340;28573.295;  -14.441;38943.977
618.920;28354.188;   -9.180;37594.156
619.500;30508.801;  -11.881;37866.938
620.080;32146.715;   -9.870;37869.043
620.660;31029.066;  -13.211;36868.617
621.241;29680.947;  -11.921;36352.309
621.821;28807.176;  -10.271;35459.520
622.401;29526.260;   -8.200;35207.414
622.980;31465.150;  -11.141;35980.422
623.560;31494.965;  -14.321;37351.328
624.140;30138.977;   -9.360;34388.582
624.720;25897.279;   -7.481;32368.764
625.300;23719.555;  -12.730;32638.629
625.880;27822.900;  -11.441;34599.035
626.459;31299.475;  -10.971;36831.738
627.039;34450.668;   -9.011;38299.098
627.619;34717.547;   -8.521;38289.574
628.198;33187.684;   -9.861;37220.695
628.778;32204.029;   -8.841;37632.563
629.357;32294.238;   -9.891;38003.012
629.937;32078.465;  -11.871;38402.039
630.516;31400.717;  -10.641;37868.801
631.096;33506.109;  -11.391;35760.410
631.675;35353.746;   -6.622;35225.219
632.254;32786.820;  -13.002;35130.289
632.834;31419.969;  -11.622;35794.570
633.413;32187.063;   -8.321;35788.922
633.992;30344.549;   -7.732;34532.863
634.571;30685.055;  -10.992;33590.113
635.151;30240.990;  -10.422;34943.863
635.730;30883.109;  -11.511;35352.523
636.309;30469.797;   -7.901;35366.605
636.888;29941.971;  -11.452;36165.637
637.467;29698.533;  -10.672;37515.902
638.046;30447.650;   -9.301;39288.695
638.625;31614.936;  -11.452;38279.699
639.204;32199.291;  -12.262;37741.598
639.782;32525.482;  -11.892;38364.551
640.361;30917.162;  -11.411;36740.621
640.940;26042.381;  -11.501;34950.082
641.519;28212.186;  -10.921;34137.398
642.097;31733.252;  -10.101;35654.258
642.676;30179.092;  -10.821;35637.957
643.255;31525.242;   -8.631;36567.074
643.833;34303.402;  -11.411;37809.434
644.412;36727.227;  -12.021;37337.293
644.990;36999.379;  -12.271;37018.531
645.569;35792.738;   -9.741;36518.469
646.147;33601.102;   -9.051;36186.430
646.726;33530.379;  -13.861;36267.688
647.304;33355.027;   -9.461;36647.625
647.882;32692.037;  -13.171;39286.742
648.461;32808.875;  -11.911;39157.703
649.039;31933.432;   -9.541;35412.883
649.617;31753.344;   -8.901;34744.918
650.195;29350.975;   -8.591;35403.098
650.773;28785.129;  -13.031;35053.797
651.352;27987.459;  -12.211;33756.816
651.930;25610.299;  -11.361;31868.773
652.508;22605.670;   -8.601;33121.551
653.086;25405.400;   -9.991;33564.793
653.663;29575.984;  -11.931;34054.668
654.241;32101.213;  -10.821;35693.309
654.819;33587.648;   -9.341;36422.906
655.397;31490.707;  -10.851;38213.484
655.975;30065.137;  -11.461;39507.625
656.553;29889.598;   -8.841;39498.223
657.130;29050.496;  -10.371;40395.480
657.708;29612.797;  -11.071;39242.020
658.286;28866.832;  -11.141;38920.020
658.863;30031.508;  -10.861;40202.898
659.441;35139.461;  -11.181;39677.938
660.018;35868.535;  -10.851;40413.355
660.596;35413.629;  -12.571;39931.414
661.173;36039.699;  -12.141;39604.531
661.750;35386.129;  -11.571;39700.070
662.328;32700.869;  -10.780;39292.809
662.905;30174.174;  -10.750;38235.648
663.482;26985.061;  -11.320;36212.305
664.060;26032.588;  -10.160;35944.945
664.637;30693.373;  -13.120;35170.785
665.214;32797.691;  -11.500;34197.523
665.791;30884.707;  -12.430;34549.520
666.368;28413.461;   -9.840;35118.578
666.945;27324.691;  -11.290;36019.418
667.522;28114.166;  -13.540;36048.438
668.099;29053.127;  -10.250;36243.914
668.676;28147.863;  -11.270;35958.875
669.253;26954.328;   -8.210;37384.730
669.830;26119.432;   -9.710;36779.629
670.407;26044.777;   -9.700;35231.289
670.984;26867.838;   -9.190;35544.270
671.560;26082.879;   -9.560;35466.867
672.137;25962.432;  -11.820;34280.863
672.714;28976.459;  -12.460;34632.863
673.290;33216.254;  -10.940;35135.422
673.867;33420.777;  -10.510;36114.480
674.443;30417.328;  -12.110;36152.859
675.020;31538.295;  -11.760;35327.238
675.596;32100.176;   -9.380;35795.176
676.173;31002.588;  -11.120;35430.355
676.749;29812.262;  -13.390;33549.516
677.326;29030.102;  -12.600;32210.012
677.902;28156.063;  -10.830;32068.871
678.478;28186.980;  -12.400;32583.891
679.054;29882.322;   -8.610;32088.928
679.631;29937.498;  -11.640;30978.848
680.207;29957.566;   -8.140;33160.887
680.783;30560.379;  -12.300;35570.363
681.359;29596.422;  -10.910;36125.184
681.935;30074.299;  -11.040;35240.922
682.511;30640.771;  -11.130;34429.961
683.087;30760.045;  -11.080;34463.680
683.663;32659.061;  -10.530;34648.898
684.239;32220.516;  -12.120;34546.457
684.815;29873.850;   -8.870;35586.375
685.390;28872.072;   -8.940;35821.895
685.966;28688.053;  -12.109;35085.871
686.542;27983.105;  -13.539;34198.230
687.118;27907.295;  -10.379;32847.707
687.693;28098.828;  -10.189;32794.027
688.269;26827.186;  -12.939;33072.367
688.844;26044.688;   -8.679;33141.664
689.420;27190.219;  -10.919;33965.742
689.995;27601.156;   -7.489;34655.523
690.571;27119.297;  -12.199;33576.742
691.146;27540.920;   -8.979;32657.219
691.722;28888.021;   -9.119;32526.979
692.297;27430.418;  -10.519;33014.617
692.872;26793.922;  -10.629;34012.254
693.448;26992.520;  -12.119;34237.434
694.023;27642.193;   -8.219;34142.672
694.598;25924.141;  -13.209;34132.031
695.173;25138.748;  -11.879;34205.250
695.748;26045.811;  -12.039;32882.488
696.323;26095.484;  -11.779;32864.906
696.898;27055.525;  -10.219;33170.004
697.473;28220.006;  -13.639;32432.984
698.048;28486.619;  -11.239;31649.303
698.623;30416.109;  -10.859;30778.141
699.198;32254.561;  -13.379;31140.119
699.773;32847.082;  -13.409;31764.299
700.348;32857.254;  -12.329;31780.816
700.922;33160.707;   -8.749;32046.375
701.497;33647.480;  -12.449;32603.574
702.072;31839.330;   -8.879;34799.871
702.646;29722.738;  -10.719;35793.172
703.221;28714.906;   -8.469;35201.590
703.795;28639.146;  -11.389;34764.527
704.370;28051.291;  -12.499;34307.367
704.944;27825.467;  -11.449;33509.887
705.519;27157.932;  -10.659;31388.584
706.093;26658.768;  -12.909;31340.104
706.668;27338.357;  -13.509;32630.281
707.242;27085.076;  -10.049;32728.779
707.816;25194.717;  -10.629;32947.238
708.390;24671.217;  -11.829;33277.855
708.965;25402.412;  -11.159;33834.336
709.539;26363.350;  -11.069;33709.273
710.113;25512.615;  -10.908;33044.313
710.687;23587.158;   -9.488;31953.992
711.261;23664.465;  -13.068;30505.949
711.835;26293.289;  -12.748;30262.369
712.409;26859.066;  -10.678;31254.447
712.983;25556.643;  -11.658;32754.986
713.557;26064.955;  -13.718;34018.824
714.131;26829.230;  -13.388;34579.625
714.704;27911.113;   -9.818;33890.262
715.278;29158.629;  -11.818;33531.102
715.852;30260.232;  -11.328;33601.660
716.425;30691.234;   -9.118;33515.117
716.999;30529.656;  -10.188;33185.555
717.573;30572.176;   -9.808;33905.996
718.146;32971.730;  -11.478;35199.293
718.720;32489.789;  -10.998;35060.551
719.293;30569.635;   -9.508;34973.230
719.867;30359.059;  -12.138;36394.449
720.440;29513.047;  -11.288;36663.008
721.013;32288.611;  -11.428;35102.426
721.587;33668.219;  -11.698;33985.266
722.160;34701.031;  -11.608;33524.965
722.733;33442.695;  -11.428;32987.043
723.306;31999.887;  -12.518;33066.301
723.880;31512.502;   -7.408;33399.500
724.453;30288.219;  -11.048;33468.297
725.026;28918.912;  -11.678;33816.637
725.599;27977.221;  -10.978;32797.996
726.172;27040.215;   -8.838;33187.434
726.745;27916.049;  -11.438;35136.613
727.318;28771.221;   -9.828;35751.730
727.891;27583.881;  -10.868;35890.430
728.463;25703.000;  -11.348;34822.090
729.036;24055.250;  -11.608;32895.086
729.609;24183.947;  -14.738;31823.225
730.182;25522.922;   -8.448;31445.283
730.754;26612.793;  -11.228;32373.223
731.327;26889.125;  -12.018;33676.820
731.900;28627.652;  -13.748;33417.000
732.472;28874.672;  -10.928;31978.498
733.045;27195.215;   -9.478;30368.777
733.617;25245.023;  -12.967;30574.215
734.190;24384.412;  -11.707;31280.975
734.762;23660.164;  -11.067;31674.412
735.334;23112.195;  -10.587;31247.291
735.907;22182.135;  -11.947;29876.211
736.479;22881.863;  -11.667;29808.488
737.051;25534.293;  -10.187;30233.547
737.623;27642.910;   -6.887;31469.086
738.195;30462.117;  -12.117;31784.225
738.768;32324.412;  -14.077;32120.523
739.340;31018.789;  -12.207;32094.342
739.912;27576.092;   -8.977;31312.680
740.484;26121.266;  -11.017;31946.238
741.056;27524.686;  -13.517;32984.059
741.628;29615.162;  -11.507;33897.715
742.199;29773.666;   -7.597;33213.016
742.771;30383.443;  -12.227;31369.113
743.343;29464.549;  -12.427;31865.473
743.915;27729.135;   -9.827;32388.631
744.487;26669.199;  -10.007;31079.568
745.058;24996.879;  -11.887;30570.107
745.630;24289.936;  -10.787;29970.127
746.201;23701.824;  -10.887;29186.766
746.773;24115.361;   -9.707;28805.723
747.344;25094.008;  -11.137;29591.223
747.916;25127.350;  -11.887;31412.201
748.487;24338.721;   -9.707;32194.898
749.059;23626.500;  -10.027;32533.719
749.630;23400.887;  -11.787;32158.518
750.201;22375.350;  -12.767;30855.395
750.773;21958.525;  -11.497;28622.555
751.344;22812.340;   -9.937;28405.732
751.915;23107.697;  -11.567;28461.551
752.486;22298.322;  -13.267;27842.850
753.057;20291.732;  -10.627;27845.008
753.628;18961.234;  -11.657;27728.107
754.199;21240.992;  -12.097;27381.086
754.770;22990.518;  -11.447;25882.203
755.341;22998.133;  -11.997;25886.184
755.912;20891.727;  -10.207;26050.861
756.483;19137.238;  -10.937;26798.779
757.054;19113.869;  -11.527;27048.238
757.625;19271.311;  -12.886;26294.838
758.195;19437.275;  -11.226;26142.076
758.766;19427.982;  -12.366;26392.234
759.337;18397.869;  -11.946;26334.594
759.907;18555.301;  -13.856;27579.652
760.478;19503.979;   -9.606;28352.770
761.048;19596.699;  -11.606;27325.088
761.619;19739.320;  -11.036;26460.428
762.189;19211.424;  -12.206;26029.826
762.760;20516.762;   -9.666;26430.145
763.330;21170.273;   -9.796;26670.902
763.900;19080.145;  -10.896;26603.021
764.471;17457.346;  -11.726;25542.740
765.041;18058.438;   -9.656;24358.459
765.611;19105.443;  -11.276;23991.297
766.181;18929.510;  -12.116;24470.236
766.751;18410.260;  -12.376;24845.975
767.321;18372.672;  -11.626;24533.633
767.891;18383.840;  -10.426;24916.492
768.461;17047.469;  -13.456;24776.771
769.031;15134.657;  -11.616;24757.988
769.601;15201.585;  -11.356;24181.088
770.171;15602.869;  -11.586;23670.387
770.741;16134.013;  -12.696;22960.045
771.311;16401.875;  -10.226;22917.523
771.880;16092.199;  -11.146;23562.941
772.450;16712.723;  -11.716;24216.500
773.020;16824.854;  -13.226;24140.398
773.589;16415.342;  -12.586;24414.857
774.159;16094.744;  -10.246;23858.717
774.729;15651.801;  -11.586;22942.135
775.298;14910.836;  -15.926;22324.033
775.867;15132.920;  -10.426;21140.313
776.437;14913.664;  -11.416;20838.092
777.006;13364.875;  -12.766;20599.510
777.576;13557.916;  -13.666;20508.809
778.145;14203.864;  -10.066;20732.947
778.714;13743.289;  -10.276;21062.465
779.283;13887.786;  -12.086;20949.664
779.853;15136.960;  -14.016;20508.623
780.422;15444.129;  -12.376;20649.082
780.991;14449.097;   -9.246;21527.520
781.560;13662.208;   -9.775;22632.658
782.129;13467.622;  -12.495;23048.277
782.698;13192.638;  -11.775;23438.555
783.267;13341.291;  -10.065;23267.734
783.836;13879.942;  -12.455;22415.133
784.404;14535.617;  -13.385;20443.152
784.973;15278.116;  -11.045;19699.150
785.542;14924.030;   -9.505;19763.828
786.111;13914.146;   -9.385;20341.408
786.679;13661.718;  -13.475;20207.967
787.248;13596.026;  -11.245;19516.465
787.817;11845.769;  -12.485;18900.363
788.385;10224.608;  -11.165;17879.121
788.954;10763.640;  -11.755;17658.301
789.522;11512.391;   -9.625;17788.879
790.090;11332.023;   -9.665;18118.277
790.659;11064.585;   -9.295;18338.736
791.227;12070.631;  -12.175;18508.615
791.795;13457.086;  -12.145;17898.254
792.364;13387.054;  -11.575;17295.133
792.932;12103.246;  -11.085;16822.051
793.500;10948.922;  -11.345;17040.148
794.068;10855.463;  -12.565;17179.787
794.636;11957.281;  -12.105;16664.246
795.204;12522.223;  -11.995;16524.545
795.772;11867.625;  -12.615;17274.564
796.340;11374.274;  -12.425;17891.002
796.908;11083.979;  -11.455;17648.561
797.476;10389.508;  -12.165;17064.080
798.044;10024.929;  -15.795;16672.777
798.612;10251.059;  -10.985;17023.996
799.180;11050.114;  -12.055;16561.615
799.747;11380.619;  -12.525;15962.773
800.315;10169.592;  -14.765;15296.992
800.883; 8902.876;  -12.435;14801.771
801.450; 8785.391;  -11.295;14534.430
802.018; 9224.577;  -11.185;14173.248
802.585; 9256.638;  -11.625;14029.547
803.153; 8390.541;  -10.665;13836.846
803.720; 7966.400;  -10.275;13567.324
804.287; 7863.434;  -12.865;13360.622
804.855; 8091.468;  -12.324;13681.981
805.422; 8317.325;  -11.574;13536.560
805.989; 8073.764;  -11.004;13355.958
806.556; 8263.123;  -12.214;13747.896
807.124; 8692.665;  -13.304;13987.376
807.691; 8387.262;  -12.034;14038.674
808.258; 7797.916;  -11.014;14120.152
808.825; 7719.462;  -11.804;13860.111
809.392; 7639.174;  -11.544;13268.790
809.959; 7531.026;  -14.954;12680.389
810.526; 7825.741;  -10.214;12427.308
811.093; 8218.918;  -10.754;12030.105
811.659; 7878.332;  -12.194;11653.664
812.226; 6776.583;   -9.194;11637.183
812.793; 6444.230;   -9.644;11611.521
813.360; 7237.080;  -11.544;11885.181
813.926; 8095.597;  -12.814;12770.539
814.493; 8067.328;  -11.524;12677.638
815.060; 7777.225;  -12.254;11974.336
815.626; 7325.072;  -12.114;11594.715
816.193; 6973.382;  -11.994;11579.474
816.759; 6850.364;  -11.464;11666.972
817.325; 6542.171;  -10.444;11325.530
817.892; 6207.873;  -11.124;11105.369
818.458; 6120.093;  -11.864;10843.928
819.024; 6455.723;  -10.634;10714.406
819.591; 6548.763;  -10.554;10469.165
820.157; 6761.249;  -13.334;10235.523
820.723; 6971.808;  -13.044;10847.563
821.289; 7082.589;   -9.664;11040.980
821.855; 7293.972;  -10.994;10357.100
822.421; 7404.821;  -11.784; 9978.918
822.987; 7425.442;  -12.554; 9754.177
823.553; 7740.634;  -12.554;10065.755
824.119; 7558.383;   -8.544;10036.294
824.685; 6613.015;  -12.144;10029.192
825.251; 6035.233;  -12.754;10199.230
825.816; 5548.321;  -11.354; 9820.189
826.382; 5203.812;  -11.004; 9297.248
826.948; 5198.972;  -11.004; 9381.347
827.513; 5182.105;  -12.474; 9450.726
828.079; 5224.116;  -13.084; 9472.444
828.645; 5424.860;  -10.813; 9292.643
829.210; 5287.874;  -11.593; 9065.341
829.776; 5238.314;  -12.633; 9132.620
830.341; 5220.362;  -10.473; 9092.878
830.906; 5013.660;   -8.763; 9078.557
831.472; 4713.196;  -13.453; 8534.535
832.037; 4104.108;  -12.173; 8677.874
832.602; 3897.240;  -14.093; 8628.692
833.167; 4201.984;  -13.593; 8879.031
833.733; 4756.853;  -10.793; 9189.790
834.298; 5120.587;  -14.783; 9052.608
834.863; 4680.827;  -11.023; 8895.087
835.428; 4439.574;  -11.113; 8824.266
835.993; 4864.669;   -9.983; 8845.385
836.558; 5089.216;  -13.003; 8888.563
837.123; 4889.761;  -10.733; 8966.582
837.688; 4475.646;   -9.683; 8617.860
838.253; 4307.847;  -12.253; 8590.699
838.817; 4358.737;  -11.643; 8443.797
839.382; 4373.504;  -11.953; 8799.356
839.947; 4447.014;  -11.443; 8810.595
840.511; 4729.514;  -10.843; 8796.394
841.076; 4939.191;  -13.533; 8347.231
841.641; 4752.388;  -11.743; 8224.330
842.205; 4268.982;  -10.013; 8223.349
842.770; 4005.530;  -11.023; 8622.107
843.334; 4117.216;  -14.273; 8410.386
843.898; 4532.341;  -11.323; 8337.465
844.463; 4917.121;  -10.263; 8506.283
845.027; 5056.564;  -10.353; 8280.962
845.591; 4960.004;  -12.163; 8231.141
846.156; 4789.824;  -12.263; 7969.179
846.720; 4817.532;  -11.553; 7768.278
847.284; 4622.367;  -12.393; 7630.957
847.848; 3817.635;  -12.623; 7472.395
848.412; 3216.555;  -11.863; 7437.394
848.976; 3138.876;  -10.203; 7674.592
849.540; 3303.887;  -10.603; 7836.011
850.104; 3485.369;  -12.423; 7913.669
850.668; 3528.142;  -14.613; 7694.508
851.232; 3543.691;  -12.873; 7756.887
851.796; 3749.118;  -14.192; 7926.545
852.359; 3945.084;  -13.652; 7827.844
852.923; 3877.299;  -11.402; 7641.163
853.487; 3582.824;  -12.022; 7342.501
854.050; 3421.726;  -15.202; 7042.820
854.614; 3436.994;  -14.592; 7151.338
855.177; 3422.057;  -12.572; 7105.077
855.741; 3442.602;   -9.932; 6989.675
856.304; 3403.484;  -12.192; 6596.634
856.868; 3302.896;  -13.462; 6356.272
857.431; 3297.279;  -11.542; 6468.571
857.995; 3356.565;  -12.062; 6373.210
858.558; 3138.125;  -11.142; 6324.448
859.121; 2984.001;  -11.742; 6408.327
859.684; 3058.688;  -10.332; 6347.886
860.247; 3189.799;  -11.962; 6321.264
860.810; 3254.519;  -12.332; 6301.903
861.374; 3145.670;  -10.292; 6607.881
861.937; 2991.383;  -12.062; 6408.200
862.500; 3009.014;  -11.702; 6572.639
863.062; 3143.170;  -13.852; 6387.297
863.625; 3215.679;  -12.972; 6190.836
864.188; 3174.838;  -10.292; 5807.254
864.751; 3105.698;  -12.382; 5682.413
865.314; 2878.671;  -13.232; 5547.492
865.876; 2584.028;  -12.772; 5500.150
866.439; 2365.740;  -11.952; 5415.909
867.002; 2448.955;   -9.332; 5501.567
867.564; 2804.500;  -11.712; 5413.946
868.127; 2960.579;  -12.012; 5160.325
868.689; 2587.264;  -11.882; 5133.183
869.252; 2195.817;  -11.572; 5252.382
869.814; 2099.670;  -10.692; 5297.141
870.377; 2236.974;  -12.392; 5390.919
870.939; 2522.815;  -10.582; 5599.898
871.501; 2815.516;  -12.782; 5248.336
872.063; 2893.870;  -15.612; 4854.235
872.626; 2671.017;  -13.922; 4817.074
873.188; 2128.542;  -13.832; 4987.732
873.750; 1548.982;  -10.962; 4868.651
874.312; 1337.615;  -11.022; 4779.330
874.874; 1438.198;  -13.152; 4866.348
875.436; 1556.333;  -13.401; 4718.887
875.998; 1614.916;   -8.891; 4660.005
876.560; 1650.130;  -12.591; 4462.964
877.122; 1682.061;  -14.531; 4145.042
877.683; 1702.823;  -10.781; 4056.481
878.245; 1661.193;  -14.281; 3950.740
878.807; 1629.262;  -10.311; 4058.958
879.369; 1601.436;  -13.201; 3954.677
879.930; 1589.196;  -12.061; 3941.495
880.492; 1603.662;   -9.181; 4067.014
881.053; 1630.380;  -12.051; 3859.633
881.615; 1592.331;  -11.501; 3776.071
882.176; 1500.011;  -12.221; 3734.750
882.738; 1398.975;   -8.931; 3678.489
883.299; 1342.687;  -13.571; 3405.407
883.860; 1362.208;  -12.331; 3351.106
884.422; 1308.092;  -10.201; 3394.044
884.983; 1175.075;  -12.521; 3166.443
885.544; 1052.373;  -12.291; 3189.802
886.105;  999.804;  -12.991; 3160.360
886.666;  991.398;  -12.901; 3093.059
887.227;  984.992;  -12.061; 2941.957
887.788;  955.961;  -11.641; 2974.836
888.349;  911.506;  -14.691; 2721.214
888.910;  868.401;   -9.681; 2696.493
889.471;  861.525;   -9.971; 2560.172
890.032;  868.901;  -13.151; 2558.190
890.593;  849.499;  -12.051; 2567.669
891.153;  814.816;  -12.841; 2460.307
891.714;  787.536;  -13.561; 2372.046
892.275;  757.291;  -12.401; 2309.505
892.835;  719.070;  -13.191; 2382.543
893.396;  679.691;  -12.551; 2295.502
893.956;  658.490;  -11.981; 2162.420
894.517;  641.941;  -12.221; 2125.439
895.077;  603.099;  -12.021; 2086.978
895.638;  542.645;  -10.891; 2126.316
896.198;  490.912;  -13.171; 1838.275
896.758;  454.471;  -11.891; 1892.813
897.319;  426.794;  -12.491; 1792.232
897.879;  412.160;  -12.401; 1762.751
898.439;  385.725;  -13.431; 1661.149
898.999;  367.414;  -11.340; 1781.468
899.559;  359.920;  -13.930; 1703.347
900.119;  341.273;  -13.730; 1537.525
900.679;  323.970;   -9.210; 1638.384
901.239;  306.237;  -10.860; 1527.902
901.799;  286.621;  -11.450; 1456.441
902.359;  269.972;  -13.800; 1357.140
902.919;  263.136;  -12.130; 1331.118
903.479;  263.689;  -12.650; 1317.257
904.038;  256.132;  -16.110; 1262.595
904.598;  241.223;  -13.690; 1152.034
905.158;  227.686;  -10.290; 1240.893
905.717;  221.797;  -10.670; 1233.691
906.277;  221.428;  -14.040; 1217.330
906.836;  221.874;  -13.510; 1222.408
907.396;  216.382;  -11.530; 1193.047
907.955;  204.653;  -13.190; 1182.526
908.515;  192.612;  -12.950; 1099.364
909.074;  184.249;  -12.390; 1092.863
909.633;  179.941;  -10.340; 1069.121
910.192;  177.582;  -11.170; 1196.460
910.752;  172.857;  -14.200; 1029.960
911.311;  169.233;  -13.810; 1009.780
911.870;  166.175;  -12.750;  971.460
912.429;  164.377;  -12.380; 1094.080
912.988;  162.022;  -11.930; 1081.060
913.547;  156.684;  -10.990;  940.380
914.106;  153.402;  -11.200;  999.420
914.665;  151.789;  -13.150;  984.020
915.224;  148.613;  -13.310; 1035.760
915.782;  147.455;  -13.340;  922.560
916.341;  147.452;  -10.710; 1049.840
916.900;  144.908;  -12.980;  925.260
917.458;  142.317;  -13.060;  884.220
918.017;  141.214;  -10.900;  942.600
918.576;  140.253;  -11.630;  904.440
919.134;  138.993;  -12.860;  837.980
919.693;  138.935;  -15.160;  893.060
920.251;  138.044;  -13.470;  876.500
920.809;  137.060;  -13.700;  839.580
921.368;  135.582;  -13.420;  885.360
921.926;  135.954;  -14.710;  842.940
922.484;  135.951;  -12.560;  903.360
923.042;  136.266;  -11.930;  880.340
923.601;  137.060;  -10.270;  998.680
924.159;  136.490;  -12.960;  935.560
924.717;  135.961;  -13.040;  841.080
925.275;  137.776;  -12.560;  903.240
925.833;  137.848;  -13.040;  779.320
926.391;  140.234;  -13.360;  938.380
926.949;  139.980;  -13.940;  857.680
927.506;  141.292;   -9.400;  903.500
928.064;  140.066;  -10.940;  877.580
928.622;  139.282;  -13.180;  880.100
929.180;  140.144;  -12.730;  814.180
929.737;  141.363;  -12.840;  808.540
930.295;  144.427;  -11.810;  928.480
930.853;  147.356;  -13.650;  849.100
931.410;  150.201;  -13.580;  821.120
931.968;  152.266;  -12.020;  940.660
932.525;  152.872;  -13.320;  909.380
933.082;  154.196;  -13.800;  811.440
933.640;  159.672;  -11.380;  925.900
934.197;  161.895;  -11.480;  886.360
934.754;  165.502;  -13.220;  897.780
935.312;  164.143;  -14.950;  863.340
935.869;  162.107;  -10.940; 1012.980
936.426;  156.712;  -12.100;  872.800
936.983;  156.394;  -12.930;  889.020
937.540;  156.247;  -14.250;  838.280
938.097;  162.245;  -12.600;  940.120
938.654;  168.354;  -11.260;  898.860
939.211;  171.375;  -13.020;  952.480
939.768;  172.443;  -15.760;  915.420
940.324;  175.741;  -13.920;  904.200
940.881;  170.749;  -11.620;  878.500
941.438;  166.395;   -9.870; 1021.200
941.995;  164.454;  -13.920;  992.560
942.551;  163.312;  -12.830;  875.620
943.108;  166.019;  -11.980;  937.920
943.664;  168.393;  -13.740;  869.340
944.221;  174.458;  -12.670; 1088.140
944.777;  173.047;  -13.250;  869.680
945.334;  171.164;  -13.000;  884.840
945.890;  170.817;  -13.020;  946.480
946.446;  170.360;  -13.880;  947.020
947.003;  172.459;  -12.660;  964.940
947.559;  173.218;   -8.730; 1063.040
948.115;  169.655;  -11.960; 1026.540
948.671;  166.775;  -12.360;  967.300
949.227;  162.924;  -12.700;  859.560
949.783;  160.287;  -13.450;  858.900
950.339;  158.044;  -10.620;  991.000
950.895;  155.519;  -14.770; 1023.840
951.451;  153.613;  -13.650;  925.280
952.007;  154.213;  -11.180;  998.540
952.563;  152.264;  -11.680;  937.780
953.118;  152.185;  -13.280;  904.940
953.674;  154.627;  -12.510;  935.780
954.230;  154.658;  -12.220;  949.640
954.785;  149.934;  -12.190;  936.640
955.341;  144.239;  -12.270;  998.160
955.897;  139.004;  -14.900;  834.660
956.452;  139.137;  -12.520;  953.840
957.008;  138.409;   -9.410; 1083.640
957.563;  137.302;  -11.280; 1009.540
958.118;  135.518;  -13.470;  877.700
958.674;  137.848;  -12.190;  946.780
959.229;  139.502;  -12.760; 1013.980
959.784;  144.364;  -15.710;  832.400
960.339;  152.182;  -12.540; 1001.280
960.894;  153.403;  -11.680;  963.760
961.449;  147.007;  -11.410;  859.960
962.004;  145.703;  -10.430; 1212.840
962.559;  140.040;  -14.040;  860.140
963.114;  136.890;  -14.270;  742.480
963.669;  137.617;  -11.320;  915.500
964.224;  136.538;  -14.620;  874.340
964.779;  133.942;  -14.150;  828.420
965.334;  134.269;  -10.850; 1017.860
965.888;  133.061;  -14.530;  875.360
966.443;  133.741;  -13.520;  972.380
966.998;  129.624;  -13.370;  819.460
967.552;  127.673;   -9.960;  908.380
968.107;  122.927;  -12.360;  868.300
968.661;  123.834;  -12.270;  922.440
969.216;  124.193;  -12.140;  856.280
969.770;  124.883;  -11.860;  917.200
970.324;  124.338;  -12.170;  923.140
970.879;  122.484;  -14.160;  947.180
971.433;  120.875;  -12.940;  952.720
971.987;  117.309;  -10.180;  895.340
972.541;  116.133;  -12.130;  917.100
973.095;  115.756;  -14.980; 1009.460
973.649;  114.886;  -14.480;  809.480
974.203;  117.116;  -13.530;  829.040
974.757;  118.648;  -12.060;  855.220
975.311;  115.262;  -13.240;  872.600
975.865;  112.681;  -12.550;  881.820
976.419;  111.901;  -13.180;  857.400
976.973;  109.323;  -14.100;  849.620
977.526;  109.437;  -13.330;  949.920
978.080;  105.632;  -15.390;  796.780
978.634;  105.460;  -11.670;  921.320
979.187;  102.484;  -10.640;  905.400
979.741;  102.469;  -13.330; 1018.380
980.294;  100.215;  -14.480;  789.160
980.848;   97.929;  -13.420;  717.220
981.401;   96.667;  -12.360;  816.540
981.955;   93.689;  -12.480;  844.300
982.508;   90.239;  -14.000;  746.340
983.061;   91.016;  -10.440;  915.260
983.615;   86.341;  -14.340;  798.800
984.168;   83.484;  -14.950;  770.080
984.721;   84.956;  -13.270;  880.760
985.274;   82.382;  -12.240;  867.500
985.827;   79.690;  -12.720;  834.220
986.380;   75.182;  -14.920;  721.340
986.933;   76.811;  -12.860;  864.800
987.486;   75.625;  -10.440;  861.920
988.039;   74.446;  -11.820;  863.100
988.591;   72.458;  -13.760;  893.260
989.144;   70.750;  -14.080;  737.260
989.697;   72.341;  -13.440;  758.740
990.250;   71.726;  -12.050;  858.100
990.802;   70.060;  -14.550;  755.860
991.355;   71.012;  -10.770;  974.880
991.907;   68.603;  -11.710;  864.320
992.460;   66.194;  -12.650;  753.760
993.012;   64.756;  -13.860;  749.540
993.565;   63.877;  -14.310;  711.360
994.117;   64.521;   -9.920;  950.780
994.669;   59.355;  -13.420;  701.320
995.221;   58.944;  -14.200;  791.920
995.774;   59.047;  -13.400;  787.580
996.326;   58.360;  -11.850;  740.220
996.878;   57.101;  -12.230;  838.420
997.430;   55.000;  -14.260;  699.860
997.982;   55.115;  -11.430;  750.140
998.534;   55.167;  -11.590;  739.060
999.086;   54.232;  -11.960;  738.220
999.638;   53.552;  -13.640;  661.380
1000.190;   52.325;  -13.660;  699.320
1000.741;   52.958;   -9.980;  742.700
1001.293;   51.204;  -11.860;  686.020
1001.845;   50.120;  -14.280;  676.640
1002.396;   51.055;  -12.270;  743.400
1002.948;   50.313;  -13.670;  737.400
1003.500;   47.826;  -12.010;  723.780
1004.051;   49.579;  -11.890;  907.580
1004.603;   48.647;  -11.220;  791.820
1005.154;   45.265;  -13.210;  608.980
1005.705;   44.436;  -11.850;  723.960
1006.257;   44.212;  -13.670;  707.220
1006.808;   43.732;  -12.060;  685.460
1007.359;   43.070;  -10.250;  763.240
1007.910;   41.131;  -13.440;  646.640
1008.461;   41.082;  -13.170;  732.940
1009.013;   39.868;  -14.590;  588.340
1009.564;   41.486;  -12.100;  793.520
1010.115;   38.164;  -14.000;  597.040
1010.665;   38.865;  -15.020;  602.160
1011.216;   39.161;  -12.560;  667.920
1011.767;   38.886;  -11.330;  697.920
1012.318;   38.729;  -11.450;  736.980
1012.869;   37.289;  -11.000;  679.000
1013.419;   37.103;  -11.760;  603.120
1013.970;   38.292;  -11.800;  666.640
1014.521;   36.472;  -14.750;  620.620
1015.071;   36.248;  -14.430;  670.380
1015.622;   36.237;  -14.170;  635.460
1016.172;   36.271;  -11.700;  596.820
1016.723;   35.009;  -13.230;  614.380
1017.273;   34.772;  -16.120;  604.160
1017.823;   35.622;  -13.360;  650.340
1018.374;   34.824;  -13.710;  611.760
1018.924;   34.766;  -11.050;  716.880
1019.474;   34.921;  -14.120;  718.880
1020.024;   33.666;  -12.990;  657.580
1020.574;   34.993;  -12.010;  726.160
1021.124;   34.213;  -12.080;  673.580
1021.674;   31.932;  -15.860;  559.120
1022.224;   34.109;  -11.710;  708.940
1022.774;   33.710;  -13.030;  668.820
1023.324;   33.598;  -11.000;  753.520
1023.874;   34.867;  -13.270;  875.760
1024.423;   32.757;  -14.570;  613.700
1024.973;   33.069;  -12.620;  610.760
1025.523;   30.124;  -12.630;  620.960
1026.072;   30.904;  -14.110;  606.420
1026.622;   31.800;  -15.390;  675.740
1027.172;   31.908;   -9.090;  715.660
1027.721;   30.048;  -12.250;  601.220
1028.270;   30.028;  -15.590;  663.400
1028.820;   30.282;  -13.840;  638.080
1029.369;   30.472;  -13.170;  612.700
1029.918;   30.382;  -14.080;  649.840
1030.468;   29.048;  -13.860;  564.780
1031.017;   30.543;  -12.970;  634.800
1031.566;   28.830;  -12.320;  608.900
1032.115;   30.047;  -13.140;  694.500
1032.664;   27.804;  -14.560;  596.480
1033.213;   30.053;  -11.620;  735.420
1033.762;   29.041;  -13.190;  635.620
1034.311;   28.219;  -13.460;  677.220
1034.860;   27.788;  -15.770;  691.000
1035.408;   29.209;  -13.100;  722.720
1035.957;   29.741;  -12.880;  719.540
1036.506;   26.280;  -13.640;  530.800
1037.055;   28.612;  -12.420;  844.320
1037.603;   27.904;  -13.740;  664.000
1038.152;   25.802;  -13.840;  534.760
1038.700;   26.638;  -10.770;  585.740
1039.249;   26.111;  -13.520;  681.220
1039.797;   26.637;  -13.060;  633.360
1040.345;   26.291;  -11.760;  705.420
1040.894;   26.067;  -10.790;  625.300
1041.442;   25.617;  -15.420;  632.200
1041.990;   25.229;  -14.550;  559.160
1042.538;   24.741;  -15.620;  536.180
1043.087;   24.344;  -14.940;  570.860
1043.635;   26.115;  -12.100;  670.500
1044.183;   25.016;  -13.200;  586.400
1044.731;   25.556;  -11.630;  576.000
1045.279;   24.252;  -14.200;  674.920
1045.827;   26.697;  -12.510;  892.400
1046.374;   23.366;  -14.960;  515.420
1046.922;   23.610;  -11.850;  590.580
1047.470;   24.225;  -13.770;  691.300
1048.018;   23.635;  -15.380;  647.960
1048.565;   25.445;  -14.010;  708.600
1049.113;   23.242;  -14.620;  557.000
1049.660;   23.624;  -14.940;  629.660
1050.208;   23.363;  -14.540;  675.640
1050.755;   22.881;  -13.710;  606.580
1051.303;   24.342;  -11.880;  686.820
1051.850;   22.068;  -12.160;  635.120
1052.397;   20.270;  -15.110;  473.960
1052.945;   22.339;  -14.770;  617.760
1053.492;   23.627;  -12.320;  741.840
1054.039;   22.449;  -13.290;  720.180
1054.586;   20.397;  -15.210;  557.240
1055.133;   22.400;  -12.920;  693.140
1055.680;   22.705;  -12.610;  646.620
1056.227;   20.918;  -12.620;  542.780
1056.774;   23.417;  -13.010;  794.980
1057.321;   20.738;  -16.180;  523.260
1057.868;   21.328;  -11.230;  651.320
1058.415;   20.889;  -10.890;  651.980
1058.961;   21.359;  -12.530;  678.940
1059.508;   21.355;  -14.120;  643.820
1060.055;   20.412;  -13.340;  581.780
1060.601;   20.962;  -12.920;  624.300
1061.148;   19.716;  -14.430;  616.820
1061.694;   19.870;  -14.140;  592.580
1062.241;   20.669;  -12.550;  596.320
1062.787;   20.450;  -13.370;  663.140
1063.334;   22.097;  -12.260;  808.560
1063.880;   20.154;  -10.800;  668.360
1064.426;   20.844;   -9.920;  706.820
1064.972;   19.096;  -12.970;  601.340
1065.518;   17.168;  -14.440;  566.640
1066.065;   18.946;  -12.680;  624.460
1066.611;   18.355;  -13.520;  598.800
1067.157;   18.562;  -11.100;  641.860
1067.703;   18.851;  -14.100;  668.480
1068.249;   18.796;  -13.750;  605.220
1068.794;   19.016;  -11.070;  626.880
1069.340;   17.810;  -13.210;  578.960
1069.886;   17.123;  -14.850;  590.700
1070.432;   17.603;  -14.580;  541.720
1070.977;   17.772;  -12.930;  601.080
1071.523;   17.500;  -11.970;  573.060
1072.068;   16.398;  -13.730;  582.000
1072.614;   17.054;  -14.550;  527.760
1073.160;   18.330;  -13.690;  687.040
1073.705;   16.479;  -14.780;  572.520
1074.250;   15.674;  -15.430;  559.900
1074.796;   17.865;  -11.620;  655.160
1075.341;   18.018;  -11.580;  664.100
1075.886;   16.836;  -13.190;  594.240
1076.431;   15.571;  -13.630;  649.880
1076.976;   16.522;  -11.670;  639.220
1077.521;   15.485;  -11.600;  583.080
1078.067;   14.983;  -13.920;  579.400
1078.612;   15.622;  -12.910;  661.620
1079.156;   15.565;  -15.340;  601.540
1079.701;   16.338;  -12.560;  693.260
1080.246;   16.364;  -12.490;  696.300
1080.791;   15.053;  -14.550;  625.020
1081.336;   15.750;  -15.210;  659.320
1081.880;   16.540;  -11.280;  649.680
1082.425;   14.770;  -12.830;  573.480
1082.970;   16.019;  -11.680;  717.040
1083.514;   14.378;  -15.500;  597.000
1084.059;   14.500;  -11.770;  586.720
1084.603;   14.173;  -13.480;  565.840
1085.147;   13.803;  -13.940;  645.220
1085.692;   15.434;  -13.170;  716.800
1086.236;   13.275;  -15.740;  503.140
1086.780;   15.538;  -10.750;  751.440
1087.325;   14.038;  -14.900;  654.620
1087.869;   14.165;  -15.160;  610.700
1088.413;   15.657;  -11.030;  705.040
1088.957;   12.581;  -15.210;  543.400
1089.501;   14.618;  -12.310;  766.640
1090.045;   14.283;  -12.790;  726.480
1090.589;   12.567;  -14.040;  569.920
1091.133;   12.889;  -12.800;  673.340
1091.676;   13.444;  -13.600;  591.940
1092.220;   12.601;  -12.960;  600.920
1092.764;   14.459;  -10.830;  706.960
1093.307;   12.987;  -12.390;  673.780
1093.851;   11.353;  -15.850;  556.540
1094.395;   13.172;  -12.980;  683.140
1094.938;   13.280;  -13.670;  632.520
1095.482;   12.295;  -12.740;  559.800
1096.025;   12.599;  -13.340;  710.880
1096.568;   14.059;  -10.500;  779.280
1097.112;   10.312;  -13.500;  508.180
1097.655;   12.299;  -13.060;  603.000
1098.198;    9.783;  -13.240;  600.180
1098.741;   10.146;  -15.490;  612.860
1099.285;   12.499;  -13.410;  657.300
1099.828;    8.947;  -15.640;  439.400
1100.371;   11.316;  -13.980;  608.160
1100.914;   11.702;  -13.990;  682.660
1101.457;   12.304;  -15.030;  679.900
1101.999;   10.361;  -12.480;  584.680
1102.542;   10.897;  -12.410;  641.440
1103.085;   10.318;  -14.730;  658.500
1103.628;   11.782;  -12.190;  762.060
1104.170;   10.187;  -12.360;  588.280
1104.713;    9.573;  -13.350;  646.700
1105.256;    9.918;  -14.930;  557.440
1105.798;    8.935;  -15.150;  499.980
1106.341;   11.054;  -13.230;  728.900
1106.883;    8.866;  -14.680;  521.340
1107.425;   10.157;  -14.810;  668.180
1107.968;    9.706;  -12.940;  612.380
1108.510;    9.750;  -10.550;  684.960
1109.052;    8.424;  -15.640;  612.620
1109.594;    8.111;  -14.440;  554.440
1110.136;    9.467;  -11.380;  643.220
1110.679;    8.441;  -13.090;  633.080
1111.221;    9.405;  -14.230;  604.460
1111.763;    7.787;  -14.260;  559.220
1112.304;    8.725;  -14.510;  547.140
1112.846;    8.752;  -14.700;  666.240
1113.388;   11.636;  -12.270;  942.180
1113.930;    9.592;  -13.340;  694.200
1114.472;    8.634;  -12.560;  606.540
1115.013;    6.741;  -14.280;  551.280
1115.555;    6.800;  -14.010;  587.100
1116.097;    7.015;  -14.730;  579.480
1116.638;    8.308;  -12.160;  684.600
1117.180;    7.817;  -14.320;  667.740
1117.721;    6.493;  -15.730;  568.580
1118.262;    8.106;  -13.480;  677.960
1118.804;    8.063;  -11.530;  637.340
1119.345;    6.483;  -13.540;  578.400
1119.886;    8.351;  -14.470;  704.040
1120.427;    7.057;  -13.030;  589.020
1120.969;    6.680;  -13.150;  597.920
1121.510;    5.460;  -13.940;  563.060
1122.051;    7.220;  -12.310;  723.580
1122.592;    6.562;  -13.870;  655.420
1123.133;    5.605;  -12.890;  547.940
1123.673;    6.829;  -13.300;  706.480
1124.214;    5.615;  -14.000;  612.460
1124.755;    6.808;  -13.210;  639.460
1125.296;    6.482;  -13.450;  627.320
1125.836;    7.102;  -12.610;  691.500
1126.377;    5.443;  -15.840;  599.660
1126.918;    7.296;  -11.830;  614.980
1127.458;    6.207;  -11.830;  622.220
1127.999;    5.836;  -11.490;  656.980
1128.539;    6.180;  -12.900;  694.240
1129.079;    5.216;  -14.910;  632.720
1129.620;    4.469;  -12.920;  558.100
1130.160;    4.079;  -14.640;  539.480
1130.700;    5.323;  -13.270;  640.840
1131.240;    5.855;  -14.110;  643.700
1131.781;    4.972;  -13.130;  619.680
1132.321;    5.081;  -15.220;  599.120
1132.861;    3.552;  -15.670;  564.200
1133.401;    3.870;  -13.970;  593.940
1133.941;    5.338;  -13.740;  626.280
1134.481;    4.221;  -13.200;  597.580
1135.020;    3.176;  -14.830;  609.160
1135.560;    4.920;  -14.590;  674.940
1136.100;    3.562;  -13.730;  501.160
1136.640;    3.540;  -15.240;  510.480
1137.179;    3.082;  -14.710;  537.960
1137.719;    3.878;  -14.090;  605.400
1138.258;    4.758;  -12.470;  587.360
1138.798;    4.795;  -12.580;  663.780
1139.337;    2.428;  -16.480;  482.840
1139.877;    3.548;  -13.970;  642.360
1140.416;    6.559;   -9.870;  878.060
1140.955;    3.004;  -14.860;  535.380
1141.494;    4.196;  -14.530;  669.280
1142.034;    1.934;  -13.940;  583.520
1142.573;    4.970;  -11.160;  646.280
1143.112;    2.171;  -15.050;  553.480
1143.651;    2.632;  -15.390;  536.480
1144.190;    4.185;  -12.990;  691.640
1144.729;    3.474;  -12.220;  607.420
1145.267;    3.189;  -14.020;  584.900
1145.806;    3.130;  -12.740;  637.040
1146.345;    2.784;  -14.810;  635.020
1146.884;    2.623;  -12.920;  622.500
1147.422;    1.651;  -13.930;  533.060
1147.961;    3.584;  -11.830;  708.460
1148.500;    3.333;  -12.710;  669.720
1149.038;    4.535;  -14.420;  632.500
1149.577;    3.031;  -13.920;  698.640
1150.115;    0.679;  -17.050;  452.280
1150.653;    1.720;  -14.890;  607.340
1151.192;    2.279;  -15.270;  552.920
1151.730;    1.979;  -13.160;  652.560
1152.268;    1.213;  -15.430;  589.520
1152.806;    1.607;  -15.880;  571.180
1153.344;    1.561;  -13.240;  577.640
1153.882;    1.672;  -13.010;  600.060
1154.421;   -0.657;  -16.180;  470.620
1154.958;    1.070;  -13.880;  595.240
1155.496;    2.113;  -13.590;  645.280
1156.034;    0.954;  -11.910;  721.880
1156.572;    2.204;  -12.010;  667.060
1157.110;    0.144;  -16.250;  473.940
1157.647;    1.882;  -15.230;  676.960
1158.185;    0.269;  -13.770;  564.320
1158.723;   -0.255;  -15.300;  509.200
1159.260;    1.296;  -13.130;  701.700
1159.798;    2.115;  -11.300;  658.160
1160.335;    1.039;  -13.210;  631.820

