
Integration time [ms]:   3.882
Averaging Nr. [scans]: 1000
Smoothing Nr. [pixels]: 0
Data measured with spectrometer [name]: 7414430SP
Wave   ;Sample   ;Dark     ;Reference
[nm]   ;[counts] ;[counts] ;[counts] 

288.544;  142.681;    7.153;  793.890
289.143;  146.028;    8.402;  681.602
289.742;  147.890;    7.062;  828.814
290.341;  134.214;    0.191;  789.841
290.940;  124.193;    0.321;  730.702
291.538;  125.229;    3.811;  881.108
292.137;  124.633;   -3.438;  792.581
292.736;  127.750;   -2.809;  975.101
293.335;  123.624;   -5.239;  735.086
293.934;  124.957;   -4.939;  781.677
294.532;  124.912;   -2.199; 1031.958
295.131;  110.327;   -6.831;  834.394
295.730;  110.058;   -6.620;  809.588
296.328;  108.008;   -6.471;  783.442
296.927;  108.399;   -6.571;  779.652
297.525;  109.453;   -7.391;  781.236
298.124;   99.330;   -9.402;  654.009
298.722;  104.335;   -5.781;  761.933
299.321;  103.676;   -6.351;  708.597
299.919;  100.826;   -8.661;  751.918
300.518;   96.556;  -11.922;  689.338
301.116;   97.924;   -6.941;  691.381
301.715;   97.836;   -5.471;  730.222
302.313;   98.200;   -8.361;  704.943
302.911;   92.987;   -9.082;  733.830
303.509;   98.073;   -4.571;  925.627
304.108;   95.994;   -7.111;  760.383
304.706;   94.510;   -7.681;  801.664
305.304;   89.273;   -9.162;  796.707
305.902;   94.546;   -6.761;  784.484
306.500;   90.951;   -6.921;  728.200
307.098;   88.904;   -6.491;  746.560
307.696;   87.396;   -6.941;  780.432
308.294;   87.572;   -6.301;  731.359
308.892;   90.325;   -4.771;  759.769
309.490;   85.809;   -5.141;  712.161
310.088;   83.623;   -2.912;  788.444
310.686;   88.149;   -0.421;  821.749
311.284;   84.494;   -3.461;  766.040
311.882;   81.673;   -6.282;  731.225
312.480;   79.113;   -3.632;  697.167
313.078;   80.024;   -2.112;  808.331
313.675;   81.917;   -1.931;  691.600
314.273;   75.538;   -1.442;  797.837
314.871;   75.027;   -3.002;  589.829
315.468;   73.715;   -2.252;  652.090
316.066;   77.813;   -1.091;  694.427
316.664;   70.681;   -4.512;  656.351
317.261;   74.002;   -0.062;  910.128
317.859;   69.703;   -0.952;  768.735
318.456;   71.091;    0.719;  830.096
319.054;   67.032;   -4.002;  787.828
319.651;   65.018;   -4.972;  759.928
320.249;   64.134;   -1.162;  810.188
320.846;   62.581;   -2.651;  714.286
321.443;   61.111;   -3.832;  832.135
322.041;   56.884;   -4.312;  812.315
322.638;   54.747;   -3.872;  701.456
323.235;   56.750;   -4.361;  665.683
323.833;   55.414;   -4.821;  740.354
324.430;   49.441;   -6.971;  615.900
325.027;   51.331;   -4.361;  876.855
325.624;   51.169;   -5.581;  644.532
326.221;   48.856;   -6.601;  689.717
326.818;   47.522;   -7.301;  818.332
327.415;   49.717;   -6.180;  748.828
328.012;   50.567;   -5.920;  690.585
328.609;   47.442;   -8.390;  731.389
329.206;   45.954;   -6.121;  778.621
329.803;   46.369;   -5.241;  737.841
330.400;   49.412;   -7.420;  704.260
330.997;   49.206;   -5.931;  817.147
331.594;   47.594;   -5.641;  788.185
332.191;   52.378;   -6.451;  728.722
332.787;   56.368;   -4.651;  844.463
333.384;   53.455;   -5.472;  763.093
333.981;   51.634;   -6.303;  815.687
334.578;   54.857;   -5.892;  708.378
335.174;   56.918;   -4.102;  731.469
335.771;   55.456;   -8.053;  836.456
336.367;   52.928;   -7.363;  710.631
336.964;   56.558;   -6.243;  793.266
337.561;   56.416;   -5.653;  731.112
338.157;   50.584;   -7.074;  911.916
338.754;   48.716;   -5.474;  796.589
339.350;   47.212;   -5.624;  722.493
339.946;   49.660;   -5.054;  773.135
340.543;   42.447;   -6.695;  846.136
341.139;   35.284;   -6.215;  720.836
341.735;   33.780;   -5.746;  772.593
342.332;   34.000;   -7.335;  691.472
342.928;   33.590;   -4.835;  795.394
343.524;   27.137;   -4.586;  761.684
344.120;   24.681;   -3.946;  738.562
344.716;   28.557;   -4.835;  723.717
345.313;   25.945;   -5.325;  795.342
345.909;   20.838;   -6.535;  627.336
346.505;   23.304;   -4.725;  740.247
347.101;   23.875;   -4.164;  827.864
347.697;   24.266;   -5.274;  785.398
348.293;   17.901;   -7.145;  627.244
348.889;   19.587;   -4.364;  745.914
349.485;   19.654;   -6.404;  688.205
350.081;   19.822;   -7.534;  772.592
350.676;   14.233;   -6.995;  691.606
351.272;   19.094;   -3.544;  809.530
351.868;   19.339;   -5.324;  780.497
352.464;   17.496;   -7.204;  723.932
353.059;   12.539;   -6.894;  646.017
353.655;   15.831;   -3.754;  777.063
354.251;   17.704;   -6.143;  759.845
354.846;   11.591;   -9.464;  740.646
355.442;    9.579;   -7.555;  753.071
356.038;   11.202;   -5.474;  751.708
356.633;   11.833;   -5.914;  728.594
357.229;   10.023;   -8.944;  724.757
357.824;    8.648;   -6.794;  703.600
358.420;    7.123;   -5.754;  679.726
359.015;    8.603;   -5.664;  695.357
359.610;    9.133;   -8.004;  763.920
360.206;    3.078;   -8.815;  603.240
360.801;    5.732;   -8.834;  646.503
361.396;    9.171;   -6.274;  725.975
361.992;    3.682;   -8.574;  668.220
362.587;    0.919;   -9.265;  670.160
363.182;    2.522;   -5.484;  689.631
363.777;    4.368;   -5.164;  738.242
364.372;    3.805;   -6.954;  737.314
364.967;    0.427;   -7.065;  680.744
365.563;    4.263;   -5.684;  815.567
366.158;    1.986;   -6.484;  685.161
366.753;    1.582;   -8.004;  649.263
367.348;    0.368;  -10.114;  746.056
367.942;   -0.631;   -7.764;  697.298
368.537;    0.368;   -4.554;  754.245
369.132;   -0.221;   -7.664;  703.428
369.727;   -5.209;   -8.905;  638.079
370.322;   -3.953;   -4.945;  580.186
370.917;   -3.315;   -7.095;  710.646
371.511;    0.065;   -6.574;  861.834
372.106;   -3.461;   -6.515;  776.964
372.701;   -7.050;   -8.225;  585.988
373.296;   -0.369;   -4.494;  863.135
373.890;   -5.877;   -7.965;  647.840
374.485;   -8.339;   -9.745;  691.199
375.079;   -4.907;   -5.554;  738.685
375.674;   -2.518;   -4.724;  812.970
376.268;   -7.680;   -8.365;  691.759
376.863;  -13.733;   -8.126;  580.327
377.457;   -6.012;   -6.045;  662.490
378.052;   -8.073;   -6.835;  764.884
378.646;   -8.782;   -9.375;  741.167
379.240;   -9.651;   -6.185;  721.176
379.835;   -8.944;   -6.135;  636.978
380.429;   -9.988;   -8.365;  562.557
381.023;  -10.316;   -7.935;  779.205
381.617;  -12.418;   -8.325;  680.106
382.212;  -10.069;   -7.405;  685.303
382.806;   -8.478;   -4.155;  760.690
383.400;  -12.294;   -8.945;  672.281
383.994;  -13.360;   -8.365;  664.870
384.588;   -9.709;   -7.824;  697.701
385.182;   -7.256;   -7.984;  726.624
385.776;   -9.124;  -10.404;  706.875
386.370;  -13.499;   -7.335;  681.968
386.964;  -11.704;   -7.485;  684.155
387.558;   -9.385;   -8.174;  598.360
388.152;  -13.120;  -10.415;  681.959
388.745;  -11.044;   -9.595;  814.707
389.339;   -9.447;   -6.454;  747.642
389.933;   -8.608;   -5.804;  695.370
390.527;   -9.768;   -6.854;  859.029
391.120;  -16.363;   -7.665;  595.318
391.714;  -13.212;   -7.245;  711.633
392.308;   -9.232;   -4.514;  780.253
392.901;  -13.205;   -7.935;  642.460
393.495;  -14.879;   -8.585;  595.414
394.089;  -12.486;   -5.245;  760.452
394.682;  -13.395;   -6.305;  697.188
395.275;  -13.693;   -9.335;  719.927
395.869;  -15.657;   -7.375;  667.314
396.462;  -14.078;   -7.055;  616.609
397.056;  -10.018;   -5.434;  776.621
397.649;  -13.741;   -9.525;  731.575
398.242;  -11.617;   -7.574;  712.645
398.836;  -11.155;   -5.134;  766.408
399.429;  -11.726;   -6.544;  631.041
400.022;  -15.647;   -9.215;  665.902
400.615;  -13.023;   -8.105;  805.609
401.208;  -11.330;   -7.614;  691.451
401.802;  -13.431;   -8.085;  699.329
402.395;  -14.296;   -9.575;  683.502
402.988;  -15.639;   -9.285;  696.627
403.581;  -12.529;   -7.514;  646.878
404.174;   -9.402;   -6.404;  686.568
404.767;  -13.013;   -8.775;  638.583
405.360;  -14.852;   -7.415;  621.445
405.953;   -9.619;   -5.624;  759.034
406.545;   -8.821;   -6.474;  725.342
407.138;  -13.920;   -8.445;  618.350
407.731;  -12.437;  -10.044;  613.303
408.324;   -8.460;   -8.484;  660.554
408.917;   -8.883;   -7.624;  681.864
409.509;  -10.361;   -8.304;  740.396
410.102;  -13.123;   -8.495;  643.948
410.695;   -6.829;   -7.824;  665.758
411.287;   -7.199;   -7.754;  599.821
411.880;   -9.026;   -9.294;  585.421
412.472;  -12.469;   -8.814;  613.092
413.065;   -9.407;   -6.674;  629.408
413.657;   -6.843;   -9.664;  576.678
414.250;   -6.692;  -10.264;  646.681
414.842;   -8.843;   -8.664;  676.353
415.434;   -6.321;   -8.584;  570.463
416.027;   -1.724;   -9.423;  652.196
416.619;   -3.799;  -10.764;  713.400
417.211;   -5.111;   -7.404;  599.352
417.804;   -0.850;   -7.383;  628.499
418.396;   -4.509;   -8.334;  607.643
418.988;   -2.526;   -9.633;  659.238
419.580;   -5.853;  -10.554;  568.276
420.172;   -3.808;   -8.683;  536.196
420.764;    0.980;   -9.713;  672.482
421.356;   -0.696;  -11.303;  636.898
421.948;   -1.918;   -8.453;  677.661
422.540;    3.218;   -5.793;  680.027
423.132;    3.061;   -7.162;  600.641
423.724;   -1.123;   -7.933;  561.267
424.316;    0.806;   -9.083;  621.345
424.908;    4.509;   -8.392;  591.517
425.500;    6.085;   -8.062;  647.978
426.092;    6.568;   -9.692;  648.268
426.683;    4.789;   -8.223;  684.836
427.275;    7.727;   -8.602;  641.471
427.867;    9.554;   -8.382;  668.948
428.458;    9.916;  -10.472;  732.344
429.050;    8.478;   -9.112;  680.749
429.642;   10.501;   -7.752;  743.124
430.233;   11.496;   -8.832;  569.356
430.825;   13.067;   -8.292;  724.809
431.416;    9.230;   -7.522;  698.241
432.008;   13.661;   -9.262;  651.723
432.599;   14.309;   -6.441;  656.073
433.190;   11.830;   -9.222;  637.670
433.782;   10.055;  -11.832;  590.395
434.373;   17.877;   -7.121;  884.765
434.964;   17.219;   -9.141;  602.920
435.556;   14.713;   -9.332;  634.537
436.147;   17.035;   -8.892;  758.490
436.738;   17.308;   -8.151;  701.099
437.329;   23.057;   -8.281;  721.723
437.920;   15.103;   -9.062;  666.688
438.511;   14.827;  -11.182;  564.526
439.103;   21.279;   -7.461;  623.998
439.694;   23.974;   -8.541;  681.583
440.285;   25.195;   -7.351;  764.432
440.876;   23.437;   -8.201;  845.738
441.466;   22.695;  -10.381;  575.162
442.057;   28.311;   -7.620;  665.814
442.648;   26.677;   -8.461;  746.255
443.239;   24.743;   -8.991;  620.477
443.830;   29.549;   -7.910;  704.958
444.421;   32.381;   -7.340;  655.474
445.011;   28.912;   -8.981;  693.619
445.602;   27.796;   -9.341;  743.126
446.193;   29.957;  -11.390;  488.117
446.783;   34.332;  -11.240;  640.397
447.374;   30.162;   -8.471;  692.759
447.964;   30.395;   -8.471;  713.770
448.555;   39.448;   -6.590;  822.742
449.145;   35.629;   -8.200;  662.853
449.736;   36.477;  -11.040;  803.179
450.326;   35.695;   -9.640;  713.626
450.917;   40.408;   -9.480;  675.324
451.507;   40.576;   -8.020;  600.661
452.097;   41.686;  -10.210;  746.267
452.688;   41.988;   -7.810;  742.160
453.278;   42.091;   -9.360;  566.840
453.868;   47.149;   -8.669;  793.550
454.458;   44.327;  -10.950;  651.141
455.048;   45.282;  -10.200;  711.783
455.639;   46.055;   -9.369;  567.096
456.229;   50.221;   -7.739;  710.694
456.819;   51.930;   -8.939;  751.158
457.409;   51.930;   -7.169;  773.993
457.999;   54.465;   -7.779;  737.505
458.589;   55.309;   -7.039;  686.606
459.179;   55.262;   -9.019;  717.658
459.769;   52.439;   -8.909;  627.099
460.358;   57.351;   -8.659;  797.262
460.948;   57.641;   -8.209;  689.503
461.538;   59.469;   -9.879;  660.677
462.128;   57.592;   -9.379;  664.934
462.717;   64.514;   -9.158;  710.326
463.307;   67.342;   -8.638;  705.846
463.897;   64.024;   -8.869;  656.942
464.486;   61.677;   -7.409;  837.128
465.076;   66.530;   -9.618;  733.776
465.666;   70.377;   -7.578;  652.900
466.255;   68.858;   -9.369;  785.651
466.845;   67.052;  -10.049;  666.749
467.434;   70.520;   -8.168;  725.873
468.023;   72.002;   -9.188;  658.357
468.613;   69.017;   -9.849;  713.946
469.202;   73.400;  -12.958;  646.507
469.791;   77.994;   -9.488;  737.811
470.381;   80.119;   -6.468;  742.813
470.970;   79.942;  -10.248;  711.099
471.559;   79.151;  -11.428;  733.291
472.148;   81.604;   -9.738;  675.737
472.738;   85.513;   -7.877;  765.466
473.327;   84.782;  -11.868;  637.529
473.916;   84.890;   -8.578;  737.446
474.505;   87.533;  -11.137;  751.703
475.094;   91.714;   -9.407;  806.570
475.683;   91.368;   -9.977;  797.699
476.272;   91.335;  -10.807;  730.632
476.861;   94.430;  -11.017;  706.754
477.449;  101.790;  -10.316;  728.487
478.038;   95.736;  -10.187;  692.513
478.627;   96.921;  -12.458;  714.852
479.216;  102.652;  -10.127;  769.441
479.805;  107.398;   -6.256;  783.375
480.393;  106.937;   -8.737; 1008.945
480.982;  104.966;   -9.087;  874.501
481.571;  111.246;   -7.806;  858.333
482.159;  112.592;  -10.596;  705.386
482.748;  111.702;  -11.507;  821.385
483.336;  116.558;   -8.366;  858.209
483.925;  117.109;   -7.497;  774.373
484.513;  124.131;   -8.326;  758.962
485.102;  121.095;  -10.277;  810.965
485.690;  129.636;   -8.256; 1011.050
486.278;  130.711;   -7.146;  979.329
486.867;  132.084;   -7.986;  809.662
487.455;  134.424;   -9.926;  898.229
488.043;  134.708;  -10.026;  748.361
488.631;  144.531;   -7.226; 1005.079
489.220;  148.706;   -8.696;  908.626
489.808;  148.625;  -12.276;  741.415
490.396;  155.906;   -9.386;  914.645
490.984;  162.010;   -8.506;  830.161
491.572;  172.927;   -8.226;  940.315
492.160;  179.500;   -9.836;  919.081
492.748;  191.262;  -10.316;  884.341
493.336;  210.986;   -7.146; 1019.693
493.924;  236.289;   -7.965;  958.077
494.512;  263.463;  -10.316; 1066.638
495.100;  302.248;  -10.186; 1103.280
495.687;  358.321;   -7.805; 1206.373
496.275;  424.962;   -9.686; 1150.796
496.863;  510.939;  -11.566; 1281.171
497.451;  608.290;  -11.406; 1386.805
498.038;  739.730;   -8.235; 1556.729
498.626;  864.155;   -7.485; 1741.407
499.214; 1032.376;   -8.646; 2016.609
499.801; 1287.113;   -9.936; 2220.633
500.389; 1499.200;   -8.056; 2312.494
500.976; 1699.893;   -6.166; 2744.849
501.564; 1912.538;   -9.126; 3148.565
502.151; 2249.521;  -12.456; 3515.999
502.738; 2681.427;  -10.056; 3971.274
503.326; 3095.174;  -10.605; 4403.796
503.913; 3466.922;  -10.576; 5161.749
504.500; 3988.225;   -9.056; 5986.420
505.088; 4499.625;  -10.136; 6381.201
505.675; 5324.877;   -9.075; 6925.547
506.262; 5832.414;  -11.346; 7619.060
506.849; 6454.901;   -9.376; 8733.969
507.436; 7046.380;   -7.365; 9790.121
508.023; 7381.454;   -8.686; 9985.472
508.610; 7797.049;   -8.846;10434.618
509.197; 8818.704;   -9.077;11198.435
509.784;10245.767;  -10.246;12391.194
510.371;10787.146;   -9.825;13603.713
510.958;11641.232;  -10.896;14426.586
511.545;12469.277;   -9.006;15243.775
512.132;13177.655;   -8.765;15945.876
512.719;14343.560;   -8.286;16340.369
513.305;16404.816;   -9.256;18011.766
513.892;18836.432;  -11.106;19754.971
514.479;20839.385;   -8.576;20967.805
515.066;22348.279;   -9.046;22299.793
515.652;23024.432;  -10.676;22908.660
516.239;24583.422;  -10.166;23798.875
516.825;25011.447;  -11.266;25567.275
517.412;24299.926;   -7.446;28154.959
517.998;24412.920;  -10.916;28344.111
518.585;23743.098;   -9.166;27134.219
519.171;23599.074;  -10.135;27268.576
519.758;25229.125;   -8.806;28964.129
520.344;28589.309;   -6.716;30664.494
520.930;30561.352;  -10.166;32550.605
521.516;31156.305;   -9.615;35422.895
522.103;32631.648;   -8.656;38280.004
522.689;34464.629;   -9.646;37835.117
523.275;35162.766;  -10.786;37288.613
523.861;36212.320;   -9.266;37281.395
524.447;36105.496;   -8.285;37846.949
525.033;36480.242;   -9.426;38321.949
525.619;35989.750;   -9.836;38579.285
526.205;37005.133;   -8.136;40622.875
526.791;38225.621;   -9.986;42258.836
527.377;39917.980;   -8.236;42966.902
527.963;38118.602;  -12.117;42018.949
528.549;36472.688;   -8.376;42476.828
529.135;37664.426;   -8.696;41854.852
529.721;39599.285;   -9.686;41237.711
530.306;41654.828;   -8.616;41259.445
530.892;45219.465;   -9.396;41506.047
531.478;46014.152;   -9.926;43559.613
532.063;47150.383;  -10.236;47695.563
532.649;49401.887;   -8.257;50808.324
533.235;50782.371;  -11.476;51787.500
533.820;49406.383;   -8.156;52145.035
534.406;48616.293;  -12.257;51133.488
534.991;46740.508;   -8.686;49996.805
535.576;44297.559;   -9.426;48882.852
536.162;43957.148;   -8.436;46942.285
536.747;42792.996;  -10.957;45711.746
537.333;42210.711;  -13.147;48510.180
537.918;44899.613;   -9.027;50439.891
538.503;45807.969;   -8.256;50863.711
539.088;49340.016;  -10.576;50906.922
539.673;51475.559;  -10.907;52621.965
540.259;52264.828;   -9.126;52368.094
540.844;49343.094;   -9.026;50879.109
541.429;51049.355;   -9.597;52077.777
542.014;55127.977;  -11.447;52716.695
542.599;55919.156;   -9.236;52363.281
543.184;54126.816;  -12.267;53187.137
543.769;55582.328;  -10.367;54697.605
544.354;55316.141;  -10.887;53913.914
544.938;48629.789;  -11.687;49680.164
545.523;43483.910;   -8.286;47386.277
546.108;44560.316;   -9.317;49151.949
546.693;46419.480;  -10.187;51384.637
547.278;45235.363;   -9.926;51853.254
547.862;44802.379;   -9.196;51173.750
548.447;44575.438;   -9.657;51691.395
549.031;45422.504;   -9.127;52456.703
549.616;48988.723;  -10.836;52714.516
550.201;52024.641;   -8.507;52414.598
550.785;52638.297;  -10.537;52355.059
551.370;53385.371;  -11.727;54589.453
551.954;53047.234;   -9.457;58267.348
552.538;51835.016;   -8.147;59062.176
553.123;50585.941;   -9.397;58115.285
553.707;48477.617;   -9.558;56556.285
554.291;48857.469;   -9.417;56201.668
554.876;49324.910;   -7.627;55335.762
555.460;47912.559;  -10.457;54155.703
556.044;45953.121;  -10.078;53721.484
556.628;46518.574;   -9.407;53731.016
557.212;46581.191;   -7.957;54312.531
557.796;46565.320;  -11.327;53797.773
558.380;50983.160;  -10.868;56145.984
558.964;51225.176;   -9.637;57277.930
559.548;49128.078;   -8.807;56459.641
560.132;49975.516;  -10.187;54434.543
560.716;49024.395;   -9.868;54800.617
561.300;50372.234;  -10.217;57606.945
561.884;51397.848;   -4.947;58972.445
562.467;50386.918;   -9.588;57327.570
563.051;48192.547;  -11.138;54962.434
563.635;46201.723;   -9.358;52594.473
564.219;45787.430;   -9.797;50610.410
564.802;46482.145;   -9.918;49551.180
565.386;44230.766;  -10.838;48370.953
565.969;42875.117;   -8.037;48178.871
566.553;41988.742;   -5.667;49957.305
567.136;41218.055;   -8.258;50369.594
567.720;40426.254;  -11.278;49492.004
568.303;42438.332;   -9.028;50616.352
568.887;42531.680;   -7.508;50727.148
569.470;41376.211;  -11.068;51698.379
570.053;41324.234;  -10.028;52122.078
570.637;40020.410;  -11.077;52536.438
571.220;39962.801;   -8.747;51186.098
571.803;41728.852;   -8.868;51032.762
572.386;43720.262;  -10.608;49609.887
572.969;43038.387;  -10.548;48285.926
573.552;40488.539;   -7.898;47624.285
574.135;41672.473;   -9.918;45498.641
574.718;37455.961;  -10.328;41970.434
575.301;34388.066;   -9.548;41447.137
575.884;31320.174;   -8.768;40923.836
576.467;34854.203;   -9.858;45267.723
577.050;35614.605;  -11.018;48175.543
577.633;36920.020;  -10.048;47729.328
578.216;36181.457;  -10.268;47579.793
578.799;33509.863;  -11.808;47820.996
579.381;33405.984;   -7.338;48115.551
579.964;36250.898;   -9.728;47333.766
580.547;37391.793;   -8.928;46668.969
581.129;38233.313;   -9.149;44466.141
581.712;38358.355;  -11.359;44164.922
582.294;35907.863;  -10.738;46477.855
582.877;34911.922;   -8.788;48244.254
583.459;35705.676;   -9.859;47437.895
584.042;37998.848;   -9.649;46943.219
584.624;37656.449;  -10.529;46792.227
585.206;36205.004;  -10.298;46557.250
585.789;35429.359;  -11.029;45793.773
586.371;33760.219;   -9.359;43836.391
586.953;33119.883;   -8.799;42972.492
587.536;32767.668;   -8.928;42487.211
588.118;33088.254;   -9.180;42086.414
588.700;32599.303;  -10.519;43389.930
589.282;31427.209;   -8.098;43646.039
589.864;31159.797;   -8.139;43438.109
590.446;33268.563;  -10.509;43151.926
591.028;34320.441;  -11.119;42781.867
591.610;35618.551;  -10.019;42839.098
592.192;34968.195;   -8.838;42820.402
592.774;31886.104;  -11.549;40724.277
593.356;29041.754;  -11.609;39874.789
593.937;28452.281;  -10.019;39980.648
594.519;31063.861;   -7.839;42069.633
595.101;33792.215;  -10.779;42976.031
595.683;34823.844;  -10.049;44084.441
596.264;34133.336;   -9.969;43478.797
596.846;33832.070;   -9.699;43803.672
597.427;32672.732;  -10.970;42986.934
598.009;32168.209;  -13.090;42832.219
598.591;31638.828;   -9.509;42580.086
599.172;31764.178;   -9.019;43061.805
599.753;32352.029;  -13.310;41691.469
600.335;33197.449;  -11.010;40692.520
600.916;32587.773;  -10.309;39982.422
601.498;31582.053;   -8.209;40318.617
602.079;31044.750;  -11.440;40670.609
602.660;32872.637;   -8.690;41450.898
603.241;34391.961;  -12.759;41137.738
603.823;32932.348;  -10.409;38868.797
604.404;32349.443;  -11.790;38182.785
604.985;33937.297;  -10.280;38078.047
605.566;35311.426;   -8.059;38056.633
606.147;32573.703;   -8.960;37020.418
606.728;30641.826;  -10.710;37883.359
607.309;29807.695;  -12.760;38748.273
607.890;28102.756;   -9.959;38850.230
608.471;28548.617;   -9.780;37457.918
609.051;30508.191;   -8.940;36066.457
609.632;31880.957;  -12.070;35991.074
610.213;31737.434;   -9.610;37402.641
610.794;31292.744;   -8.750;38383.363
611.374;31581.264;  -11.100;40562.387
611.955;32182.041;  -12.200;38533.727
612.536;32510.033;  -10.410;36951.789
613.116;31911.672;  -10.010;37197.891
613.697;30356.078;  -10.480;38411.125
614.277;29945.600;  -12.751;38673.938
614.858;29120.369;  -11.600;37075.863
615.438;29486.291;   -8.190;35092.906
616.019;28086.566;   -8.941;33666.301
616.599;29596.912;  -13.540;34189.023
617.179;31874.951;  -10.890;36952.047
617.760;31077.258;   -7.610;39582.574
618.340;29427.086;  -14.441;38943.977
618.920;29197.326;   -9.180;37594.156
619.500;31425.404;  -11.881;37866.938
620.080;33006.805;   -9.870;37869.043
620.660;31982.875;  -13.211;36868.617
621.241;30632.457;  -11.921;36352.309
621.821;29833.615;  -10.271;35459.520
622.401;30596.229;   -8.200;35207.414
622.980;32355.613;  -11.141;35980.422
623.560;32126.756;  -14.321;37351.328
624.140;30761.299;   -9.360;34388.582
624.720;26591.588;   -7.481;32368.764
625.300;24296.404;  -12.730;32638.629
625.880;28386.670;  -11.441;34599.035
626.459;32085.686;  -10.971;36831.738
627.039;35625.141;   -9.011;38299.098
627.619;35733.270;   -8.521;38289.574
628.198;34027.000;   -9.861;37220.695
628.778;33019.816;   -8.841;37632.563
629.357;33260.391;   -9.891;38003.012
629.937;32997.492;  -11.871;38402.039
630.516;32461.016;  -10.641;37868.801
631.096;34686.539;  -11.391;35760.410
631.675;36297.262;   -6.622;35225.219
632.254;33541.551;  -13.002;35130.289
632.834;32085.842;  -11.622;35794.570
633.413;32838.082;   -8.321;35788.922
633.992;31073.127;   -7.732;34532.863
634.571;31467.621;  -10.992;33590.113
635.151;30940.549;  -10.422;34943.863
635.730;31530.422;  -11.511;35352.523
636.309;31138.102;   -7.901;35366.605
636.888;30633.416;  -11.452;36165.637
637.467;30241.928;  -10.672;37515.902
638.046;30956.119;   -9.301;39288.695
638.625;32262.047;  -11.452;38279.699
639.204;32902.375;  -12.262;37741.598
639.782;33261.082;  -11.892;38364.551
640.361;31401.807;  -11.411;36740.621
640.940;26323.381;  -11.501;34950.082
641.519;28566.711;  -10.921;34137.398
642.097;32167.234;  -10.101;35654.258
642.676;30696.834;  -10.821;35637.957
643.255;31991.730;   -8.631;36567.074
643.833;34726.512;  -11.411;37809.434
644.412;37342.590;  -12.021;37337.293
644.990;37634.477;  -12.271;37018.531
645.569;36316.496;   -9.741;36518.469
646.147;33828.531;   -9.051;36186.430
646.726;33738.324;  -13.861;36267.688
647.304;33758.805;   -9.461;36647.625
647.882;33238.660;  -13.171;39286.742
648.461;33434.320;  -11.911;39157.703
649.039;32433.682;   -9.541;35412.883
649.617;31972.682;   -8.901;34744.918
650.195;29679.100;   -8.591;35403.098
650.773;29182.445;  -13.031;35053.797
651.352;28532.734;  -12.211;33756.816
651.930;26110.031;  -11.361;31868.773
652.508;23049.658;   -8.601;33121.551
653.086;26146.031;   -9.991;33564.793
653.663;30350.639;  -11.931;34054.668
654.241;32799.523;  -10.821;35693.309
654.819;34264.223;   -9.341;36422.906
655.397;32174.582;  -10.851;38213.484
655.975;30703.760;  -11.461;39507.625
656.553;30446.959;   -8.841;39498.223
657.130;29586.061;  -10.371;40395.480
657.708;30198.385;  -11.071;39242.020
658.286;29609.145;  -11.141;38920.020
658.863;30918.088;  -10.861;40202.898
659.441;35681.234;  -11.181;39677.938
660.018;36119.703;  -10.851;40413.355
660.596;35606.883;  -12.571;39931.414
661.173;36121.676;  -12.141;39604.531
661.750;35525.695;  -11.571;39700.070
662.328;32900.414;  -10.780;39292.809
662.905;30375.643;  -10.750;38235.648
663.482;27408.949;  -11.320;36212.305
664.060;26621.904;  -10.160;35944.945
664.637;31520.154;  -13.120;35170.785
665.214;33462.887;  -11.500;34197.523
665.791;31473.682;  -12.430;34549.520
666.368;29042.043;   -9.840;35118.578
666.945;27935.676;  -11.290;36019.418
667.522;28612.719;  -13.540;36048.438
668.099;29454.918;  -10.250;36243.914
668.676;28376.092;  -11.270;35958.875
669.253;27207.154;   -8.210;37384.730
669.830;26401.139;   -9.710;36779.629
670.407;26363.072;   -9.700;35231.289
670.984;27187.547;   -9.190;35544.270
671.560;26470.090;   -9.560;35466.867
672.137;26238.611;  -11.820;34280.863
672.714;29155.516;  -12.460;34632.863
673.290;33480.863;  -10.940;35135.422
673.867;33671.215;  -10.510;36114.480
674.443;30570.967;  -12.110;36152.859
675.020;31970.666;  -11.760;35327.238
675.596;33024.066;   -9.380;35795.176
676.173;31861.088;  -11.120;35430.355
676.749;30399.492;  -13.390;33549.516
677.326;29484.752;  -12.600;32210.012
677.902;28625.254;  -10.830;32068.871
678.478;28656.688;  -12.400;32583.891
679.054;30251.045;   -8.610;32088.928
679.631;30305.992;  -11.640;30978.848
680.207;30345.773;   -8.140;33160.887
680.783;31016.193;  -12.300;35570.363
681.359;30202.549;  -10.910;36125.184
681.935;30675.584;  -11.040;35240.922
682.511;30776.943;  -11.130;34429.961
683.087;30679.842;  -11.080;34463.680
683.663;32940.281;  -10.530;34648.898
684.239;32613.758;  -12.120;34546.457
684.815;30141.898;   -8.870;35586.375
685.390;29177.559;   -8.940;35821.895
685.966;28997.816;  -12.109;35085.871
686.542;28198.033;  -13.539;34198.230
687.118;28147.594;  -10.379;32847.707
687.693;28522.682;  -10.189;32794.027
688.269;27200.547;  -12.939;33072.367
688.844;26170.633;   -8.679;33141.664
689.420;27081.795;  -10.919;33965.742
689.995;27548.092;   -7.489;34655.523
690.571;27238.805;  -12.199;33576.742
691.146;27805.563;   -8.979;32657.219
691.722;29315.301;   -9.119;32526.979
692.297;27637.229;  -10.519;33014.617
692.872;27017.486;  -10.629;34012.254
693.448;27432.010;  -12.119;34237.434
694.023;27947.008;   -8.219;34142.672
694.598;26120.672;  -13.209;34132.031
695.173;25373.615;  -11.879;34205.250
695.748;26070.342;  -12.039;32882.488
696.323;25902.551;  -11.779;32864.906
696.898;26698.896;  -10.219;33170.004
697.473;27905.035;  -13.639;32432.984
698.048;28522.717;  -11.239;31649.303
698.623;30542.500;  -10.859;30778.141
699.198;32238.826;  -13.379;31140.119
699.773;33137.016;  -13.409;31764.299
700.348;33400.590;  -12.329;31780.816
700.922;33497.172;   -8.749;32046.375
701.497;33645.082;  -12.449;32603.574
702.072;31818.063;   -8.879;34799.871
702.646;29776.293;  -10.719;35793.172
703.221;28864.938;   -8.469;35201.590
703.795;28889.373;  -11.389;34764.527
704.370;28477.189;  -12.499;34307.367
704.944;28169.242;  -11.449;33509.887
705.519;27375.105;  -10.659;31388.584
706.093;26946.838;  -12.909;31340.104
706.668;27681.824;  -13.509;32630.281
707.242;27288.949;  -10.049;32728.779
707.816;25364.389;  -10.629;32947.238
708.390;24851.242;  -11.829;33277.855
708.965;25469.904;  -11.159;33834.336
709.539;26265.504;  -11.069;33709.273
710.113;25291.168;  -10.908;33044.313
710.687;23504.236;   -9.488;31953.992
711.261;23974.086;  -13.068;30505.949
711.835;26955.826;  -12.748;30262.369
712.409;27643.172;  -10.678;31254.447
712.983;26144.029;  -11.658;32754.986
713.557;26489.332;  -13.718;34018.824
714.131;26973.496;  -13.388;34579.625
714.704;27988.896;   -9.818;33890.262
715.278;29287.332;  -11.818;33531.102
715.852;30365.523;  -11.328;33601.660
716.425;30653.377;   -9.118;33515.117
716.999;30468.896;  -10.188;33185.555
717.573;30438.934;   -9.808;33905.996
718.146;32797.004;  -11.478;35199.293
718.720;32438.654;  -10.998;35060.551
719.293;30694.910;   -9.508;34973.230
719.867;30418.055;  -12.138;36394.449
720.440;29479.938;  -11.288;36663.008
721.013;32278.992;  -11.428;35102.426
721.587;33621.730;  -11.698;33985.266
722.160;34520.215;  -11.608;33524.965
722.733;33273.254;  -11.428;32987.043
723.306;31815.020;  -12.518;33066.301
723.880;31413.467;   -7.408;33399.500
724.453;30208.186;  -11.048;33468.297
725.026;28781.996;  -11.678;33816.637
725.599;27735.236;  -10.978;32797.996
726.172;26693.740;   -8.838;33187.434
726.745;27585.656;  -11.438;35136.613
727.318;28551.719;   -9.828;35751.730
727.891;27494.887;  -10.868;35890.430
728.463;25700.551;  -11.348;34822.090
729.036;24066.613;  -11.608;32895.086
729.609;24251.166;  -14.738;31823.225
730.182;25647.545;   -8.448;31445.283
730.754;26769.047;  -11.228;32373.223
731.327;26859.439;  -12.018;33676.820
731.900;28439.383;  -13.748;33417.000
732.472;28682.549;  -10.928;31978.498
733.045;27082.807;   -9.478;30368.777
733.617;25194.842;  -12.967;30574.215
734.190;24303.588;  -11.707;31280.975
734.762;23542.811;  -11.067;31674.412
735.334;22988.131;  -10.587;31247.291
735.907;22108.402;  -11.947;29876.211
736.479;22845.180;  -11.667;29808.488
737.051;25379.676;  -10.187;30233.547
737.623;27475.537;   -6.887;31469.086
738.195;30334.891;  -12.117;31784.225
738.768;32191.020;  -14.077;32120.523
739.340;30853.639;  -12.207;32094.342
739.912;27387.768;   -8.977;31312.680
740.484;25882.971;  -11.017;31946.238
741.056;27121.248;  -13.517;32984.059
741.628;29039.379;  -11.507;33897.715
742.199;29266.053;   -7.597;33213.016
742.771;29901.303;  -12.227;31369.113
743.343;29136.408;  -12.427;31865.473
743.915;27312.039;   -9.827;32388.631
744.487;26094.443;  -10.007;31079.568
745.058;24483.855;  -11.887;30570.107
745.630;23911.582;  -10.787;29970.127
746.201;23385.725;  -10.887;29186.766
746.773;23744.342;   -9.707;28805.723
747.344;24640.973;  -11.137;29591.223
747.916;24682.756;  -11.887;31412.201
748.487;24003.740;   -9.707;32194.898
749.059;23301.844;  -10.027;32533.719
749.630;22999.121;  -11.787;32158.518
750.201;22028.906;  -12.767;30855.395
750.773;21815.316;  -11.497;28622.555
751.344;22732.744;   -9.937;28405.732
751.915;22984.305;  -11.567;28461.551
752.486;22152.582;  -13.267;27842.850
753.057;20210.459;  -10.627;27845.008
753.628;18970.070;  -11.657;27728.107
754.199;21286.322;  -12.097;27381.086
754.770;22809.551;  -11.447;25882.203
755.341;22627.127;  -11.997;25886.184
755.912;20598.293;  -10.207;26050.861
756.483;18933.727;  -10.937;26798.779
757.054;18811.957;  -11.527;27048.238
757.625;18956.039;  -12.886;26294.838
758.195;19224.900;  -11.226;26142.076
758.766;19226.564;  -12.366;26392.234
759.337;18055.072;  -11.946;26334.594
759.907;18224.230;  -13.856;27579.652
760.478;19241.691;   -9.606;28352.770
761.048;19374.590;  -11.606;27325.088
761.619;19575.986;  -11.036;26460.428
762.189;18941.701;  -12.206;26029.826
762.760;20127.838;   -9.666;26430.145
763.330;20915.410;   -9.796;26670.902
763.900;19009.410;  -10.896;26603.021
764.471;17547.469;  -11.726;25542.740
765.041;18239.363;   -9.656;24358.459
765.611;19146.559;  -11.276;23991.297
766.181;18748.424;  -12.116;24470.236
766.751;18072.568;  -12.376;24845.975
767.321;18013.164;  -11.626;24533.633
767.891;18147.316;  -10.426;24916.492
768.461;16807.160;  -13.456;24776.771
769.031;14886.856;  -11.616;24757.988
769.601;14958.521;  -11.356;24181.088
770.171;15371.921;  -11.586;23670.387
770.741;15824.370;  -12.696;22960.045
771.311;15939.254;  -10.226;22917.523
771.880;15596.533;  -11.146;23562.941
772.450;16230.432;  -11.716;24216.500
773.020;16502.758;  -13.226;24140.398
773.589;16134.724;  -12.586;24414.857
774.159;15786.177;  -10.246;23858.717
774.729;15267.111;  -11.586;22942.135
775.298;14510.162;  -15.926;22324.033
775.867;14693.694;  -10.426;21140.313
776.437;14509.704;  -11.416;20838.092
777.006;13054.941;  -12.766;20599.510
777.576;13301.007;  -13.666;20508.809
778.145;13918.854;  -10.066;20732.947
778.714;13463.125;  -10.276;21062.465
779.283;13707.064;  -12.086;20949.664
779.853;15001.024;  -14.016;20508.623
780.422;15342.653;  -12.376;20649.082
780.991;14375.565;   -9.246;21527.520
781.560;13546.529;   -9.775;22632.658
782.129;13222.519;  -12.495;23048.277
782.698;12890.020;  -11.775;23438.555
783.267;13062.202;  -10.065;23267.734
783.836;13617.569;  -12.455;22415.133
784.404;14292.832;  -13.385;20443.152
784.973;15098.584;  -11.045;19699.150
785.542;14746.161;   -9.505;19763.828
786.111;13701.539;   -9.385;20341.408
786.679;13453.437;  -13.475;20207.967
787.248;13386.110;  -11.245;19516.465
787.817;11652.463;  -12.485;18900.363
788.385;10118.729;  -11.165;17879.121
788.954;10684.682;  -11.755;17658.301
789.522;11365.038;   -9.625;17788.879
790.090;11137.055;   -9.665;18118.277
790.659;10856.136;   -9.295;18338.736
791.227;11922.813;  -12.175;18508.615
791.795;13371.521;  -12.145;17898.254
792.364;13231.563;  -11.575;17295.133
792.932;11887.140;  -11.085;16822.051
793.500;10705.078;  -11.345;17040.148
794.068;10648.657;  -12.565;17179.787
794.636;11779.709;  -12.105;16664.246
795.204;12340.886;  -11.995;16524.545
795.772;11721.851;  -12.615;17274.564
796.340;11269.797;  -12.425;17891.002
796.908;11002.460;  -11.455;17648.561
797.476;10320.068;  -12.165;17064.080
798.044; 9915.489;  -15.795;16672.777
798.612;10111.101;  -10.985;17023.996
799.180;10903.344;  -12.055;16561.615
799.747;11215.624;  -12.525;15962.773
800.315; 9993.444;  -14.765;15296.992
800.883; 8760.935;  -12.435;14801.771
801.450; 8678.408;  -11.295;14534.430
802.018; 9113.246;  -11.185;14173.248
802.585; 9107.797;  -11.625;14029.547
803.153; 8231.154;  -10.665;13836.846
803.720; 7819.869;  -10.275;13567.324
804.287; 7711.264;  -12.865;13360.622
804.855; 7898.436;  -12.324;13681.981
805.422; 8140.009;  -11.574;13536.560
805.989; 7939.641;  -11.004;13355.958
806.556; 8151.823;  -12.214;13747.896
807.124; 8539.063;  -13.304;13987.376
807.691; 8195.370;  -12.034;14038.674
808.258; 7572.022;  -11.014;14120.152
808.825; 7459.531;  -11.804;13860.111
809.392; 7384.740;  -11.544;13268.790
809.959; 7303.477;  -14.954;12680.389
810.526; 7629.876;  -10.214;12427.308
811.093; 8054.072;  -10.754;12030.105
811.659; 7730.929;  -12.194;11653.664
812.226; 6646.404;   -9.194;11637.183
812.793; 6347.654;   -9.644;11611.521
813.360; 7110.512;  -11.544;11885.181
813.926; 7909.385;  -12.814;12770.539
814.493; 7858.908;  -11.524;12677.638
815.060; 7551.252;  -12.254;11974.336
815.626; 7104.521;  -12.114;11594.715
816.193; 6804.948;  -11.994;11579.474
816.759; 6709.538;  -11.464;11666.972
817.325; 6416.510;  -10.444;11325.530
817.892; 6110.121;  -11.124;11105.369
818.458; 6031.390;  -11.864;10843.928
819.024; 6360.984;  -10.634;10714.406
819.591; 6445.634;  -10.554;10469.165
820.157; 6619.498;  -13.334;10235.523
820.723; 6819.948;  -13.044;10847.563
821.289; 6934.574;   -9.664;11040.980
821.855; 7133.515;  -10.994;10357.100
822.421; 7226.182;  -11.784; 9978.918
822.987; 7236.500;  -12.554; 9754.177
823.553; 7536.358;  -12.554;10065.755
824.119; 7357.288;   -8.544;10036.294
824.685; 6459.034;  -12.144;10029.192
825.251; 5915.924;  -12.754;10199.230
825.816; 5452.465;  -11.354; 9820.189
826.382; 5119.576;  -11.004; 9297.248
826.948; 5107.695;  -11.004; 9381.347
827.513; 5060.196;  -12.474; 9450.726
828.079; 5084.422;  -13.084; 9472.444
828.645; 5278.329;  -10.813; 9292.643
829.210; 5148.137;  -11.593; 9065.341
829.776; 5116.401;  -12.633; 9132.620
830.341; 5111.277;  -10.473; 9092.878
830.906; 4892.294;   -8.763; 9078.557
831.472; 4595.920;  -13.453; 8534.535
832.037; 4006.383;  -12.173; 8677.874
832.602; 3801.549;  -14.093; 8628.692
833.167; 4072.189;  -13.593; 8879.031
833.733; 4587.304;  -10.793; 9189.790
834.298; 4933.233;  -14.783; 9052.608
834.863; 4519.601;  -11.023; 8895.087
835.428; 4295.059;  -11.113; 8824.266
835.993; 4740.546;   -9.983; 8845.385
836.558; 4977.387;  -13.003; 8888.563
837.123; 4777.282;  -10.733; 8966.582
837.688; 4373.178;   -9.683; 8617.860
838.253; 4209.065;  -12.253; 8590.699
838.817; 4246.221;  -11.643; 8443.797
839.382; 4260.095;  -11.953; 8799.356
839.947; 4335.869;  -11.443; 8810.595
840.511; 4608.511;  -10.843; 8796.394
841.076; 4811.098;  -13.533; 8347.231
841.641; 4613.525;  -11.743; 8224.330
842.205; 4114.089;  -10.013; 8223.349
842.770; 3852.519;  -11.023; 8622.107
843.334; 3965.715;  -14.273; 8410.386
843.898; 4345.321;  -11.323; 8337.465
844.463; 4705.622;  -10.263; 8506.283
845.027; 4849.547;  -10.353; 8280.962
845.591; 4769.993;  -12.163; 8231.141
846.156; 4617.911;  -12.263; 7969.179
846.720; 4619.743;  -11.553; 7768.278
847.284; 4419.478;  -12.393; 7630.957
847.848; 3654.253;  -12.623; 7472.395
848.412; 3086.172;  -11.863; 7437.394
848.976; 3022.831;  -10.203; 7674.592
849.540; 3203.881;  -10.603; 7836.011
850.104; 3391.957;  -12.423; 7913.669
850.668; 3409.215;  -14.613; 7694.508
851.232; 3406.463;  -12.873; 7756.887
851.796; 3605.499;  -14.192; 7926.545
852.359; 3791.000;  -13.652; 7827.844
852.923; 3728.301;  -11.402; 7641.163
853.487; 3448.004;  -12.022; 7342.501
854.050; 3297.242;  -15.202; 7042.820
854.614; 3305.849;  -14.592; 7151.338
855.177; 3281.036;  -12.572; 7105.077
855.741; 3303.126;   -9.932; 6989.675
856.304; 3278.230;  -12.192; 6596.634
856.868; 3193.684;  -13.462; 6356.272
857.431; 3196.723;  -11.542; 6468.571
857.995; 3260.412;  -12.062; 6373.210
858.558; 3058.783;  -11.142; 6324.448
859.121; 2913.195;  -11.742; 6408.327
859.684; 2966.600;  -10.332; 6347.886
860.247; 3083.716;  -11.962; 6321.264
860.810; 3142.996;  -12.332; 6301.903
861.374; 3021.525;  -10.292; 6607.881
861.937; 2853.934;  -12.062; 6408.200
862.500; 2867.049;  -11.702; 6572.639
863.062; 3005.623;  -13.852; 6387.297
863.625; 3080.101;  -12.972; 6190.836
864.188; 3034.292;  -10.292; 5807.254
864.751; 2969.658;  -12.382; 5682.413
865.314; 2765.505;  -13.232; 5547.492
865.876; 2482.263;  -12.772; 5500.150
866.439; 2260.698;  -11.952; 5415.909
867.002; 2323.923;   -9.332; 5501.567
867.564; 2653.939;  -11.712; 5413.946
868.127; 2811.418;  -12.012; 5160.325
868.689; 2472.762;  -11.882; 5133.183
869.252; 2103.859;  -11.572; 5252.382
869.814; 1996.171;  -10.692; 5297.141
870.377; 2057.993;  -12.392; 5390.919
870.939; 2143.116;  -10.582; 5599.898
871.501; 2196.800;  -12.782; 5248.336
872.063; 2229.292;  -15.612; 4854.235
872.626; 2280.831;  -13.922; 4817.074
873.188; 2245.820;  -13.832; 4987.732
873.750; 2189.429;  -10.962; 4868.651
874.312; 2249.140;  -11.022; 4779.330
874.874; 2304.462;  -13.152; 4866.348
875.436; 2225.907;  -13.401; 4718.887
875.998; 2099.333;   -8.891; 4660.005
876.560; 1997.163;  -12.591; 4462.964
877.122; 1940.968;  -14.531; 4145.042
877.683; 1912.393;  -10.781; 4056.481
878.245; 1818.733;  -14.281; 3950.740
878.807; 1751.637;  -10.311; 4058.958
879.369; 1702.471;  -13.201; 3954.677
879.930; 1670.198;  -12.061; 3941.495
880.492; 1669.089;   -9.181; 4067.014
881.053; 1683.770;  -12.051; 3859.633
881.615; 1640.259;  -11.501; 3776.071
882.176; 1536.603;  -12.221; 3734.750
882.738; 1423.721;   -8.931; 3678.489
883.299; 1356.016;  -13.571; 3405.407
883.860; 1374.204;  -12.331; 3351.106
884.422; 1317.335;  -10.201; 3394.044
884.983; 1181.624;  -12.521; 3166.443
885.544; 1059.191;  -12.291; 3189.802
886.105; 1007.545;  -12.991; 3160.360
886.666; 1001.991;  -12.901; 3093.059
887.227;  992.283;  -12.061; 2941.957
887.788;  961.314;  -11.641; 2974.836
888.349;  911.877;  -14.691; 2721.214
888.910;  867.198;   -9.681; 2696.493
889.471;  861.435;   -9.971; 2560.172
890.032;  871.308;  -13.151; 2558.190
890.593;  849.387;  -12.051; 2567.669
891.153;  811.066;  -12.841; 2460.307
891.714;  784.115;  -13.561; 2372.046
892.275;  755.151;  -12.401; 2309.505
892.835;  716.696;  -13.191; 2382.543
893.396;  675.916;  -12.551; 2295.502
893.956;  655.321;  -11.981; 2162.420
894.517;  638.312;  -12.221; 2125.439
895.077;  599.022;  -12.021; 2086.978
895.638;  538.339;  -10.891; 2126.316
896.198;  484.343;  -13.171; 1838.275
896.758;  448.728;  -11.891; 1892.813
897.319;  422.553;  -12.491; 1792.232
897.879;  406.988;  -12.401; 1762.751
898.439;  381.506;  -13.431; 1661.149
898.999;  363.886;  -11.340; 1781.468
899.559;  354.583;  -13.930; 1703.347
900.119;  335.961;  -13.730; 1537.525
900.679;  317.722;   -9.210; 1638.384
901.239;  301.102;  -10.860; 1527.902
901.799;  282.112;  -11.450; 1456.441
902.359;  264.615;  -13.800; 1357.140
902.919;  258.093;  -12.130; 1331.118
903.479;  259.424;  -12.650; 1317.257
904.038;  251.359;  -16.110; 1262.595
904.598;  237.098;  -13.690; 1152.034
905.158;  224.893;  -10.290; 1240.893
905.717;  218.934;  -10.670; 1233.691
906.277;  217.790;  -14.040; 1217.330
906.836;  217.532;  -13.510; 1222.408
907.396;  212.865;  -11.530; 1193.047
907.955;  202.535;  -13.190; 1182.526
908.515;  190.315;  -12.950; 1099.364
909.074;  181.421;  -12.390; 1092.863
909.633;  177.665;  -10.340; 1069.121
910.192;  176.335;  -11.170; 1196.460
910.752;  169.837;  -14.200; 1029.960
911.311;  166.237;  -13.810; 1009.780
911.870;  163.880;  -12.750;  971.460
912.429;  163.347;  -12.380; 1094.080
912.988;  159.898;  -11.930; 1081.060
913.547;  153.401;  -10.990;  940.380
914.106;  151.339;  -11.200;  999.420
914.665;  149.312;  -13.150;  984.020
915.224;  146.615;  -13.310; 1035.760
915.782;  145.291;  -13.340;  922.560
916.341;  145.512;  -10.710; 1049.840
916.900;  143.228;  -12.980;  925.260
917.458;  140.551;  -13.060;  884.220
918.017;  138.861;  -10.900;  942.600
918.576;  138.182;  -11.630;  904.440
919.134;  139.431;  -12.860;  837.980
919.693;  138.290;  -15.160;  893.060
920.251;  137.677;  -13.470;  876.500
920.809;  137.182;  -13.700;  839.580
921.368;  138.396;  -13.420;  885.360
921.926;  138.483;  -14.710;  842.940
922.484;  138.422;  -12.560;  903.360
923.042;  138.283;  -11.930;  880.340
923.601;  138.635;  -10.270;  998.680
924.159;  136.643;  -12.960;  935.560
924.717;  135.912;  -13.040;  841.080
925.275;  138.215;  -12.560;  903.240
925.833;  140.271;  -13.040;  779.320
926.391;  140.256;  -13.360;  938.380
926.949;  138.780;  -13.940;  857.680
927.506;  141.022;   -9.400;  903.500
928.064;  140.712;  -10.940;  877.580
928.622;  138.970;  -13.180;  880.100
929.180;  139.219;  -12.730;  814.180
929.737;  140.876;  -12.840;  808.540
930.295;  144.807;  -11.810;  928.480
930.853;  147.202;  -13.650;  849.100
931.410;  149.462;  -13.580;  821.120
931.968;  151.131;  -12.020;  940.660
932.525;  152.125;  -13.320;  909.380
933.082;  152.419;  -13.800;  811.440
933.640;  158.512;  -11.380;  925.900
934.197;  160.532;  -11.480;  886.360
934.754;  164.072;  -13.220;  897.780
935.312;  162.995;  -14.950;  863.340
935.869;  159.868;  -10.940; 1012.980
936.426;  155.699;  -12.100;  872.800
936.983;  155.559;  -12.930;  889.020
937.540;  155.698;  -14.250;  838.280
938.097;  159.260;  -12.600;  940.120
938.654;  166.460;  -11.260;  898.860
939.211;  169.785;  -13.020;  952.480
939.768;  171.827;  -15.760;  915.420
940.324;  172.838;  -13.920;  904.200
940.881;  168.564;  -11.620;  878.500
941.438;  166.125;   -9.870; 1021.200
941.995;  162.806;  -13.920;  992.560
942.551;  160.309;  -12.830;  875.620
943.108;  163.365;  -11.980;  937.920
943.664;  167.692;  -13.740;  869.340
944.221;  171.928;  -12.670; 1088.140
944.777;  169.691;  -13.250;  869.680
945.334;  168.817;  -13.000;  884.840
945.890;  169.051;  -13.020;  946.480
946.446;  167.931;  -13.880;  947.020
947.003;  170.335;  -12.660;  964.940
947.559;  170.859;   -8.730; 1063.040
948.115;  168.242;  -11.960; 1026.540
948.671;  164.585;  -12.360;  967.300
949.227;  161.312;  -12.700;  859.560
949.783;  158.002;  -13.450;  858.900
950.339;  157.107;  -10.620;  991.000
950.895;  153.841;  -14.770; 1023.840
951.451;  151.173;  -13.650;  925.280
952.007;  152.533;  -11.180;  998.540
952.563;  151.020;  -11.680;  937.780
953.118;  150.543;  -13.280;  904.940
953.674;  152.466;  -12.510;  935.780
954.230;  152.688;  -12.220;  949.640
954.785;  148.477;  -12.190;  936.640
955.341;  143.038;  -12.270;  998.160
955.897;  137.104;  -14.900;  834.660
956.452;  137.245;  -12.520;  953.840
957.008;  138.238;   -9.410; 1083.640
957.563;  135.553;  -11.280; 1009.540
958.118;  133.193;  -13.470;  877.700
958.674;  135.770;  -12.190;  946.780
959.229;  137.708;  -12.760; 1013.980
959.784;  142.746;  -15.710;  832.400
960.339;  149.225;  -12.540; 1001.280
960.894;  149.606;  -11.680;  963.760
961.449;  145.259;  -11.410;  859.960
962.004;  144.086;  -10.430; 1212.840
962.559;  136.812;  -14.040;  860.140
963.114;  134.285;  -14.270;  742.480
963.669;  136.253;  -11.320;  915.500
964.224;  133.686;  -14.620;  874.340
964.779;  132.077;  -14.150;  828.420
965.334;  132.060;  -10.850; 1017.860
965.888;  130.901;  -14.530;  875.360
966.443;  132.018;  -13.520;  972.380
966.998;  127.360;  -13.370;  819.460
967.552;  125.132;   -9.960;  908.380
968.107;  121.724;  -12.360;  868.300
968.661;  122.508;  -12.270;  922.440
969.216;  120.500;  -12.140;  856.280
969.770;  122.177;  -11.860;  917.200
970.324;  122.026;  -12.170;  923.140
970.879;  120.366;  -14.160;  947.180
971.433;  118.363;  -12.940;  952.720
971.987;  115.517;  -10.180;  895.340
972.541;  114.627;  -12.130;  917.100
973.095;  114.582;  -14.980; 1009.460
973.649;  112.565;  -14.480;  809.480
974.203;  114.547;  -13.530;  829.040
974.757;  116.480;  -12.060;  855.220
975.311;  113.638;  -13.240;  872.600
975.865;  110.707;  -12.550;  881.820
976.419;  108.956;  -13.180;  857.400
976.973;  109.576;  -14.100;  849.620
977.526;  107.557;  -13.330;  949.920
978.080;  103.399;  -15.390;  796.780
978.634;  103.913;  -11.670;  921.320
979.187;  101.602;  -10.640;  905.400
979.741;  101.785;  -13.330; 1018.380
980.294;   98.130;  -14.480;  789.160
980.848;   96.022;  -13.420;  717.220
981.401;   94.594;  -12.360;  816.540
981.955;   92.275;  -12.480;  844.300
982.508;   88.574;  -14.000;  746.340
983.061;   88.758;  -10.440;  915.260
983.615;   86.122;  -14.340;  798.800
984.168;   82.809;  -14.950;  770.080
984.721;   82.637;  -13.270;  880.760
985.274;   80.985;  -12.240;  867.500
985.827;   78.910;  -12.720;  834.220
986.380;   75.262;  -14.920;  721.340
986.933;   74.096;  -12.860;  864.800
987.486;   73.179;  -10.440;  861.920
988.039;   73.012;  -11.820;  863.100
988.591;   71.516;  -13.760;  893.260
989.144;   69.874;  -14.080;  737.260
989.697;   70.370;  -13.440;  758.740
990.250;   71.089;  -12.050;  858.100
990.802;   69.897;  -14.550;  755.860
991.355;   69.917;  -10.770;  974.880
991.907;   68.082;  -11.710;  864.320
992.460;   66.247;  -12.650;  753.760
993.012;   63.814;  -13.860;  749.540
993.565;   61.821;  -14.310;  711.360
994.117;   63.599;   -9.920;  950.780
994.669;   59.822;  -13.420;  701.320
995.221;   58.722;  -14.200;  791.920
995.774;   58.109;  -13.400;  787.580
996.326;   56.933;  -11.850;  740.220
996.878;   56.843;  -12.230;  838.420
997.430;   55.103;  -14.260;  699.860
997.982;   53.789;  -11.430;  750.140
998.534;   54.191;  -11.590;  739.060
999.086;   54.049;  -11.960;  738.220
999.638;   52.349;  -13.640;  661.380
1000.190;   51.412;  -13.660;  699.320
1000.741;   51.706;   -9.980;  742.700
1001.293;   51.327;  -11.860;  686.020
1001.845;   49.702;  -14.280;  676.640
1002.396;   49.733;  -12.270;  743.400
1002.948;   49.315;  -13.670;  737.400
1003.500;   49.173;  -12.010;  723.780
1004.051;   49.481;  -11.890;  907.580
1004.603;   47.814;  -11.220;  791.820
1005.154;   44.159;  -13.210;  608.980
1005.705;   44.731;  -11.850;  723.960
1006.257;   43.526;  -13.670;  707.220
1006.808;   42.526;  -12.060;  685.460
1007.359;   42.993;  -10.250;  763.240
1007.910;   40.458;  -13.440;  646.640
1008.461;   40.939;  -13.170;  732.940
1009.013;   38.675;  -14.590;  588.340
1009.564;   40.416;  -12.100;  793.520
1010.115;   38.724;  -14.000;  597.040
1010.665;   37.896;  -15.020;  602.160
1011.216;   38.374;  -12.560;  667.920
1011.767;   37.882;  -11.330;  697.920
1012.318;   38.815;  -11.450;  736.980
1012.869;   37.359;  -11.000;  679.000
1013.419;   36.000;  -11.760;  603.120
1013.970;   37.376;  -11.800;  666.640
1014.521;   36.489;  -14.750;  620.620
1015.071;   36.954;  -14.430;  670.380
1015.622;   35.505;  -14.170;  635.460
1016.172;   34.630;  -11.700;  596.820
1016.723;   35.383;  -13.230;  614.380
1017.273;   35.232;  -16.120;  604.160
1017.823;   34.412;  -13.360;  650.340
1018.374;   33.850;  -13.710;  611.760
1018.924;   34.745;  -11.050;  716.880
1019.474;   33.844;  -14.120;  718.880
1020.024;   32.814;  -12.990;  657.580
1020.574;   33.521;  -12.010;  726.160
1021.124;   34.684;  -12.080;  673.580
1021.674;   31.884;  -15.860;  559.120
1022.224;   33.217;  -11.710;  708.940
1022.774;   32.455;  -13.030;  668.820
1023.324;   33.548;  -11.000;  753.520
1023.874;   34.456;  -13.270;  875.760
1024.423;   30.969;  -14.570;  613.700
1024.973;   31.021;  -12.620;  610.760
1025.523;   31.270;  -12.630;  620.960
1026.072;   30.839;  -14.110;  606.420
1026.622;   29.828;  -15.390;  675.740
1027.172;   31.646;   -9.090;  715.660
1027.721;   30.507;  -12.250;  601.220
1028.270;   30.481;  -15.590;  663.400
1028.820;   30.255;  -13.840;  638.080
1029.369;   30.235;  -13.170;  612.700
1029.918;   30.576;  -14.080;  649.840
1030.468;   29.257;  -13.860;  564.780
1031.017;   30.049;  -12.970;  634.800
1031.566;   29.008;  -12.320;  608.900
1032.115;   29.862;  -13.140;  694.500
1032.664;   28.118;  -14.560;  596.480
1033.213;   28.576;  -11.620;  735.420
1033.762;   27.394;  -13.190;  635.620
1034.311;   29.136;  -13.460;  677.220
1034.860;   28.851;  -15.770;  691.000
1035.408;   28.132;  -13.100;  722.720
1035.957;   28.805;  -12.880;  719.540
1036.506;   26.860;  -13.640;  530.800
1037.055;   29.253;  -12.420;  844.320
1037.603;   27.214;  -13.740;  664.000
1038.152;   25.558;  -13.840;  534.760
1038.700;   26.897;  -10.770;  585.740
1039.249;   26.376;  -13.520;  681.220
1039.797;   26.266;  -13.060;  633.360
1040.345;   26.139;  -11.760;  705.420
1040.894;   26.207;  -10.790;  625.300
1041.442;   25.314;  -15.420;  632.200
1041.990;   24.127;  -14.550;  559.160
1042.538;   23.874;  -15.620;  536.180
1043.087;   24.800;  -14.940;  570.860
1043.635;   25.718;  -12.100;  670.500
1044.183;   23.945;  -13.200;  586.400
1044.731;   24.759;  -11.630;  576.000
1045.279;   24.770;  -14.200;  674.920
1045.827;   26.954;  -12.510;  892.400
1046.374;   22.562;  -14.960;  515.420
1046.922;   22.149;  -11.850;  590.580
1047.470;   24.574;  -13.770;  691.300
1048.018;   24.321;  -15.380;  647.960
1048.565;   24.155;  -14.010;  708.600
1049.113;   22.327;  -14.620;  557.000
1049.660;   23.031;  -14.940;  629.660
1050.208;   23.658;  -14.540;  675.640
1050.755;   22.270;  -13.710;  606.580
1051.303;   23.610;  -11.880;  686.820
1051.850;   22.874;  -12.160;  635.120
1052.397;   20.534;  -15.110;  473.960
1052.945;   20.887;  -14.770;  617.760
1053.492;   23.388;  -12.320;  741.840
1054.039;   23.318;  -13.290;  720.180
1054.586;   20.547;  -15.210;  557.240
1055.133;   22.290;  -12.920;  693.140
1055.680;   21.685;  -12.610;  646.620
1056.227;   21.327;  -12.620;  542.780
1056.774;   22.927;  -13.010;  794.980
1057.321;   20.256;  -16.180;  523.260
1057.868;   21.059;  -11.230;  651.320
1058.415;   20.751;  -10.890;  651.980
1058.961;   21.153;  -12.530;  678.940
1059.508;   20.154;  -14.120;  643.820
1060.055;   19.327;  -13.340;  581.780
1060.601;   21.226;  -12.920;  624.300
1061.148;   20.115;  -14.430;  616.820
1061.694;   18.988;  -14.140;  592.580
1062.241;   19.819;  -12.550;  596.320
1062.787;   20.273;  -13.370;  663.140
1063.334;   21.741;  -12.260;  808.560
1063.880;   20.356;  -10.800;  668.360
1064.426;   19.476;   -9.920;  706.820
1064.972;   19.515;  -12.970;  601.340
1065.518;   17.708;  -14.440;  566.640
1066.065;   19.028;  -12.680;  624.460
1066.611;   18.012;  -13.520;  598.800
1067.157;   19.718;  -11.100;  641.860
1067.703;   19.427;  -14.100;  668.480
1068.249;   18.078;  -13.750;  605.220
1068.794;   18.285;  -11.070;  626.880
1069.340;   17.739;  -13.210;  578.960
1069.886;   17.502;  -14.850;  590.700
1070.432;   16.036;  -14.580;  541.720
1070.977;   16.287;  -12.930;  601.080
1071.523;   17.595;  -11.970;  573.060
1072.068;   16.542;  -13.730;  582.000
1072.614;   17.273;  -14.550;  527.760
1073.160;   17.183;  -13.690;  687.040
1073.705;   16.491;  -14.780;  572.520
1074.250;   15.743;  -15.430;  559.900
1074.796;   17.044;  -11.620;  655.160
1075.341;   17.067;  -11.580;  664.100
1075.886;   16.503;  -13.190;  594.240
1076.431;   16.201;  -13.630;  649.880
1076.976;   15.084;  -11.670;  639.220
1077.521;   14.958;  -11.600;  583.080
1078.067;   15.494;  -13.920;  579.400
1078.612;   15.937;  -12.910;  661.620
1079.156;   15.326;  -15.340;  601.540
1079.701;   15.263;  -12.560;  693.260
1080.246;   16.608;  -12.490;  696.300
1080.791;   15.537;  -14.550;  625.020
1081.336;   14.604;  -15.210;  659.320
1081.880;   15.090;  -11.280;  649.680
1082.425;   14.297;  -12.830;  573.480
1082.970;   16.718;  -11.680;  717.040
1083.514;   14.247;  -15.500;  597.000
1084.059;   14.462;  -11.770;  586.720
1084.603;   14.384;  -13.480;  565.840
1085.147;   14.852;  -13.940;  645.220
1085.692;   14.135;  -13.170;  716.800
1086.236;   12.530;  -15.740;  503.140
1086.780;   15.783;  -10.750;  751.440
1087.325;   14.066;  -14.900;  654.620
1087.869;   13.512;  -15.160;  610.700
1088.413;   14.449;  -11.030;  705.040
1088.957;   13.081;  -15.210;  543.400
1089.501;   14.831;  -12.310;  766.640
1090.045;   13.841;  -12.790;  726.480
1090.589;   11.055;  -14.040;  569.920
1091.133;   13.706;  -12.800;  673.340
1091.676;   12.803;  -13.600;  591.940
1092.220;   12.017;  -12.960;  600.920
1092.764;   14.069;  -10.830;  706.960
1093.307;   13.757;  -12.390;  673.780
1093.851;   11.982;  -15.850;  556.540
1094.395;   12.638;  -12.980;  683.140
1094.938;   12.076;  -13.670;  632.520
1095.482;   12.303;  -12.740;  559.800
1096.025;   13.047;  -13.340;  710.880
1096.568;   13.188;  -10.500;  779.280
1097.112;    9.381;  -13.500;  508.180
1097.655;   12.015;  -13.060;  603.000
1098.198;    9.968;  -13.240;  600.180
1098.741;   10.083;  -15.490;  612.860
1099.285;   11.333;  -13.410;  657.300
1099.828;    9.922;  -15.640;  439.400
1100.371;   11.258;  -13.980;  608.160
1100.914;   10.857;  -13.990;  682.660
1101.457;   11.173;  -15.030;  679.900
1101.999;   10.304;  -12.480;  584.680
1102.542;   11.094;  -12.410;  641.440
1103.085;   10.217;  -14.730;  658.500
1103.628;   10.970;  -12.190;  762.060
1104.170;   10.396;  -12.360;  588.280
1104.713;   10.471;  -13.350;  646.700
1105.256;    9.048;  -14.930;  557.440
1105.798;    8.303;  -15.150;  499.980
1106.341;   11.371;  -13.230;  728.900
1106.883;    9.425;  -14.680;  521.340
1107.425;    9.981;  -14.810;  668.180
1107.968;    8.825;  -12.940;  612.380
1108.510;   10.518;  -10.550;  684.960
1109.052;    8.162;  -15.640;  612.620
1109.594;    7.704;  -14.440;  554.440
1110.136;    9.044;  -11.380;  643.220
1110.679;    9.110;  -13.090;  633.080
1111.221;    8.366;  -14.230;  604.460
1111.763;    7.648;  -14.260;  559.220
1112.304;    7.689;  -14.510;  547.140
1112.846;    9.180;  -14.700;  666.240
1113.388;   11.977;  -12.270;  942.180
1113.930;    8.086;  -13.340;  694.200
1114.472;    7.751;  -12.560;  606.540
1115.013;    6.754;  -14.280;  551.280
1115.555;    7.650;  -14.010;  587.100
1116.097;    6.396;  -14.730;  579.480
1116.638;    8.416;  -12.160;  684.600
1117.180;    8.028;  -14.320;  667.740
1117.721;    6.927;  -15.730;  568.580
1118.262;    7.892;  -13.480;  677.960
1118.804;    7.729;  -11.530;  637.340
1119.345;    7.030;  -13.540;  578.400
1119.886;    8.236;  -14.470;  704.040
1120.427;    6.453;  -13.030;  589.020
1120.969;    6.161;  -13.150;  597.920
1121.510;    6.215;  -13.940;  563.060
1122.051;    6.792;  -12.310;  723.580
1122.592;    6.084;  -13.870;  655.420
1123.133;    4.912;  -12.890;  547.940
1123.673;    7.248;  -13.300;  706.480
1124.214;    6.161;  -14.000;  612.460
1124.755;    7.244;  -13.210;  639.460
1125.296;    5.921;  -13.450;  627.320
1125.836;    7.699;  -12.610;  691.500
1126.377;    5.649;  -15.840;  599.660
1126.918;    6.217;  -11.830;  614.980
1127.458;    4.776;  -11.830;  622.220
1127.999;    6.649;  -11.490;  656.980
1128.539;    6.366;  -12.900;  694.240
1129.079;    4.750;  -14.910;  632.720
1129.620;    4.335;  -12.920;  558.100
1130.160;    4.234;  -14.640;  539.480
1130.700;    4.701;  -13.270;  640.840
1131.240;    5.605;  -14.110;  643.700
1131.781;    4.968;  -13.130;  619.680
1132.321;    5.026;  -15.220;  599.120
1132.861;    4.321;  -15.670;  564.200
1133.401;    2.951;  -13.970;  593.940
1133.941;    4.589;  -13.740;  626.280
1134.481;    4.309;  -13.200;  597.580
1135.020;    4.503;  -14.830;  609.160
1135.560;    5.004;  -14.590;  674.940
1136.100;    3.003;  -13.730;  501.160
1136.640;    3.384;  -15.240;  510.480
1137.179;    3.789;  -14.710;  537.960
1137.719;    3.270;  -14.090;  605.400
1138.258;    3.621;  -12.470;  587.360
1138.798;    4.248;  -12.580;  663.780
1139.337;    3.071;  -16.480;  482.840
1139.877;    3.844;  -13.970;  642.360
1140.416;    6.345;   -9.870;  878.060
1140.955;    3.352;  -14.860;  535.380
1141.494;    3.618;  -14.530;  669.280
1142.034;    2.178;  -13.940;  583.520
1142.573;    3.939;  -11.160;  646.280
1143.112;    2.824;  -15.050;  553.480
1143.651;    2.806;  -15.390;  536.480
1144.190;    4.037;  -12.990;  691.640
1144.729;    2.618;  -12.220;  607.420
1145.267;    3.299;  -14.020;  584.900
1145.806;    3.927;  -12.740;  637.040
1146.345;    1.818;  -14.810;  635.020
1146.884;    2.272;  -12.920;  622.500
1147.422;    1.733;  -13.930;  533.060
1147.961;    3.810;  -11.830;  708.460
1148.500;    2.361;  -12.710;  669.720
1149.038;    3.257;  -14.420;  632.500
1149.577;    2.735;  -13.920;  698.640
1150.115;    0.911;  -17.050;  452.280
1150.653;    2.047;  -14.890;  607.340
1151.192;    2.079;  -15.270;  552.920
1151.730;    2.461;  -13.160;  652.560
1152.268;    1.691;  -15.430;  589.520
1152.806;    1.787;  -15.880;  571.180
1153.344;    0.242;  -13.240;  577.640
1153.882;    2.635;  -13.010;  600.060
1154.421;   -0.081;  -16.180;  470.620
1154.958;    0.744;  -13.880;  595.240
1155.496;    2.254;  -13.590;  645.280
1156.034;    2.506;  -11.910;  721.880
1156.572;    2.244;  -12.010;  667.060
1157.110;   -0.035;  -16.250;  473.940
1157.647;    1.692;  -15.230;  676.960
1158.185;    0.634;  -13.770;  564.320
1158.723;   -0.351;  -15.300;  509.200
1159.260;    1.038;  -13.130;  701.700
1159.798;    1.438;  -11.300;  658.160
1160.335;    1.169;  -13.210;  631.820

