
Integration time [ms]:   3.276
Averaging Nr. [scans]: 1000
Smoothing Nr. [pixels]: 0
Data measured with spectrometer [name]: 7414430SP
Wave   ;Sample   ;Dark     ;Reference
[nm]   ;[counts] ;[counts] ;[counts] 

288.544;  151.940;    7.793;  793.890
289.143;  154.773;    7.462;  681.602
289.742;  155.955;    8.602;  828.814
290.341;  140.283;    1.321;  789.841
290.940;  129.676;   -0.709;  730.702
291.538;  130.969;    0.881;  881.108
292.137;  130.658;    0.122;  792.581
292.736;  135.645;   -1.929;  975.101
293.335;  132.335;   -8.229;  735.086
293.934;  131.874;   -5.279;  781.677
294.532;  130.623;   -1.369; 1031.958
295.131;  116.782;   -7.641;  834.394
295.730;  117.375;   -8.420;  809.588
296.328;  115.924;   -5.611;  783.442
296.927;  116.703;   -5.781;  779.652
297.525;  118.411;   -6.361;  781.236
298.124;  108.618;  -11.382;  654.009
298.722;  111.804;   -7.641;  761.933
299.321;  109.128;   -6.811;  708.597
299.919;  107.818;   -6.991;  751.918
300.518;  104.052;  -10.362;  689.338
301.116;  105.965;   -9.581;  691.381
301.715;  105.954;   -4.891;  730.222
302.313;  105.041;   -8.801;  704.943
302.911;  100.847;   -8.522;  733.830
303.509;  105.130;   -6.171;  925.627
304.108;  103.045;   -7.311;  760.383
304.706;  102.584;   -8.321;  801.664
305.304;   97.126;  -10.222;  796.707
305.902;  101.340;   -6.021;  784.484
306.500;   98.363;   -4.971;  728.200
307.098;   96.827;   -7.061;  746.560
307.696;   94.392;   -8.801;  780.432
308.294;   95.148;   -6.411;  731.359
308.892;   96.651;   -2.901;  759.769
309.490;   93.311;   -5.041;  712.161
310.088;   91.644;   -5.002;  788.444
310.686;   95.432;   -2.041;  821.749
311.284;   91.543;   -2.351;  766.040
311.882;   89.082;   -4.422;  731.225
312.480;   86.686;   -4.192;  697.167
313.078;   87.404;   -1.172;  808.331
313.675;   87.963;   -2.601;  691.600
314.273;   83.925;   -1.312;  797.837
314.871;   83.059;   -3.942;  589.829
315.468;   81.160;   -2.802;  652.090
316.066;   83.643;   -0.701;  694.427
316.664;   76.209;   -4.362;  656.351
317.261;   81.044;   -2.872;  910.128
317.859;   75.887;   -2.022;  768.735
318.456;   76.174;   -0.531;  830.096
319.054;   72.435;   -3.912;  787.828
319.651;   71.570;   -4.752;  759.928
320.249;   70.396;   -2.602;  810.188
320.846;   67.446;   -0.821;  714.286
321.443;   65.056;   -4.642;  832.135
322.041;   62.693;   -5.002;  812.315
322.638;   59.876;   -3.982;  701.456
323.235;   61.034;   -3.411;  665.683
323.833;   58.704;   -7.361;  740.354
324.430;   54.206;   -8.611;  615.900
325.027;   54.759;   -4.061;  876.855
325.624;   54.556;   -4.031;  644.532
326.221;   52.161;   -7.481;  689.717
326.818;   51.731;   -5.281;  818.332
327.415;   54.709;   -7.460;  748.828
328.012;   53.763;   -5.510;  690.585
328.609;   52.817;   -7.880;  731.389
329.206;   51.032;   -8.331;  778.621
329.803;   51.415;   -5.121;  737.841
330.400;   53.662;   -4.510;  704.260
330.997;   54.753;   -6.441;  817.147
331.594;   53.713;   -8.831;  788.185
332.191;   58.524;   -7.621;  728.722
332.787;   60.763;   -4.591;  844.463
333.384;   59.586;   -7.412;  763.093
333.981;   58.329;   -8.293;  815.687
334.578;   61.166;   -7.052;  708.378
335.174;   64.872;   -3.102;  731.469
335.771;   63.577;   -5.943;  836.456
336.367;   60.838;   -7.393;  710.631
336.964;   64.186;   -4.063;  793.266
337.561;   62.265;   -3.813;  731.112
338.157;   58.067;   -4.654;  911.916
338.754;   56.023;   -7.934;  796.589
339.350;   52.891;   -4.414;  722.493
339.946;   54.996;   -4.664;  773.135
340.543;   47.798;   -6.375;  846.136
341.139;   42.286;   -9.815;  720.836
341.735;   39.556;   -4.526;  772.593
342.332;   37.715;   -4.895;  691.472
342.928;   39.319;   -4.295;  795.394
343.524;   33.378;   -5.476;  761.684
344.120;   29.783;   -5.856;  738.562
344.716;   32.548;   -2.155;  723.717
345.313;   30.260;   -6.275;  795.342
345.909;   25.809;   -8.815;  627.336
346.505;   27.129;   -5.305;  740.247
347.101;   27.919;   -2.674;  827.864
347.697;   28.156;   -4.344;  785.398
348.293;   21.961;   -9.975;  627.244
348.889;   23.346;   -5.774;  745.914
349.485;   22.315;   -5.004;  688.205
350.081;   22.837;   -4.704;  772.592
350.676;   18.595;   -6.635;  691.606
351.272;   23.380;   -4.504;  809.530
351.868;   21.926;   -3.914;  780.497
352.464;   19.506;   -9.044;  723.932
353.059;   15.900;   -8.314;  646.017
353.655;   19.694;   -7.024;  777.063
354.251;   20.285;   -5.343;  759.845
354.846;   15.479;   -8.604;  740.646
355.442;   12.401;   -6.945;  753.071
356.038;   14.794;   -7.564;  751.708
356.633;   14.864;   -5.814;  728.594
357.229;   12.703;   -7.364;  724.757
357.824;   11.656;   -8.024;  703.600
358.420;   10.212;   -9.384;  679.726
359.015;   10.440;   -5.104;  695.357
359.610;   11.632;   -6.854;  763.920
360.206;    5.455;  -10.185;  603.240
360.801;    7.728;   -7.054;  646.503
361.396;   10.020;   -5.034;  725.975
361.992;    6.378;   -8.284;  668.220
362.587;    3.529;   -8.625;  670.160
363.182;    5.755;   -7.674;  689.631
363.777;    6.217;   -5.164;  738.242
364.372;    6.112;   -8.604;  737.314
364.967;    2.158;   -9.055;  680.744
365.563;    6.116;   -6.114;  815.567
366.158;    3.583;   -5.814;  685.161
366.753;    3.665;   -7.854;  649.263
367.348;    2.077;   -7.804;  746.056
367.942;    2.187;   -7.954;  697.298
368.537;    1.246;   -4.984;  754.245
369.132;    1.313;   -8.564;  703.428
369.727;   -2.806;   -8.855;  638.079
370.322;   -1.658;   -6.245;  580.186
370.917;   -1.480;   -6.425;  710.646
371.511;    0.580;   -6.294;  861.834
372.106;   -3.025;   -7.685;  776.964
372.701;   -6.100;   -7.335;  585.988
373.296;    0.186;   -4.564;  863.135
373.890;   -4.632;  -10.235;  647.840
374.485;   -7.038;   -7.885;  691.199
375.079;   -3.405;   -7.324;  738.685
375.674;   -1.917;   -3.494;  812.970
376.268;   -6.017;   -8.525;  691.759
376.863;  -11.140;  -10.086;  580.327
377.457;   -6.035;   -7.025;  662.490
378.052;   -7.416;   -3.585;  764.884
378.646;   -7.826;   -7.595;  741.167
379.240;   -8.466;   -8.335;  721.176
379.835;   -8.316;   -5.785;  636.978
380.429;   -9.028;   -4.335;  562.557
381.023;   -9.590;   -6.805;  779.205
381.617;  -11.877;   -9.195;  680.106
382.212;   -9.089;   -6.905;  685.303
382.806;   -8.070;   -3.745;  760.690
383.400;  -11.701;   -7.745;  672.281
383.994;  -12.911;   -9.765;  664.870
384.588;   -9.050;   -6.564;  697.701
385.182;   -8.469;   -5.344;  726.624
385.776;  -10.038;   -8.514;  706.875
386.370;  -12.758;   -9.555;  681.968
386.964;  -11.166;   -8.715;  684.155
387.558;   -9.638;   -6.174;  598.360
388.152;  -12.910;   -8.725;  681.959
388.745;  -11.675;   -7.965;  814.707
389.339;   -9.246;   -5.924;  747.642
389.933;   -9.236;   -5.524;  695.370
390.527;  -10.223;   -7.114;  859.029
391.120;  -15.577;  -10.725;  595.318
391.714;  -13.092;   -8.035;  711.633
392.308;   -9.550;   -3.574;  780.253
392.901;  -13.336;   -7.245;  642.460
393.495;  -16.028;   -9.285;  595.414
394.089;  -12.523;   -5.895;  760.452
394.682;  -13.987;   -4.295;  697.188
395.275;  -14.829;   -9.875;  719.927
395.869;  -15.325;   -8.485;  667.314
396.462;  -14.040;   -7.455;  616.609
397.056;  -10.118;   -5.424;  776.621
397.649;  -14.226;   -6.605;  731.575
398.242;  -12.507;   -8.224;  712.645
398.836;  -11.303;   -7.474;  766.408
399.429;  -12.650;   -7.094;  631.041
400.022;  -16.342;   -9.475;  665.902
400.615;  -13.492;   -7.145;  805.609
401.208;  -11.888;   -7.174;  691.451
401.802;  -13.912;   -5.515;  699.329
402.395;  -15.543;   -9.875;  683.502
402.988;  -16.154;   -8.845;  696.627
403.581;  -12.724;   -8.874;  646.878
404.174;  -11.254;   -5.324;  686.568
404.767;  -13.633;   -9.575;  638.583
405.360;  -15.734;  -10.965;  621.445
405.953;  -10.835;   -8.764;  759.034
406.545;  -10.370;   -7.514;  725.342
407.138;  -14.137;  -10.025;  618.350
407.731;  -13.327;  -10.034;  613.303
408.324;   -9.697;   -9.374;  660.554
408.917;  -10.367;   -6.534;  681.864
409.509;  -12.713;   -8.004;  740.396
410.102;  -13.301;   -9.875;  643.948
410.695;   -8.262;   -8.604;  665.758
411.287;   -8.768;   -6.794;  599.821
411.880;  -10.489;   -9.334;  585.421
412.472;  -13.104;  -10.254;  613.092
413.065;  -10.093;   -6.714;  629.408
413.657;   -8.224;   -7.234;  576.678
414.250;   -8.114;  -10.544;  646.681
414.842;   -9.584;   -9.744;  676.353
415.434;   -7.725;   -6.994;  570.463
416.027;   -3.688;   -5.893;  652.196
416.619;   -5.791;   -7.264;  713.400
417.211;   -6.303;  -10.374;  599.352
417.804;   -2.265;   -7.993;  628.499
418.396;   -7.101;   -7.234;  607.643
418.988;   -3.943;   -9.443;  659.238
419.580;   -7.666;  -10.724;  568.276
420.172;   -5.451;  -10.323;  536.196
420.764;   -1.316;   -8.793;  672.482
421.356;   -2.502;  -11.143;  636.898
421.948;   -2.427;   -8.293;  677.661
422.540;    1.015;   -7.893;  680.027
423.132;    1.065;   -7.082;  600.641
423.724;   -2.253;   -8.653;  561.267
424.316;   -0.476;  -10.213;  621.345
424.908;    2.966;   -9.762;  591.517
425.500;    3.715;   -5.572;  647.978
426.092;    4.235;   -8.422;  648.268
426.683;    3.219;   -9.283;  684.836
427.275;    5.591;   -7.852;  641.471
427.867;    7.412;   -5.272;  668.948
428.458;    8.419;   -7.682;  732.344
429.050;    6.577;  -10.612;  680.749
429.642;    8.931;   -9.882;  743.124
430.233;    9.209;   -6.962;  569.356
430.825;   10.602;   -6.842;  724.809
431.416;    7.917;   -9.672;  698.241
432.008;   11.302;   -6.552;  651.723
432.599;   12.045;   -6.891;  656.073
433.190;    9.047;  -10.912;  637.670
433.782;    8.807;  -11.172;  590.395
434.373;   15.761;   -6.061;  884.765
434.964;   14.205;   -8.251;  602.920
435.556;   11.753;   -9.722;  634.537
436.147;   15.236;   -9.082;  758.490
436.738;   15.129;   -8.041;  701.099
437.329;   20.778;   -7.341;  721.723
437.920;   13.734;   -8.162;  666.688
438.511;   13.855;  -11.802;  564.526
439.103;   20.043;  -10.191;  623.998
439.694;   21.554;   -7.601;  681.583
440.285;   22.340;   -8.541;  764.432
440.876;   20.868;   -9.751;  845.738
441.466;   20.181;   -9.401;  575.162
442.057;   26.081;   -7.760;  665.814
442.648;   23.603;   -9.971;  746.255
443.239;   22.600;  -11.001;  620.477
443.830;   27.425;   -7.990;  704.958
444.421;   29.118;   -7.910;  655.474
445.011;   25.279;   -8.131;  693.619
445.602;   25.469;   -7.111;  743.126
446.193;   26.902;  -10.920;  488.117
446.783;   31.337;   -6.500;  640.397
447.374;   26.920;   -8.671;  692.759
447.964;   27.750;  -10.781;  713.770
448.555;   36.131;   -9.650;  822.742
449.145;   32.863;   -8.660;  662.853
449.736;   33.990;   -8.990;  803.179
450.326;   34.139;   -9.500;  713.626
450.917;   39.072;   -8.680;  675.324
451.507;   36.786;   -7.520;  600.661
452.097;   37.744;   -8.590;  746.267
452.688;   39.438;  -11.340;  742.160
453.278;   38.710;  -10.100;  566.840
453.868;   42.970;   -6.019;  793.550
454.458;   40.924;   -9.440;  651.141
455.048;   41.252;  -10.560;  711.783
455.639;   43.002;  -11.799;  567.096
456.229;   47.300;   -6.899;  710.694
456.819;   48.104;   -7.389;  751.158
457.409;   48.920;  -11.119;  773.993
457.999;   51.387;   -9.289;  737.505
458.589;   51.349;   -6.139;  686.606
459.179;   51.837;   -8.729;  717.658
459.769;   49.925;   -9.789;  627.099
460.358;   54.585;  -10.259;  797.262
460.948;   54.336;   -7.299;  689.503
461.538;   56.019;  -10.289;  660.677
462.128;   53.594;  -11.269;  664.934
462.717;   60.552;   -9.368;  710.326
463.307;   63.525;   -7.908;  705.846
463.897;   59.459;   -9.599;  656.942
464.486;   59.384;   -9.769;  837.128
465.076;   63.055;   -8.048;  733.776
465.666;   66.590;   -9.358;  652.900
466.255;   64.275;   -7.919;  785.651
466.845;   63.198;  -11.689;  666.749
467.434;   66.700;   -7.818;  725.873
468.023;   67.495;   -7.678;  658.357
468.613;   64.763;  -10.939;  713.946
469.202;   69.516;  -10.118;  646.507
469.791;   73.042;   -9.108;  737.811
470.381;   75.021;   -6.058;  742.813
470.970;   75.242;  -10.428;  711.099
471.559;   74.827;  -10.268;  733.291
472.148;   78.155;   -8.448;  675.737
472.738;   80.748;   -6.917;  765.466
473.327;   80.744;  -11.978;  637.529
473.916;   79.896;  -11.888;  737.446
474.505;   84.649;   -9.437;  751.703
475.094;   87.358;   -6.747;  806.570
475.683;   87.159;   -9.367;  797.699
476.272;   88.238;  -12.637;  730.632
476.861;   90.626;  -10.027;  706.754
477.449;   96.612;   -8.716;  728.487
478.038;   91.674;   -9.577;  692.513
478.627;   91.917;   -9.718;  714.852
479.216;   99.441;   -8.947;  769.441
479.805;  101.723;   -6.256;  783.375
480.393;  101.814;   -7.937; 1008.945
480.982;  101.244;   -7.717;  874.501
481.571;  107.571;   -9.266;  858.333
482.159;  107.488;   -7.636;  705.386
482.748;  107.537;   -9.667;  821.385
483.336;  113.172;  -10.376;  858.209
483.925;  113.380;   -7.147;  774.373
484.513;  119.580;   -7.996;  758.962
485.102;  116.404;  -10.027;  810.965
485.690;  124.324;  -10.446; 1011.050
486.278;  127.351;   -8.446;  979.329
486.867;  127.463;   -6.356;  809.662
487.455;  129.184;   -9.136;  898.229
488.043;  130.311;  -10.646;  748.361
488.631;  139.965;   -7.456; 1005.079
489.220;  143.112;   -6.636;  908.626
489.808;  143.815;  -11.036;  741.415
490.396;  152.012;  -10.246;  914.645
490.984;  157.484;   -8.556;  830.161
491.572;  166.314;   -5.886;  940.315
492.160;  172.292;   -9.486;  919.081
492.748;  185.208;  -10.976;  884.341
493.336;  208.709;   -8.776; 1019.693
493.924;  232.956;   -5.465;  958.077
494.512;  262.484;   -9.986; 1066.638
495.100;  298.370;  -10.636; 1103.280
495.687;  353.067;  -10.885; 1206.373
496.275;  415.109;   -8.126; 1150.796
496.863;  486.443;  -10.586; 1281.171
497.451;  588.181;  -11.926; 1386.805
498.038;  719.137;  -10.885; 1556.729
498.626;  827.130;   -6.315; 1741.407
499.214;  981.751;   -7.326; 2016.609
499.801; 1176.650;  -11.906; 2220.633
500.389; 1418.897;  -10.466; 2312.494
500.976; 1713.316;   -5.236; 2744.849
501.564; 2148.965;   -8.936; 3148.565
502.151; 2499.447;  -13.176; 3515.999
502.738; 2916.070;  -10.646; 3971.274
503.326; 3326.371;   -9.525; 4403.796
503.913; 3741.849;  -10.856; 5161.749
504.500; 4122.547;  -11.586; 5986.420
505.088; 4498.975;  -10.336; 6381.201
505.675; 5038.825;   -6.355; 6925.547
506.262; 5740.067;   -9.046; 7619.060
506.849; 6471.351;  -10.416; 8733.969
507.436; 7015.010;  -10.305; 9790.121
508.023; 7611.260;   -5.496; 9985.472
508.610; 7851.303;   -7.856;10434.618
509.197; 8458.428;  -10.097;11198.435
509.784; 9825.308;  -10.886;12391.194
510.371;11007.013;   -9.315;13603.713
510.958;11793.448;   -9.936;14426.586
511.545;12520.336;   -9.326;15243.775
512.132;13337.666;  -10.075;15945.876
512.719;13823.317;   -7.796;16340.369
513.305;14874.431;  -10.606;18011.766
513.892;15600.501;  -11.486;19754.971
514.479;16775.617;   -9.126;20967.805
515.066;18284.412;   -6.026;22299.793
515.652;19983.045;   -8.466;22908.660
516.239;21241.816;  -10.886;23798.875
516.825;22037.895;  -11.496;25567.275
517.412;22862.391;   -5.796;28154.959
517.998;23582.609;  -10.506;28344.111
518.585;23648.535;  -10.076;27134.219
519.171;24221.539;   -8.315;27268.576
519.758;25988.346;   -8.596;28964.129
520.344;28064.787;   -8.466;30664.494
520.930;27780.633;  -11.006;32550.605
521.516;28569.438;  -10.495;35422.895
522.103;30436.227;   -5.526;38280.004
522.689;30874.164;   -8.746;37835.117
523.275;30607.379;  -11.376;37288.613
523.861;32403.709;  -11.156;37281.395
524.447;34099.773;   -8.135;37846.949
525.033;33879.164;   -7.896;38321.949
525.619;34129.633;  -12.476;38579.285
526.205;35443.742;   -9.516;40622.875
526.791;38034.645;   -6.926;42258.836
527.377;37922.047;   -8.346;42966.902
527.963;38748.125;   -8.717;42018.949
528.549;37984.895;  -11.016;42476.828
529.135;36332.680;   -8.536;41854.852
529.721;34922.375;   -9.666;41237.711
530.306;33804.945;  -10.066;41259.445
530.892;32934.230;  -11.356;41506.047
531.478;32799.863;   -6.596;43559.613
532.063;35082.105;   -8.836;47695.563
532.649;36763.035;  -10.047;50808.324
533.235;37383.660;   -9.746;51787.500
533.820;36013.621;   -6.566;52145.035
534.406;34662.340;  -10.817;51133.488
534.991;31798.299;   -9.416;49996.805
535.576;29815.676;   -9.036;48882.852
536.162;33745.379;   -6.156;46942.285
536.747;40309.852;  -11.607;45711.746
537.333;46585.016;  -11.787;48510.180
537.918;51553.262;  -12.437;50439.891
538.503;51612.012;   -7.196;50863.711
539.088;47756.871;  -10.556;50906.922
539.673;47207.809;   -8.767;52621.965
540.259;48036.328;  -10.026;52368.094
540.844;45118.055;   -7.416;50879.109
541.429;46713.297;   -9.467;52077.777
542.014;48771.797;   -9.527;52716.695
542.599;47765.453;   -9.946;52363.281
543.184;44667.199;   -7.927;53187.137
543.769;45524.184;   -9.297;54697.605
544.354;45736.051;  -10.127;53913.914
544.938;44413.285;   -9.267;49680.164
545.523;46123.965;   -6.506;47386.277
546.108;48958.582;   -9.787;49151.949
546.693;50684.680;  -11.587;51384.637
547.278;50987.977;  -10.986;51853.254
547.862;48096.230;   -8.206;51173.750
548.447;43612.328;  -10.067;51691.395
549.031;42900.277;   -9.637;52456.703
549.616;47381.238;   -9.926;52714.516
550.201;47289.234;   -6.347;52414.598
550.785;48432.203;   -7.917;52355.059
551.370;47564.086;  -10.867;54589.453
551.954;46983.137;   -9.047;58267.348
552.538;47885.133;   -7.827;59062.176
553.123;46330.508;  -10.287;58115.285
553.707;43969.516;  -12.178;56556.285
554.291;45671.859;   -8.717;56201.668
554.876;49197.457;   -7.457;55335.762
555.460;49218.086;  -10.387;54155.703
556.044;48959.383;   -9.618;53721.484
556.628;46718.637;  -11.567;53731.016
557.212;45503.613;   -8.097;54312.531
557.796;44312.652;  -11.077;53797.773
558.380;44536.645;  -11.108;56145.984
558.964;44628.219;   -9.057;57277.930
559.548;45935.109;   -6.977;56459.641
560.132;44154.605;  -11.457;54434.543
560.716;42177.008;  -11.378;54800.617
561.300;43167.371;   -9.577;57606.945
561.884;44303.211;   -7.127;58972.445
562.467;41985.270;   -7.118;57327.570
563.051;41252.031;  -13.358;54962.434
563.635;43161.766;  -10.178;52594.473
564.219;43696.215;   -7.837;50610.410
564.802;44188.250;  -11.398;49551.180
565.386;43699.797;  -12.788;48370.953
565.969;43014.270;   -9.077;48178.871
566.553;41689.430;   -6.207;49957.305
567.136;42719.492;   -8.568;50369.594
567.720;39775.496;  -11.868;49492.004
568.303;37839.555;   -8.268;50616.352
568.887;38025.262;   -8.698;50727.148
569.470;38585.816;   -6.808;51698.379
570.053;37655.504;  -13.188;52122.078
570.637;35228.977;  -12.037;52536.438
571.220;35113.828;   -8.577;51186.098
571.803;36442.195;   -8.498;51032.762
572.386;38266.594;  -10.498;49609.887
572.969;40286.602;   -9.388;48285.926
573.552;38863.313;   -8.338;47624.285
574.135;37510.820;   -8.518;45498.641
574.718;35225.383;  -13.628;41970.434
575.301;34469.770;  -10.893;41447.137
575.884;33714.156;   -8.158;40923.836
576.467;34915.031;  -10.328;45267.723
577.050;36172.098;  -13.058;48175.543
577.633;37146.059;   -9.458;47729.328
578.216;36553.523;   -8.928;47579.793
578.799;35821.551;   -9.358;47820.996
579.381;34860.516;  -11.388;48115.551
579.964;32561.074;  -11.718;47333.766
580.547;34865.313;   -8.588;46668.969
581.129;35903.531;   -8.859;44466.141
581.712;36722.406;  -10.729;44164.922
582.294;37049.316;  -11.118;46477.855
582.877;36960.207;   -5.218;48244.254
583.459;35137.770;   -8.679;47437.895
584.042;33038.820;  -10.709;46943.219
584.624;32917.102;  -11.669;46792.227
585.206;32728.387;   -8.218;46557.250
585.789;32978.395;  -10.569;45793.773
586.371;35325.035;  -11.859;43836.391
586.953;36159.516;  -10.719;42972.492
587.536;36864.254;   -7.198;42487.211
588.118;37402.707;   -8.720;42086.414
588.700;33397.473;  -10.439;43389.930
589.282;32412.895;   -9.198;43646.039
589.864;33608.859;   -9.199;43438.109
590.446;34994.465;  -11.319;43151.926
591.028;35087.055;  -11.159;42781.867
591.610;33705.934;  -11.779;42839.098
592.192;30751.678;   -7.668;42820.402
592.774;29368.143;  -11.949;40724.277
593.356;28385.186;  -12.129;39874.789
593.937;27325.344;  -10.669;39980.648
594.519;29480.631;   -6.509;42069.633
595.101;31514.680;  -10.849;42976.031
595.683;31589.695;  -11.679;44084.441
596.264;32368.080;   -9.049;43478.797
596.846;32338.656;   -8.849;43803.672
597.427;32380.252;   -9.570;42986.934
598.009;33700.012;  -12.620;42832.219
598.591;33945.727;  -10.039;42580.086
599.172;33512.855;  -10.369;43061.805
599.753;33661.992;   -9.140;41691.469
600.335;34982.809;  -11.430;40692.520
600.916;33375.418;   -9.939;39982.422
601.498;31173.770;   -8.479;40318.617
602.079;29672.096;  -10.920;40670.609
602.660;29179.619;  -11.480;41450.898
603.241;30922.396;  -11.699;41137.738
603.823;29851.746;   -9.579;38868.797
604.404;28697.566;  -10.620;38182.785
604.985;30477.680;  -10.450;38078.047
605.566;30880.430;   -9.129;38056.633
606.147;30916.092;   -7.510;37020.418
606.728;32198.480;  -10.660;37883.359
607.309;30630.340;  -11.740;38748.273
607.890;30528.445;   -9.759;38850.230
608.471;30228.846;   -8.250;37457.918
609.051;29535.979;   -9.240;36066.457
609.632;28313.158;  -12.120;35991.074
610.213;28445.943;   -9.110;37402.641
610.794;29230.539;   -8.030;38383.363
611.374;29198.217;   -8.110;40562.387
611.955;30179.012;  -13.560;38533.727
612.536;31446.168;  -11.400;36951.789
613.116;30870.705;   -8.070;37197.891
613.697;31347.795;  -10.830;38411.125
614.277;29456.219;  -11.641;38673.938
614.858;30033.162;  -13.310;37075.863
615.438;29777.328;   -7.460;35092.906
616.019;27833.223;   -7.601;33666.301
616.599;27940.748;  -12.020;34189.023
617.179;29554.041;  -11.780;36952.047
617.760;30764.469;   -8.570;39582.574
618.340;31370.463;  -11.471;38943.977
618.920;32237.152;  -11.170;37594.156
619.500;32389.061;  -11.071;37866.938
620.080;31273.938;   -7.750;37869.043
620.660;32160.943;  -12.711;36868.617
621.241;33869.773;  -10.211;36352.309
621.821;34588.344;  -10.961;35459.520
622.401;33438.578;   -7.720;35207.414
622.980;32320.881;   -8.981;35980.422
623.560;30839.111;   -9.331;37351.328
624.140;29491.785;   -9.850;34388.582
624.720;24845.848;   -7.451;32368.764
625.300;21580.918;   -9.070;32638.629
625.880;24880.926;  -12.601;34599.035
626.459;28889.691;  -11.751;36831.738
627.039;31717.365;   -9.281;38299.098
627.619;31658.469;   -8.801;38289.574
628.198;30412.777;  -12.071;37220.695
628.778;29406.848;   -9.461;37632.563
629.357;29752.148;   -8.491;38003.012
629.937;30073.324;   -9.721;38402.039
630.516;29802.900;   -9.951;37868.801
631.096;29689.346;  -11.731;35760.410
631.675;31387.580;   -8.572;35225.219
632.254;36439.992;  -11.282;35130.289
632.834;36148.965;  -13.322;35794.570
633.413;34555.652;  -10.301;35788.922
633.992;32172.508;   -8.582;34532.863
634.571;32520.775;   -8.352;33590.113
635.151;35096.906;  -11.912;34943.863
635.730;34003.570;  -10.511;35352.523
636.309;30828.457;   -7.731;35366.605
636.888;28063.066;   -9.952;36165.637
637.467;28313.070;  -11.672;37515.902
638.046;29599.506;   -8.901;39288.695
638.625;32397.451;   -7.912;38279.699
639.204;32383.357;  -10.022;37741.598
639.782;31289.039;  -12.252;38364.551
640.361;27752.416;  -10.041;36740.621
640.940;25082.564;  -11.161;34950.082
641.519;25977.883;   -9.701;34137.398
642.097;28930.510;  -11.271;35654.258
642.676;31274.881;   -8.651;35637.957
643.255;32523.918;   -8.711;36567.074
643.833;31916.664;   -9.581;37809.434
644.412;31976.705;  -13.711;37337.293
644.990;30995.529;  -11.811;37018.531
645.569;30729.291;   -9.411;36518.469
646.147;30310.801;  -10.291;36186.430
646.726;30665.053;  -12.401;36267.688
647.304;31685.998;  -10.411;36647.625
647.882;32737.742;   -9.651;39286.742
648.461;34202.746;   -9.631;39157.703
649.039;32914.629;  -11.881;35412.883
649.617;31880.195;   -9.661;34744.918
650.195;30839.068;   -9.301;35403.098
650.773;29578.352;  -10.511;35053.797
651.352;27272.334;  -11.521;33756.816
651.930;25064.781;  -12.211;31868.773
652.508;23811.080;   -9.171;33121.551
653.086;27724.285;   -9.371;33564.793
653.663;30813.373;  -13.161;34054.668
654.241;29303.506;  -13.031;35693.309
654.819;30331.076;   -9.371;36422.906
655.397;30109.043;  -10.511;38213.484
655.975;29783.129;  -10.371;39507.625
656.553;29637.627;  -10.051;39498.223
657.130;28129.070;  -10.061;40395.480
657.708;27256.947;   -9.561;39242.020
658.286;27315.365;  -11.511;38920.020
658.863;28730.934;  -10.261;40202.898
659.441;32268.805;   -7.531;39677.938
660.018;32385.199;   -9.501;40413.355
660.596;30999.684;  -13.301;39931.414
661.173;32274.475;  -11.211;39604.531
661.750;32467.016;   -9.951;39700.070
662.328;31226.783;   -9.390;39292.809
662.905;30384.891;  -11.330;38235.648
663.482;26538.615;   -9.050;36212.305
664.060;24679.877;   -8.240;35944.945
664.637;27532.598;  -10.050;35170.785
665.214;28966.805;  -11.760;34197.523
665.791;30694.646;  -10.530;34549.520
666.368;29914.432;   -9.690;35118.578
666.945;30110.916;   -9.320;36019.418
667.522;31613.131;  -11.860;36048.438
668.099;31480.959;  -10.770;36243.914
668.676;30174.889;   -6.260;35958.875
669.253;28787.678;   -7.000;37384.730
669.830;29006.643;  -10.190;36779.629
670.407;29047.660;   -9.550;35231.289
670.984;28741.670;   -9.260;35544.270
671.560;29624.096;   -9.280;35466.867
672.137;29192.629;  -11.810;34280.863
672.714;30216.111;  -11.490;34632.863
673.290;31317.100;   -7.740;35135.422
673.867;31245.734;  -10.660;36114.480
674.443;31058.799;  -12.230;36152.859
675.020;29036.387;  -10.450;35327.238
675.596;29763.477;   -9.260;35795.176
676.173;30501.924;  -10.780;35430.355
676.749;30248.549;  -13.690;33549.516
677.326;30069.625;  -11.980;32210.012
677.902;29935.855;   -8.630;32068.871
678.478;29479.518;  -10.730;32583.891
679.054;28490.451;  -10.520;32088.928
679.631;28703.344;  -11.920;30978.848
680.207;30227.746;   -7.490;33160.887
680.783;31691.514;   -9.860;35570.363
681.359;30791.430;  -13.380;36125.184
681.935;30577.154;  -12.480;35240.922
682.511;30692.680;   -7.900;34429.961
683.087;31168.643;   -7.710;34463.680
683.663;30227.961;  -11.480;34648.898
684.239;28727.135;  -14.090;34546.457
684.815;28096.287;   -7.560;35586.375
685.390;28081.205;   -9.910;35821.895
685.966;28510.014;  -11.159;35085.871
686.542;30803.174;  -11.169;34198.230
687.118;33498.871;   -5.959;32847.707
687.693;34364.820;  -10.329;32794.027
688.269;33945.965;  -12.059;33072.367
688.844;32005.127;  -10.909;33141.664
689.420;29901.895;   -8.019;33965.742
689.995;28072.135;   -8.399;34655.523
690.571;26566.102;  -10.949;33576.742
691.146;26628.965;   -9.619;32657.219
691.722;26712.082;   -8.999;32526.979
692.297;26165.281;  -11.589;33014.617
692.872;27340.213;  -11.739;34012.254
693.448;27243.732;  -11.059;34237.434
694.023;26363.229;  -10.139;34142.672
694.598;28207.588;   -9.029;34132.031
695.173;28969.119;  -13.319;34205.250
695.748;27823.111;  -10.169;32882.488
696.323;27721.432;   -8.339;32864.906
696.898;28073.580;   -8.169;33170.004
697.473;28511.441;  -12.309;32432.984
698.048;28057.242;  -10.989;31649.303
698.623;27682.939;   -9.329;30778.141
699.198;29049.398;   -9.849;31140.119
699.773;30518.676;  -12.329;31764.299
700.348;29147.961;  -10.389;31780.816
700.922;28936.975;   -9.269;32046.375
701.497;30176.531;   -9.329;32603.574
702.072;30734.389;  -10.789;34799.871
702.646;29115.277;  -10.839;35793.172
703.221;26558.539;   -9.099;35201.590
703.795;28351.744;  -10.939;34764.527
704.370;29023.709;  -12.859;34307.367
704.944;29315.607;  -11.559;33509.887
705.519;29879.461;   -7.939;31388.584
706.093;31087.396;  -10.499;31340.104
706.668;31630.219;  -11.289;32630.281
707.242;30622.971;  -11.509;32728.779
707.816;29308.627;   -9.639;32947.238
708.390;27599.225;  -11.429;33277.855
708.965;27839.695;  -11.869;33834.336
709.539;27793.363;  -11.689;33709.273
710.113;28036.291;  -10.478;33044.313
710.687;27800.008;  -10.228;31953.992
711.261;26307.908;  -13.698;30505.949
711.835;25896.305;  -13.378;30262.369
712.409;26105.568;   -9.698;31254.447
712.983;28240.088;  -11.898;32754.986
713.557;29681.531;  -15.138;34018.824
714.131;29586.244;  -14.098;34579.625
714.704;28679.033;   -9.958;33890.262
715.278;26123.238;  -10.028;33531.102
715.852;24794.482;  -11.148;33601.660
716.425;25777.297;   -9.068;33515.117
716.999;26927.400;  -10.038;33185.555
717.573;27853.184;   -9.798;33905.996
718.146;28923.082;  -12.378;35199.293
718.720;29053.822;  -11.918;35060.551
719.293;28862.418;   -8.088;34973.230
719.867;31887.189;  -10.888;36394.449
720.440;31768.744;  -11.938;36663.008
721.013;30089.875;  -12.818;35102.426
721.587;28516.150;  -10.298;33985.266
722.160;27211.742;  -10.048;33524.965
722.733;26054.297;  -12.108;32987.043
723.306;26112.979;  -10.818;33066.301
723.880;28412.658;   -8.908;33399.500
724.453;31116.119;   -9.878;33468.297
725.026;30625.025;  -11.188;33816.637
725.599;27592.420;  -11.678;32797.996
726.172;27042.035;   -9.618;33187.434
726.745;27802.990;   -8.258;35136.613
727.318;29041.721;  -12.978;35751.730
727.891;29990.293;  -12.148;35890.430
728.463;29588.428;   -8.968;34822.090
729.036;28168.133;  -10.188;32895.086
729.609;28636.092;  -11.788;31823.225
730.182;25980.764;  -11.788;31445.283
730.754;23793.076;  -10.268;32373.223
731.327;24182.197;   -9.998;33676.820
731.900;24485.588;  -12.228;33417.000
732.472;25018.939;  -13.848;31978.498
733.045;26394.535;   -8.698;30368.777
733.617;26431.729;  -10.607;30574.215
734.190;26791.256;  -11.507;31280.975
734.762;24722.238;  -13.647;31674.412
735.334;22934.463;   -9.767;31247.291
735.907;23380.525;   -9.897;29876.211
736.479;23837.564;  -11.637;29808.488
737.051;23460.473;   -9.567;30233.547
737.623;23907.674;   -8.187;31469.086
738.195;24068.146;  -11.187;31784.225
738.768;25899.818;  -12.337;32120.523
739.340;26903.277;  -12.227;32094.342
739.912;26136.207;  -11.057;31312.680
740.484;24576.311;  -10.207;31946.238
741.056;22736.676;  -10.047;32984.059
741.628;23803.969;  -13.627;33897.715
742.199;26040.057;   -7.177;33213.016
742.771;24848.574;  -10.797;31369.113
743.343;22760.533;  -11.997;31865.473
743.915;21847.072;  -12.867;32388.631
744.487;21901.027;   -7.617;31079.568
745.058;22097.908;   -9.557;30570.107
745.630;22724.846;   -9.877;29970.127
746.201;24086.797;  -14.177;29186.766
746.773;24941.451;   -9.237;28805.723
747.344;24673.322;   -9.847;29591.223
747.916;22770.646;  -11.657;31412.201
748.487;22672.160;  -10.587;32194.898
749.059;23956.791;   -8.707;32533.719
749.630;24631.000;  -10.537;32158.518
750.201;23655.043;  -11.687;30855.395
750.773;21974.398;  -11.647;28622.555
751.344;21650.807;   -7.147;28405.732
751.915;22613.377;   -9.757;28461.551
752.486;23021.096;  -12.427;27842.850
753.057;21129.070;  -12.227;27845.008
753.628;19757.176;  -10.417;27728.107
754.199;20569.043;  -11.767;27381.086
754.770;21627.377;  -11.187;25882.203
755.341;21847.387;  -10.507;25886.184
755.912;22091.734;   -9.387;26050.861
756.483;21648.756;  -10.647;26798.779
757.054;19898.727;  -11.837;27048.238
757.625;18495.434;  -12.716;26294.838
758.195;18232.051;   -9.666;26142.076
758.766;17863.713;   -8.656;26392.234
759.337;18340.248;  -12.856;26334.594
759.907;19731.463;  -13.366;27579.652
760.478;20753.775;   -8.576;28352.770
761.048;20383.246;  -10.526;27325.088
761.619;19414.898;  -11.116;26460.428
762.189;19337.633;  -12.136;26029.826
762.760;20239.260;   -9.456;26430.145
763.330;21543.727;   -7.136;26670.902
763.900;21310.518;  -11.786;26603.021
764.471;19007.627;  -11.546;25542.740
765.041;17654.088;   -8.096;24358.459
765.611;17397.070;   -8.876;23991.297
766.181;17507.057;  -12.196;24470.236
766.751;18620.889;  -11.636;24845.975
767.321;18551.359;  -10.156;24533.633
767.891;16544.242;  -11.766;24916.492
768.461;15886.001;  -14.936;24776.771
769.031;16286.729;  -12.356;24757.988
769.601;17994.184;   -7.526;24181.088
770.171;18189.930;  -10.766;23670.387
770.741;17209.615;  -13.176;22960.045
771.311;17134.605;  -10.616;22917.523
771.880;17839.307;   -9.576;23562.941
772.450;17895.059;  -10.336;24216.500
773.020;17792.270;  -13.516;24140.398
773.589;16798.635;  -13.466;24414.857
774.159;15913.107;   -8.686;23858.717
774.729;15469.040;   -9.476;22942.135
775.298;15196.699;  -13.666;22324.033
775.867;14816.302;  -11.716;21140.313
776.437;14993.430;   -9.906;20838.092
777.006;14758.860;  -12.166;20599.510
777.576;14350.110;  -12.356;20508.809
778.145;14294.338;  -11.646;20732.947
778.714;14471.761;   -8.226;21062.465
779.283;14051.169;   -9.556;20949.664
779.853;13518.159;  -14.116;20508.623
780.422;13940.934;  -11.506;20649.082
780.991;13475.328;   -9.556;21527.520
781.560;12084.517;   -9.095;22632.658
782.129;11796.435;  -12.135;23048.277
782.698;11796.521;  -10.865;23438.555
783.267;11495.609;   -9.335;23267.734
783.836;11455.266;  -11.045;22415.133
784.404;12422.091;  -13.865;20443.152
784.973;13129.994;  -13.095;19699.150
785.542;13238.962;  -11.575;19763.828
786.111;13046.660;   -9.705;20341.408
786.679;12577.530;  -12.105;20207.967
787.248;12261.646;  -12.455;19516.465
787.817;12064.555;  -11.535;18900.363
788.385;11768.053;   -9.765;17879.121
788.954;11230.640;  -14.005;17658.301
789.522;10522.970;  -11.955;17788.879
790.090;10846.352;  -10.135;18118.277
790.659;11460.574;  -10.975;18338.736
791.227;11160.787;  -13.375;18508.615
791.795;11596.018;  -12.375;17898.254
792.364;11956.572;  -10.725;17295.133
792.932;12326.396;   -9.715;16822.051
793.500;12596.321;  -12.675;17040.148
794.068;12738.548;  -13.495;17179.787
794.636;12880.810;  -10.885;16664.246
795.204;12149.882;  -11.045;16524.545
795.772;12092.397;  -13.175;17274.564
796.340;11637.314;  -12.445;17891.002
796.908;11387.399;   -9.735;17648.561
797.476;11264.394;   -9.815;17064.080
798.044;10881.479;  -13.985;16672.777
798.612;10135.067;  -13.115;17023.996
799.180; 9771.104;  -10.185;16561.615
799.747; 9647.834;   -9.055;15962.773
800.315; 9305.986;  -12.385;15296.992
800.883; 9116.344;  -15.035;14801.771
801.450; 9360.736;  -10.365;14534.430
802.018; 9499.901;   -9.855;14173.248
802.585; 9529.981;  -11.905;14029.547
803.153; 9479.509;  -11.585;13836.846
803.720; 9254.143;   -9.095;13567.324
804.287; 8780.343;   -9.135;13360.622
804.855; 8264.754;  -11.604;13681.981
805.422; 8079.878;  -11.794;13536.560
805.989; 8175.251;  -10.734;13355.958
806.556; 8362.180;  -10.444;13747.896
807.124; 8596.814;  -12.764;13987.376
807.691; 8544.685;  -12.964;14038.674
808.258; 8400.053;  -11.134;14120.152
808.825; 8143.217;   -9.854;13860.111
809.392; 8266.961;  -10.504;13268.790
809.959; 7763.620;  -13.054;12680.389
810.526; 7224.667;   -8.294;12427.308
811.093; 7161.497;   -8.394;12030.105
811.659; 7824.029;  -12.304;11653.664
812.226; 8471.275;  -13.944;11637.183
812.793; 8245.512;  -10.484;11611.521
813.360; 7584.167;  -10.144;11885.181
813.926; 7237.012;  -11.684;12770.539
814.493; 7048.542;  -13.644;12677.638
815.060; 6685.520;   -9.724;11974.336
815.626; 6614.779;   -9.854;11594.715
816.193; 6954.088;  -13.254;11579.474
816.759; 6968.480;  -13.204;11666.972
817.325; 6966.125;   -9.434;11325.530
817.892; 7294.346;  -10.134;11105.369
818.458; 7733.132;  -13.474;10843.928
819.024; 7440.438;  -11.854;10714.406
819.591; 7154.255;  -10.244;10469.165
820.157; 6953.900;  -10.704;10235.523
820.723; 6418.985;  -12.324;10847.563
821.289; 6053.491;   -9.444;11040.980
821.855; 5980.710;   -8.374;10357.100
822.421; 6000.839;  -10.234; 9978.918
822.987; 6014.986;  -13.294; 9754.177
823.553; 5621.296;  -10.884;10065.755
824.119; 5374.995;   -8.884;10036.294
824.685; 5515.715;   -6.784;10029.192
825.251; 5674.491;  -12.004;10199.230
825.816; 5628.983;  -11.474; 9820.189
826.382; 5322.615;   -9.174; 9297.248
826.948; 5420.055;   -9.214; 9381.347
827.513; 5823.344;  -10.774; 9450.726
828.079; 5735.565;  -11.924; 9472.444
828.645; 5125.150;  -10.543; 9292.643
829.210; 4899.713;  -10.533; 9065.341
829.776; 4866.063;  -10.753; 9132.620
830.341; 4752.275;  -10.173; 9092.878
830.906; 4901.055;  -10.743; 9078.557
831.472; 5249.022;  -11.113; 8534.535
832.037; 5090.401;  -10.603; 8677.874
832.602; 4602.974;  -13.323; 8628.692
833.167; 4352.201;  -10.823; 8879.031
833.733; 4313.376;  -10.113; 9189.790
834.298; 4461.401;  -13.583; 9052.608
834.863; 4603.105;  -12.703; 8895.087
835.428; 4607.684;  -10.523; 8824.266
835.993; 4423.178;   -6.963; 8845.385
836.558; 4220.708;  -10.763; 8888.563
837.123; 4279.289;   -9.903; 8966.582
837.688; 4534.489;   -9.913; 8617.860
838.253; 4830.928;  -10.283; 8590.699
838.817; 5059.654;  -12.963; 8443.797
839.382; 4984.930;  -14.243; 8799.356
839.947; 4674.402;  -10.733; 8810.595
840.511; 4377.637;   -9.383; 8796.394
841.076; 3987.627;  -12.563; 8347.231
841.641; 4027.615;  -12.953; 8224.330
842.205; 4152.016;   -7.043; 8223.349
842.770; 4168.639;   -8.163; 8622.107
843.334; 4262.254;  -12.503; 8410.386
843.898; 4204.870;  -11.693; 8337.465
844.463; 4206.539;  -10.203; 8506.283
845.027; 4003.370;   -9.533; 8280.962
845.591; 3812.275;  -13.443; 8231.141
846.156; 3826.371;  -13.143; 7969.179
846.720; 3752.795;   -9.433; 7768.278
847.284; 3649.528;  -11.033; 7630.957
847.848; 3513.659;  -10.403; 7472.395
848.412; 3425.419;  -11.553; 7437.394
848.976; 3473.075;   -8.393; 7674.592
849.540; 3373.706;   -8.713; 7836.011
850.104; 3407.276;  -12.463; 7913.669
850.668; 3767.046;  -12.973; 7694.508
851.232; 3953.111;  -10.793; 7756.887
851.796; 3830.511;  -10.662; 7926.545
852.359; 3508.934;  -13.082; 7827.844
852.923; 3315.921;  -12.192; 7641.163
853.487; 3169.510;  -11.912; 7342.501
854.050; 3149.302;  -10.892; 7042.820
854.614; 3290.340;  -13.992; 7151.338
855.177; 3405.159;  -11.732; 7105.077
855.741; 3440.961;   -8.962; 6989.675
856.304; 3329.314;   -9.442; 6596.634
856.868; 3306.066;  -14.192; 6356.272
857.431; 3437.336;  -12.702; 6468.571
857.995; 3566.167;   -9.942; 6373.210
858.558; 3598.313;   -9.112; 6324.448
859.121; 3331.498;  -12.932; 6408.327
859.684; 3142.306;  -13.442; 6347.886
860.247; 3252.785;  -10.632; 6321.264
860.810; 3302.068;  -11.272; 6301.903
861.374; 3055.753;   -9.832; 6607.881
861.937; 2778.843;  -11.762; 6408.200
862.500; 2768.755;   -9.722; 6572.639
863.062; 2919.762;  -10.512; 6387.297
863.625; 3076.174;  -11.232; 6190.836
864.188; 3248.954;  -14.112; 5807.254
864.751; 3341.315;  -11.302; 5682.413
865.314; 3267.698;  -10.112; 5547.492
865.876; 3023.963;  -12.182; 5500.150
866.439; 2963.730;  -10.722; 5415.909
867.002; 2922.173;   -9.252; 5501.567
867.564; 2749.024;   -9.572; 5413.946
868.127; 2548.516;  -13.142; 5160.325
868.689; 2427.641;  -12.902; 5133.183
869.252; 2320.625;   -9.732; 5252.382
869.814; 2212.165;   -9.432; 5297.141
870.377; 2197.347;  -11.552; 5390.919
870.939; 2254.649;   -9.052; 5599.898
871.501; 2335.138;  -10.982; 5248.336
872.063; 2364.323;  -12.292; 4854.235
872.626; 2307.235;  -14.912; 4817.074
873.188; 2292.181;  -13.112; 4987.732
873.750; 2263.816;  -13.442; 4868.651
874.312; 2175.529;   -9.402; 4779.330
874.874; 2098.679;  -11.062; 4866.348
875.436; 2019.297;  -13.931; 4718.887
875.998; 2014.447;   -9.561; 4660.005
876.560; 2044.015;  -11.321; 4462.964
877.122; 1986.930;  -12.221; 4145.042
877.683; 1878.963;  -12.191; 4056.481
878.245; 1790.138;  -12.101; 3950.740
878.807; 1830.276;   -8.971; 4058.958
879.369; 1866.323;  -12.071; 3954.677
879.930; 1776.861;  -14.621; 3941.495
880.492; 1705.108;  -10.311; 4067.014
881.053; 1685.484;  -10.901; 3859.633
881.615; 1598.925;  -14.411; 3776.071
882.176; 1499.990;  -13.761; 3734.750
882.738; 1439.183;   -9.181; 3678.489
883.299; 1412.302;  -11.791; 3405.407
883.860; 1402.233;  -13.121; 3351.106
884.422; 1397.096;  -11.211; 3394.044
884.983; 1373.972;  -10.091; 3166.443
885.544; 1334.878;   -8.461; 3189.802
886.105; 1299.511;  -12.361; 3160.360
886.666; 1233.329;  -14.141; 3093.059
887.227; 1055.585;  -11.361; 2941.957
887.788;  800.086;  -11.401; 2974.836
888.349;  594.879;  -13.791; 2721.214
888.910;  523.454;  -13.191; 2696.493
889.471;  529.499;   -9.881; 2560.172
890.032;  552.172;   -9.881; 2558.190
890.593;  570.105;  -10.371; 2567.669
891.153;  585.733;  -13.301; 2460.307
891.714;  580.407;  -11.431; 2372.046
892.275;  577.570;  -11.291; 2309.505
892.835;  571.201;  -11.471; 2382.543
893.396;  545.211;  -11.541; 2295.502
893.956;  504.094;  -11.181; 2162.420
894.517;  474.070;  -11.741; 2125.439
895.077;  468.577;  -11.671; 2086.978
895.638;  474.530;  -11.311; 2126.316
896.198;  452.926;   -9.831; 1838.275
896.758;  417.134;   -8.421; 1892.813
897.319;  391.303;  -12.351; 1792.232
897.879;  377.794;  -13.511; 1762.751
898.439;  356.555;  -12.001; 1661.149
898.999;  334.363;  -10.180; 1781.468
899.559;  326.371;  -12.030; 1703.347
900.119;  322.427;  -15.710; 1537.525
900.679;  319.693;   -8.900; 1638.384
901.239;  307.736;   -8.340; 1527.902
901.799;  298.586;  -13.910; 1456.441
902.359;  293.170;  -13.460; 1357.140
902.919;  286.595;  -11.490; 1331.118
903.479;  274.588;  -12.110; 1317.257
904.038;  257.227;  -11.720; 1262.595
904.598;  242.361;  -13.610; 1152.034
905.158;  237.965;  -11.040; 1240.893
905.717;  231.631;  -10.900; 1233.691
906.277;  221.881;  -15.080; 1217.330
906.836;  211.754;  -13.380; 1222.408
907.396;  202.886;  -10.780; 1193.047
907.955;  196.310;   -8.500; 1182.526
908.515;  191.088;  -12.760; 1099.364
909.074;  186.697;  -11.900; 1092.863
909.633;  180.204;   -8.950; 1069.121
910.192;  176.153;   -8.770; 1196.460
910.752;  171.422;  -12.390; 1029.960
911.311;  167.120;  -13.680; 1009.780
911.870;  164.351;  -12.370;  971.460
912.429;  165.063;  -10.900; 1094.080
912.988;  164.047;  -11.690; 1081.060
913.547;  160.920;  -13.240;  940.380
914.106;  155.729;  -11.990;  999.420
914.665;  152.356;   -9.990;  984.020
915.224;  151.566;  -12.880; 1035.760
915.782;  152.533;  -12.350;  922.560
916.341;  151.821;   -9.110; 1049.840
916.900;  147.347;   -9.270;  925.260
917.458;  145.644;  -13.240;  884.220
918.017;  145.479;  -13.550;  942.600
918.576;  144.392;  -12.320;  904.440
919.134;  142.472;  -11.490;  837.980
919.693;  141.364;  -13.670;  893.060
920.251;  139.780;  -15.470;  876.500
920.809;  138.758;  -11.290;  839.580
921.368;  138.572;  -10.210;  885.360
921.926;  138.237;  -12.140;  842.940
922.484;  136.670;  -13.080;  903.360
923.042;  135.543;  -11.720;  880.340
923.601;  138.166;   -7.480;  998.680
924.159;  136.918;  -11.570;  935.560
924.717;  134.577;  -13.840;  841.080
925.275;  133.669;  -10.640;  903.240
925.833;  133.023;  -11.540;  779.320
926.391;  134.376;  -12.960;  938.380
926.949;  132.171;  -14.130;  857.680
927.506;  132.948;  -11.750;  903.500
928.064;  133.606;  -10.250;  877.580
928.622;  133.047;  -13.030;  880.100
929.180;  131.901;  -13.400;  814.180
929.737;  133.301;  -10.700;  808.540
930.295;  136.618;  -10.070;  928.480
930.853;  137.741;  -11.960;  849.100
931.410;  138.498;  -13.120;  821.120
931.968;  137.437;  -10.770;  940.660
932.525;  137.446;  -10.680;  909.380
933.082;  139.184;  -13.130;  811.440
933.640;  139.500;  -13.210;  925.900
934.197;  137.085;  -11.060;  886.360
934.754;  138.866;   -9.580;  897.780
935.312;  140.817;  -14.000;  863.340
935.869;  146.153;  -10.710; 1012.980
936.426;  146.266;   -9.860;  872.800
936.983;  147.146;   -9.710;  889.020
937.540;  146.657;  -13.990;  838.280
938.097;  146.849;  -14.040;  940.120
938.654;  146.693;  -10.310;  898.860
939.211;  148.774;  -10.560;  952.480
939.768;  152.237;  -13.900;  915.420
940.324;  155.908;  -14.760;  904.200
940.881;  157.288;  -10.370;  878.500
941.438;  158.161;   -8.260; 1021.200
941.995;  154.423;  -12.540;  992.560
942.551;  151.347;  -14.670;  875.620
943.108;  150.642;  -10.450;  937.920
943.664;  153.337;  -10.750;  869.340
944.221;  156.257;  -11.550; 1088.140
944.777;  154.041;  -14.770;  869.680
945.334;  153.262;  -12.820;  884.840
945.890;  156.185;  -10.130;  946.480
946.446;  156.311;  -13.470;  947.020
947.003;  158.344;  -12.120;  964.940
947.559;  161.213;   -9.980; 1063.040
948.115;  160.988;   -9.080; 1026.540
948.671;  157.938;  -10.830;  967.300
949.227;  156.253;  -12.440;  859.560
949.783;  153.488;  -12.910;  858.900
950.339;  154.689;  -10.270;  991.000
950.895;  155.805;  -13.630; 1023.840
951.451;  154.415;  -15.100;  925.280
952.007;  154.474;  -11.330;  998.540
952.563;  153.485;  -10.580;  937.780
953.118;  151.234;  -13.440;  904.940
953.674;  151.734;  -12.710;  935.780
954.230;  150.769;  -10.350;  949.640
954.785;  148.761;   -9.190;  936.640
955.341;  147.519;  -11.200;  998.160
955.897;  145.734;  -16.560;  834.660
956.452;  147.832;  -12.570;  953.840
957.008;  146.747;   -7.970; 1083.640
957.563;  144.735;  -11.940; 1009.540
958.118;  139.722;  -13.450;  877.700
958.674;  138.640;  -12.030;  946.780
959.229;  140.402;   -9.410; 1013.980
959.784;  137.716;  -12.000;  832.400
960.339;  137.315;  -14.780; 1001.280
960.894;  133.742;   -9.860;  963.760
961.449;  130.386;   -9.970;  859.960
962.004;  129.816;  -10.900; 1212.840
962.559;  124.727;  -13.150;  860.140
963.114;  121.666;  -13.740;  742.480
963.669;  120.885;   -9.820;  915.500
964.224;  120.313;  -13.890;  874.340
964.779;  119.350;  -12.600;  828.420
965.334;  119.911;  -10.950; 1017.860
965.888;  118.930;  -11.170;  875.360
966.443;  121.664;  -12.540;  972.380
966.998;  122.993;  -15.780;  819.460
967.552;  120.931;   -9.760;  908.380
968.107;  117.335;   -9.060;  868.300
968.661;  118.389;  -11.950;  922.440
969.216;  118.488;  -12.800;  856.280
969.770;  118.303;  -11.210;  917.200
970.324;  118.122;  -11.610;  923.140
970.879;  114.991;  -11.370;  947.180
971.433;  112.211;  -12.540;  952.720
971.987;  107.020;  -11.320;  895.340
972.541;  103.297;  -10.720;  917.100
973.095;  103.476;   -9.680; 1009.460
973.649;  101.960;  -11.440;  809.480
974.203;  100.955;  -11.210;  829.040
974.757;  100.813;  -10.240;  855.220
975.311;  101.600;  -13.720;  872.600
975.865;  100.459;  -13.770;  881.820
976.419;   98.392;  -11.690;  857.400
976.973;   98.510;   -9.510;  849.620
977.526;  100.272;  -12.620;  949.920
978.080;   98.741;  -12.010;  796.780
978.634;  100.434;  -10.170;  921.320
979.187;   99.060;   -9.020;  905.400
979.741;   96.421;   -9.820; 1018.380
980.294;   90.877;  -14.870;  789.160
980.848;   88.740;  -12.380;  717.220
981.401;   90.751;  -10.350;  816.540
981.955;   93.218;  -13.720;  844.300
982.508;   91.997;  -11.490;  746.340
983.061;   92.477;  -10.000;  915.260
983.615;   88.500;  -11.480;  798.800
984.168;   85.654;  -13.220;  770.080
984.721;   85.064;  -13.960;  880.760
985.274;   83.417;  -10.870;  867.500
985.827;   82.714;   -9.790;  834.220
986.380;   80.680;  -13.120;  721.340
986.933;   79.945;  -12.450;  864.800
987.486;   78.022;  -10.210;  861.920
988.039;   77.032;   -8.430;  863.100
988.591;   75.319;  -10.520;  893.260
989.144;   73.040;  -14.860;  737.260
989.697;   71.873;  -13.080;  758.740
990.250;   72.119;  -10.150;  858.100
990.802;   71.812;  -13.430;  755.860
991.355;   72.370;  -12.750;  974.880
991.907;   69.666;  -12.040;  864.320
992.460;   66.963;  -11.330;  753.760
993.012;   66.770;  -13.610;  749.540
993.565;   65.604;  -13.460;  711.360
994.117;   67.675;   -9.360;  950.780
994.669;   63.639;  -11.300;  701.320
995.221;   62.052;  -13.540;  791.920
995.774;   60.274;  -13.430;  787.580
996.326;   59.271;  -12.520;  740.220
996.878;   59.061;  -10.950;  838.420
997.430;   56.123;  -14.300;  699.860
997.982;   56.160;  -13.760;  750.140
998.534;   55.340;  -11.530;  739.060
999.086;   53.622;  -10.310;  738.220
999.638;   53.000;  -12.530;  661.380
1000.190;   51.868;  -11.840;  699.320
1000.741;   51.844;  -10.260;  742.700
1001.293;   51.524;   -8.860;  686.020
1001.845;   50.239;  -13.700;  676.640
1002.396;   50.258;  -12.100;  743.400
1002.948;   49.724;  -12.760;  737.400
1003.500;   47.315;  -10.380;  723.780
1004.051;   48.809;  -11.900;  907.580
1004.603;   47.025;  -12.250;  791.820
1005.154;   43.278;  -13.210;  608.980
1005.705;   42.006;  -10.950;  723.960
1006.257;   42.108;  -13.880;  707.220
1006.808;   41.279;  -12.840;  685.460
1007.359;   41.434;  -10.570;  763.240
1007.910;   40.283;   -9.620;  646.640
1008.461;   39.514;  -13.630;  732.940
1009.013;   38.721;  -17.200;  588.340
1009.564;   40.251;  -10.200;  793.520
1010.115;   37.465;  -12.570;  597.040
1010.665;   37.523;  -15.150;  602.160
1011.216;   37.779;  -14.480;  667.920
1011.767;   36.354;  -11.340;  697.920
1012.318;   37.048;   -9.780;  736.980
1012.869;   35.802;  -12.380;  679.000
1013.419;   35.282;  -15.560;  603.120
1013.970;   35.237;  -11.010;  666.640
1014.521;   34.646;  -11.610;  620.620
1015.071;   35.638;  -13.450;  670.380
1015.622;   34.476;  -13.870;  635.460
1016.172;   34.479;  -11.610;  596.820
1016.723;   33.889;  -12.120;  614.380
1017.273;   34.035;  -13.620;  604.160
1017.823;   34.061;  -14.140;  650.340
1018.374;   33.049;  -12.800;  611.760
1018.924;   32.985;  -12.340;  716.880
1019.474;   33.000;  -11.410;  718.880
1020.024;   32.095;  -14.770;  657.580
1020.574;   32.981;   -9.780;  726.160
1021.124;   32.809;   -8.560;  673.580
1021.674;   31.962;  -15.190;  559.120
1022.224;   32.999;  -13.530;  708.940
1022.774;   32.176;  -13.280;  668.820
1023.324;   31.816;  -10.690;  753.520
1023.874;   33.631;  -10.240;  875.760
1024.423;   31.035;  -12.540;  613.700
1024.973;   30.227;  -10.010;  610.760
1025.523;   30.174;  -10.550;  620.960
1026.072;   30.399;  -13.560;  606.420
1026.622;   29.950;  -15.120;  675.740
1027.172;   30.634;  -11.260;  715.660
1027.721;   29.353;  -11.410;  601.220
1028.270;   29.675;  -13.530;  663.400
1028.820;   29.593;  -13.680;  638.080
1029.369;   29.623;  -13.520;  612.700
1029.918;   29.158;  -10.980;  649.840
1030.468;   28.548;  -13.530;  564.780
1031.017;   29.238;  -13.170;  634.800
1031.566;   28.081;  -12.200;  608.900
1032.115;   27.730;   -9.960;  694.500
1032.664;   27.342;  -13.210;  596.480
1033.213;   28.535;  -12.500;  735.420
1033.762;   27.641;  -11.910;  635.620
1034.311;   27.454;   -9.640;  677.220
1034.860;   28.149;  -13.310;  691.000
1035.408;   28.098;  -11.830;  722.720
1035.957;   27.974;  -12.000;  719.540
1036.506;   25.707;  -11.690;  530.800
1037.055;   28.181;  -10.990;  844.320
1037.603;   27.019;  -15.120;  664.000
1038.152;   25.756;  -12.450;  534.760
1038.700;   25.253;  -10.560;  585.740
1039.249;   25.170;  -11.080;  681.220
1039.797;   26.134;  -12.540;  633.360
1040.345;   25.529;  -11.920;  705.420
1040.894;   24.725;  -11.410;  625.300
1041.442;   24.764;  -14.320;  632.200
1041.990;   24.661;  -16.240;  559.160
1042.538;   24.217;  -11.680;  536.180
1043.087;   23.959;  -10.760;  570.860
1043.635;   24.723;  -11.850;  670.500
1044.183;   23.944;  -15.480;  586.400
1044.731;   23.492;  -11.770;  576.000
1045.279;   22.458;  -13.090;  674.920
1045.827;   25.249;  -12.440;  892.400
1046.374;   23.340;  -13.840;  515.420
1046.922;   22.266;  -13.220;  590.580
1047.470;   23.383;  -10.230;  691.300
1048.018;   23.516;  -14.590;  647.960
1048.565;   24.080;  -12.050;  708.600
1049.113;   22.411;  -11.650;  557.000
1049.660;   22.529;  -10.510;  629.660
1050.208;   22.389;  -13.310;  675.640
1050.755;   22.374;  -15.900;  606.580
1051.303;   22.629;  -11.430;  686.820
1051.850;   20.862;   -8.480;  635.120
1052.397;   19.702;  -15.010;  473.960
1052.945;   20.769;  -13.960;  617.760
1053.492;   22.676;  -13.150;  741.840
1054.039;   22.238;   -9.630;  720.180
1054.586;   21.378;  -13.680;  557.240
1055.133;   21.965;  -14.570;  693.140
1055.680;   20.754;  -13.820;  646.620
1056.227;   20.097;  -11.730;  542.780
1056.774;   21.445;  -12.480;  794.980
1057.321;   20.313;  -13.930;  523.260
1057.868;   19.743;  -11.690;  651.320
1058.415;   20.208;   -9.520;  651.980
1058.961;   20.562;  -13.160;  678.940
1059.508;   20.068;  -12.920;  643.820
1060.055;   19.568;  -11.920;  581.780
1060.601;   20.082;  -11.500;  624.300
1061.148;   19.666;  -14.330;  616.820
1061.694;   18.941;  -16.870;  592.580
1062.241;   19.185;  -10.330;  596.320
1062.787;   18.675;  -10.620;  663.140
1063.334;   20.830;  -10.110;  808.560
1063.880;   19.019;  -13.400;  668.360
1064.426;   19.228;  -10.680;  706.820
1064.972;   17.932;   -9.920;  601.340
1065.518;   17.704;  -10.980;  566.640
1066.065;   19.022;  -14.890;  624.460
1066.611;   17.465;  -12.870;  598.800
1067.157;   18.293;  -12.950;  641.860
1067.703;   18.050;  -13.540;  668.480
1068.249;   17.899;  -13.540;  605.220
1068.794;   17.320;  -12.600;  626.880
1069.340;   16.389;  -10.620;  578.960
1069.886;   16.888;  -12.830;  590.700
1070.432;   16.569;  -14.870;  541.720
1070.977;   16.231;  -11.980;  601.080
1071.523;   16.429;   -8.200;  573.060
1072.068;   16.826;  -12.330;  582.000
1072.614;   16.446;  -16.370;  527.760
1073.160;   17.198;  -11.100;  687.040
1073.705;   15.739;  -10.480;  572.520
1074.250;   15.903;  -14.520;  559.900
1074.796;   17.529;  -11.460;  655.160
1075.341;   16.373;  -11.950;  664.100
1075.886;   16.132;  -11.460;  594.240
1076.431;   15.335;  -13.770;  649.880
1076.976;   15.034;  -12.680;  639.220
1077.521;   14.911;  -13.170;  583.080
1078.067;   14.414;  -10.860;  579.400
1078.612;   15.757;  -13.920;  661.620
1079.156;   15.029;  -13.880;  601.540
1079.701;   15.156;  -13.120;  693.260
1080.246;   15.340;   -9.940;  696.300
1080.791;   14.839;  -14.740;  625.020
1081.336;   15.213;  -13.750;  659.320
1081.880;   15.145;  -13.400;  649.680
1082.425;   13.443;  -12.220;  573.480
1082.970;   15.432;  -11.610;  717.040
1083.514;   14.103;  -13.580;  597.000
1084.059;   12.963;  -12.810;  586.720
1084.603;   13.241;  -12.320;  565.840
1085.147;   14.323;  -13.190;  645.220
1085.692;   14.427;  -12.480;  716.800
1086.236;   13.139;  -13.020;  503.140
1086.780;   14.415;   -9.190;  751.440
1087.325;   13.992;  -12.480;  654.620
1087.869;   13.561;  -12.450;  610.700
1088.413;   13.390;  -12.240;  705.040
1088.957;   11.793;   -9.020;  543.400
1089.501;   13.903;  -10.320;  766.640
1090.045;   13.105;  -12.720;  726.480
1090.589;   11.087;  -13.690;  569.920
1091.133;   12.646;  -10.020;  673.340
1091.676;   12.944;  -12.330;  591.940
1092.220;   12.133;  -14.970;  600.920
1092.764;   13.474;  -12.430;  706.960
1093.307;   12.921;   -9.800;  673.780
1093.851;   11.305;  -14.970;  556.540
1094.395;   12.464;  -15.310;  683.140
1094.938;   11.339;  -10.370;  632.520
1095.482;   11.080;  -11.050;  559.800
1096.025;   12.260;  -11.840;  710.880
1096.568;   12.955;  -12.840;  779.280
1097.112;    9.672;  -14.700;  508.180
1097.655;   11.670;   -8.720;  603.000
1098.198;    9.876;  -13.610;  600.180
1098.741;   10.446;  -13.350;  612.860
1099.285;   11.833;  -11.230;  657.300
1099.828;    9.272;  -11.840;  439.400
1100.371;   10.009;  -10.840;  608.160
1100.914;   10.531;  -14.190;  682.660
1101.457;   10.082;  -11.240;  679.900
1101.999;    9.131;  -11.270;  584.680
1102.542;   10.170;  -11.480;  641.440
1103.085;    9.517;  -11.750;  658.500
1103.628;   10.783;  -11.400;  762.060
1104.170;    9.770;  -10.490;  588.280
1104.713;   10.114;  -10.600;  646.700
1105.256;    9.143;  -14.360;  557.440
1105.798;    8.030;  -13.210;  499.980
1106.341;   10.924;  -10.270;  728.900
1106.883;    9.108;  -12.200;  521.340
1107.425;    9.091;  -13.110;  668.180
1107.968;    8.828;  -12.840;  612.380
1108.510;    8.740;   -6.480;  684.960
1109.052;    7.750;  -13.940;  612.620
1109.594;    8.422;  -13.690;  554.440
1110.136;    9.233;  -11.880;  643.220
1110.679;    7.508;   -9.500;  633.080
1111.221;    9.127;  -14.160;  604.460
1111.763;    8.162;  -13.980;  559.220
1112.304;    7.235;  -13.880;  547.140
1112.846;    8.404;  -12.210;  666.240
1113.388;   10.740;  -11.390;  942.180
1113.930;    8.644;  -14.540;  694.200
1114.472;    7.013;  -12.640;  606.540
1115.013;    6.263;  -11.620;  551.280
1115.555;    6.570;  -13.640;  587.100
1116.097;    6.714;  -15.380;  579.480
1116.638;    7.545;  -12.640;  684.600
1117.180;    7.710;   -9.850;  667.740
1117.721;    7.046;  -13.690;  568.580
1118.262;    7.804;  -12.680;  677.960
1118.804;    7.841;  -12.530;  637.340
1119.345;    6.377;  -11.690;  578.400
1119.886;    7.382;  -13.380;  704.040
1120.427;    6.038;  -14.070;  589.020
1120.969;    5.389;  -13.500;  597.920
1121.510;    5.446;  -11.480;  563.060
1122.051;    6.699;  -12.830;  723.580
1122.592;    6.098;  -14.290;  655.420
1123.133;    5.231;  -12.400;  547.940
1123.673;    7.015;  -10.130;  706.480
1124.214;    5.855;  -12.930;  612.460
1124.755;    6.973;  -14.380;  639.460
1125.296;    5.820;  -14.000;  627.320
1125.836;    5.875;  -10.070;  691.500
1126.377;    5.299;  -12.640;  599.660
1126.918;    6.453;  -12.960;  614.980
1127.458;    4.256;  -13.350;  622.220
1127.999;    4.745;  -10.750;  656.980
1128.539;    5.566;  -12.350;  694.240
1129.079;    4.916;  -14.860;  632.720
1129.620;    3.184;  -13.840;  558.100
1130.160;    3.951;  -12.330;  539.480
1130.700;    5.427;  -14.530;  640.840
1131.240;    5.759;  -12.530;  643.700
1131.781;    3.940;  -14.450;  619.680
1132.321;    4.683;   -9.790;  599.120
1132.861;    3.638;  -14.860;  564.200
1133.401;    3.676;  -14.290;  593.940
1133.941;    4.651;  -11.750;  626.280
1134.481;    3.581;   -9.920;  597.580
1135.020;    3.809;  -12.290;  609.160
1135.560;    4.234;  -11.650;  674.940
1136.100;    3.505;  -16.270;  501.160
1136.640;    3.112;  -10.890;  510.480
1137.179;    2.977;  -14.180;  537.960
1137.719;    3.630;  -16.250;  605.400
1138.258;    4.060;  -14.230;  587.360
1138.798;    3.587;   -9.090;  663.780
1139.337;    2.075;  -15.130;  482.840
1139.877;    3.468;  -13.680;  642.360
1140.416;    5.699;  -11.320;  878.060
1140.955;    2.732;  -10.860;  535.380
1141.494;    3.361;  -12.920;  669.280
1142.034;    2.841;  -13.930;  583.520
1142.573;    3.987;  -11.440;  646.280
1143.112;    2.499;  -12.000;  553.480
1143.651;    2.705;  -13.670;  536.480
1144.190;    3.622;  -12.730;  691.640
1144.729;    2.771;  -14.560;  607.420
1145.267;    1.944;  -11.830;  584.900
1145.806;    3.416;  -12.230;  637.040
1146.345;    2.271;  -14.130;  635.020
1146.884;    1.883;  -11.590;  622.500
1147.422;    1.069;  -12.550;  533.060
1147.961;    3.708;  -11.180;  708.460
1148.500;    2.689;  -11.510;  669.720
1149.038;    3.229;  -11.640;  632.500
1149.577;    2.181;  -10.130;  698.640
1150.115;    0.368;  -13.970;  452.280
1150.653;    2.110;  -14.520;  607.340
1151.192;    2.081;  -12.810;  552.920
1151.730;    1.078;   -9.100;  652.560
1152.268;    1.436;  -12.220;  589.520
1152.806;    1.495;  -14.140;  571.180
1153.344;    0.463;  -12.350;  577.640
1153.882;    1.598;   -8.980;  600.060
1154.421;   -0.235;  -15.190;  470.620
1154.958;    0.950;  -15.210;  595.240
1155.496;    2.120;  -12.850;  645.280
1156.034;    1.095;   -9.940;  721.880
1156.572;    1.910;  -13.570;  667.060
1157.110;    0.889;  -14.590;  473.940
1157.647;    1.024;  -13.030;  676.960
1158.185;    0.390;  -12.140;  564.320
1158.723;   -0.215;  -14.390;  509.200
1159.260;    0.729;  -14.090;  701.700
1159.798;    1.431;  -11.920;  658.160
1160.335;   -0.158;  -11.110;  631.820

