
Integration time [ms]:   3.276
Averaging Nr. [scans]: 1000
Smoothing Nr. [pixels]: 0
Data measured with spectrometer [name]: 7414430SP
Wave   ;Sample   ;Dark     ;Reference
[nm]   ;[counts] ;[counts] ;[counts] 

288.544;  158.275;    7.793;  793.890
289.143;  160.284;    7.462;  681.602
289.742;  162.687;    8.602;  828.814
290.341;  150.662;    1.321;  789.841
290.940;  139.291;   -0.709;  730.702
291.538;  140.376;    0.881;  881.108
292.137;  140.459;    0.122;  792.581
292.736;  143.364;   -1.929;  975.101
293.335;  138.824;   -8.229;  735.086
293.934;  141.068;   -5.279;  781.677
294.532;  141.351;   -1.369; 1031.958
295.131;  128.658;   -7.641;  834.394
295.730;  128.002;   -8.420;  809.588
296.328;  122.679;   -5.611;  783.442
296.927;  124.154;   -5.781;  779.652
297.525;  126.722;   -6.361;  781.236
298.124;  117.342;  -11.382;  654.009
298.722;  121.080;   -7.641;  761.933
299.321;  118.163;   -6.811;  708.597
299.919;  114.538;   -6.991;  751.918
300.518;  110.955;  -10.362;  689.338
301.116;  113.692;   -9.581;  691.381
301.715;  114.757;   -4.891;  730.222
302.313;  113.457;   -8.801;  704.943
302.911;  107.322;   -8.522;  733.830
303.509;  112.073;   -6.171;  925.627
304.108;  110.447;   -7.311;  760.383
304.706;  111.344;   -8.321;  801.664
305.304;  104.209;  -10.222;  796.707
305.902;  109.235;   -6.021;  784.484
306.500;  104.446;   -4.971;  728.200
307.098;  104.185;   -7.061;  746.560
307.696;  102.337;   -8.801;  780.432
308.294;  101.198;   -6.411;  731.359
308.892;  104.303;   -2.901;  759.769
309.490;  100.873;   -5.041;  712.161
310.088;   97.861;   -5.002;  788.444
310.686;  101.173;   -2.041;  821.749
311.284;   97.994;   -2.351;  766.040
311.882;   96.199;   -4.422;  731.225
312.480;   92.155;   -4.192;  697.167
313.078;   93.183;   -1.172;  808.331
313.675;   95.022;   -2.601;  691.600
314.273;   90.448;   -1.312;  797.837
314.871;   88.966;   -3.942;  589.829
315.468;   85.751;   -2.802;  652.090
316.066;   89.767;   -0.701;  694.427
316.664;   83.093;   -4.362;  656.351
317.261;   87.120;   -2.872;  910.128
317.859;   81.206;   -2.022;  768.735
318.456;   82.644;   -0.531;  830.096
319.054;   78.612;   -3.912;  787.828
319.651;   76.856;   -4.752;  759.928
320.249;   75.485;   -2.602;  810.188
320.846;   73.741;   -0.821;  714.286
321.443;   72.234;   -4.642;  832.135
322.041;   68.238;   -5.002;  812.315
322.638;   65.330;   -3.982;  701.456
323.235;   66.340;   -3.411;  665.683
323.833;   64.570;   -7.361;  740.354
324.430;   57.831;   -8.611;  615.900
325.027;   59.467;   -4.061;  876.855
325.624;   59.667;   -4.031;  644.532
326.221;   57.365;   -7.481;  689.717
326.818;   56.111;   -5.281;  818.332
327.415;   58.453;   -7.460;  748.828
328.012;   57.865;   -5.510;  690.585
328.609;   57.623;   -7.880;  731.389
329.206;   55.482;   -8.331;  778.621
329.803;   54.865;   -5.121;  737.841
330.400;   57.798;   -4.510;  704.260
330.997;   58.285;   -6.441;  817.147
331.594;   55.959;   -8.831;  788.185
332.191;   61.981;   -7.621;  728.722
332.787;   66.135;   -4.591;  844.463
333.384;   66.828;   -7.412;  763.093
333.981;   65.285;   -8.293;  815.687
334.578;   67.666;   -7.052;  708.378
335.174;   70.258;   -3.102;  731.469
335.771;   69.517;   -5.943;  836.456
336.367;   66.082;   -7.393;  710.631
336.964;   71.764;   -4.063;  793.266
337.561;   67.820;   -3.813;  731.112
338.157;   65.588;   -4.654;  911.916
338.754;   62.914;   -7.934;  796.589
339.350;   61.380;   -4.414;  722.493
339.946;   63.360;   -4.664;  773.135
340.543;   56.104;   -6.375;  846.136
341.139;   48.676;   -9.815;  720.836
341.735;   46.107;   -4.526;  772.593
342.332;   44.865;   -4.895;  691.472
342.928;   46.137;   -4.295;  795.394
343.524;   38.050;   -5.476;  761.684
344.120;   34.160;   -5.856;  738.562
344.716;   38.103;   -2.155;  723.717
345.313;   35.626;   -6.275;  795.342
345.909;   30.183;   -8.815;  627.336
346.505;   30.701;   -5.305;  740.247
347.101;   32.275;   -2.674;  827.864
347.697;   32.481;   -4.344;  785.398
348.293;   26.882;   -9.975;  627.244
348.889;   27.467;   -5.774;  745.914
349.485;   27.555;   -5.004;  688.205
350.081;   28.405;   -4.704;  772.592
350.676;   22.403;   -6.635;  691.606
351.272;   27.450;   -4.504;  809.530
351.868;   26.626;   -3.914;  780.497
352.464;   24.289;   -9.044;  723.932
353.059;   19.947;   -8.314;  646.017
353.655;   23.105;   -7.024;  777.063
354.251;   24.706;   -5.343;  759.845
354.846;   19.178;   -8.604;  740.646
355.442;   16.436;   -6.945;  753.071
356.038;   17.811;   -7.564;  751.708
356.633;   18.764;   -5.814;  728.594
357.229;   16.687;   -7.364;  724.757
357.824;   14.505;   -8.024;  703.600
358.420;   12.746;   -9.384;  679.726
359.015;   14.240;   -5.104;  695.357
359.610;   15.176;   -6.854;  763.920
360.206;    8.456;  -10.185;  603.240
360.801;   11.212;   -7.054;  646.503
361.396;   13.769;   -5.034;  725.975
361.992;   10.054;   -8.284;  668.220
362.587;    6.965;   -8.625;  670.160
363.182;    7.784;   -7.674;  689.631
363.777;    9.454;   -5.164;  738.242
364.372;    9.329;   -8.604;  737.314
364.967;    5.133;   -9.055;  680.744
365.563;    8.953;   -6.114;  815.567
366.158;    6.857;   -5.814;  685.161
366.753;    8.111;   -7.854;  649.263
367.348;    5.211;   -7.804;  746.056
367.942;    4.514;   -7.954;  697.298
368.537;    3.440;   -4.984;  754.245
369.132;    4.416;   -8.564;  703.428
369.727;   -0.372;   -8.855;  638.079
370.322;    1.758;   -6.245;  580.186
370.917;    1.484;   -6.425;  710.646
371.511;    5.125;   -6.294;  861.834
372.106;    0.396;   -7.685;  776.964
372.701;   -3.031;   -7.335;  585.988
373.296;    3.199;   -4.564;  863.135
373.890;   -1.618;  -10.235;  647.840
374.485;   -4.785;   -7.885;  691.199
375.079;   -1.140;   -7.324;  738.685
375.674;    0.863;   -3.494;  812.970
376.268;   -2.396;   -8.525;  691.759
376.863;   -8.856;  -10.086;  580.327
377.457;   -3.642;   -7.025;  662.490
378.052;   -4.728;   -3.585;  764.884
378.646;   -4.884;   -7.595;  741.167
379.240;   -6.562;   -8.335;  721.176
379.835;   -6.248;   -5.785;  636.978
380.429;   -7.491;   -4.335;  562.557
381.023;   -6.655;   -6.805;  779.205
381.617;  -10.080;   -9.195;  680.106
382.212;   -7.415;   -6.905;  685.303
382.806;   -5.096;   -3.745;  760.690
383.400;   -8.468;   -7.745;  672.281
383.994;  -10.813;   -9.765;  664.870
384.588;   -7.112;   -6.564;  697.701
385.182;   -6.063;   -5.344;  726.624
385.776;   -6.790;   -8.514;  706.875
386.370;  -10.802;   -9.555;  681.968
386.964;  -10.096;   -8.715;  684.155
387.558;   -7.530;   -6.174;  598.360
388.152;  -10.618;   -8.725;  681.959
388.745;   -9.441;   -7.965;  814.707
389.339;   -8.444;   -5.924;  747.642
389.933;   -6.963;   -5.524;  695.370
390.527;   -7.741;   -7.114;  859.029
391.120;  -13.416;  -10.725;  595.318
391.714;  -11.986;   -8.035;  711.633
392.308;   -8.987;   -3.574;  780.253
392.901;  -11.243;   -7.245;  642.460
393.495;  -14.539;   -9.285;  595.414
394.089;  -12.572;   -5.895;  760.452
394.682;  -12.586;   -4.295;  697.188
395.275;  -13.109;   -9.875;  719.927
395.869;  -14.043;   -8.485;  667.314
396.462;  -13.318;   -7.455;  616.609
397.056;   -8.338;   -5.424;  776.621
397.649;  -12.528;   -6.605;  731.575
398.242;  -10.937;   -8.224;  712.645
398.836;  -11.668;   -7.474;  766.408
399.429;  -10.418;   -7.094;  631.041
400.022;  -14.551;   -9.475;  665.902
400.615;  -12.344;   -7.145;  805.609
401.208;  -10.957;   -7.174;  691.451
401.802;  -12.708;   -5.515;  699.329
402.395;  -13.262;   -9.875;  683.502
402.988;  -15.299;   -8.845;  696.627
403.581;  -11.401;   -8.874;  646.878
404.174;   -8.894;   -5.324;  686.568
404.767;  -11.652;   -9.575;  638.583
405.360;  -15.292;  -10.965;  621.445
405.953;  -10.027;   -8.764;  759.034
406.545;   -9.062;   -7.514;  725.342
407.138;  -12.951;  -10.025;  618.350
407.731;  -12.305;  -10.034;  613.303
408.324;   -7.817;   -9.374;  660.554
408.917;   -8.784;   -6.534;  681.864
409.509;   -9.630;   -8.004;  740.396
410.102;  -12.700;   -9.875;  643.948
410.695;   -7.225;   -8.604;  665.758
411.287;   -7.661;   -6.794;  599.821
411.880;   -8.445;   -9.334;  585.421
412.472;  -11.919;  -10.254;  613.092
413.065;   -9.530;   -6.714;  629.408
413.657;   -6.491;   -7.234;  576.678
414.250;   -6.586;  -10.544;  646.681
414.842;   -8.416;   -9.744;  676.353
415.434;   -7.291;   -6.994;  570.463
416.027;   -2.786;   -5.893;  652.196
416.619;   -4.086;   -7.264;  713.400
417.211;   -5.049;  -10.374;  599.352
417.804;   -2.165;   -7.993;  628.499
418.396;   -4.826;   -7.234;  607.643
418.988;   -2.611;   -9.443;  659.238
419.580;   -6.769;  -10.724;  568.276
420.172;   -5.041;  -10.323;  536.196
420.764;    0.371;   -8.793;  672.482
421.356;    0.060;  -11.143;  636.898
421.948;   -2.519;   -8.293;  677.661
422.540;    2.119;   -7.893;  680.027
423.132;    2.497;   -7.082;  600.641
423.724;   -0.844;   -8.653;  561.267
424.316;    1.570;  -10.213;  621.345
424.908;    3.464;   -9.762;  591.517
425.500;    4.542;   -5.572;  647.978
426.092;    6.155;   -8.422;  648.268
426.683;    4.510;   -9.283;  684.836
427.275;    6.600;   -7.852;  641.471
427.867;    9.132;   -5.272;  668.948
428.458;    9.582;   -7.682;  732.344
429.050;    7.433;  -10.612;  680.749
429.642;    9.270;   -9.882;  743.124
430.233;   10.957;   -6.962;  569.356
430.825;   12.778;   -6.842;  724.809
431.416;    9.189;   -9.672;  698.241
432.008;   11.609;   -6.552;  651.723
432.599;   13.794;   -6.891;  656.073
433.190;   11.402;  -10.912;  637.670
433.782;    9.809;  -11.172;  590.395
434.373;   16.692;   -6.061;  884.765
434.964;   16.310;   -8.251;  602.920
435.556;   13.876;   -9.722;  634.537
436.147;   16.342;   -9.082;  758.490
436.738;   16.135;   -8.041;  701.099
437.329;   22.050;   -7.341;  721.723
437.920;   15.567;   -8.162;  666.688
438.511;   14.522;  -11.802;  564.526
439.103;   20.433;  -10.191;  623.998
439.694;   23.565;   -7.601;  681.583
440.285;   24.260;   -8.541;  764.432
440.876;   21.749;   -9.751;  845.738
441.466;   20.544;   -9.401;  575.162
442.057;   26.415;   -7.760;  665.814
442.648;   26.078;   -9.971;  746.255
443.239;   23.252;  -11.001;  620.477
443.830;   28.718;   -7.990;  704.958
444.421;   30.108;   -7.910;  655.474
445.011;   27.829;   -8.131;  693.619
445.602;   26.595;   -7.111;  743.126
446.193;   27.834;  -10.920;  488.117
446.783;   32.395;   -6.500;  640.397
447.374;   28.622;   -8.671;  692.759
447.964;   28.966;  -10.781;  713.770
448.555;   37.043;   -9.650;  822.742
449.145;   33.892;   -8.660;  662.853
449.736;   35.363;   -8.990;  803.179
450.326;   35.163;   -9.500;  713.626
450.917;   39.379;   -8.680;  675.324
451.507;   39.156;   -7.520;  600.661
452.097;   40.611;   -8.590;  746.267
452.688;   40.289;  -11.340;  742.160
453.278;   40.111;  -10.100;  566.840
453.868;   45.006;   -6.019;  793.550
454.458;   43.135;   -9.440;  651.141
455.048;   43.271;  -10.560;  711.783
455.639;   44.018;  -11.799;  567.096
456.229;   48.142;   -6.899;  710.694
456.819;   50.539;   -7.389;  751.158
457.409;   50.471;  -11.119;  773.993
457.999;   52.571;   -9.289;  737.505
458.589;   53.307;   -6.139;  686.606
459.179;   53.645;   -8.729;  717.658
459.769;   50.965;   -9.789;  627.099
460.358;   55.195;  -10.259;  797.262
460.948;   56.090;   -7.299;  689.503
461.538;   57.949;  -10.289;  660.677
462.128;   55.098;  -11.269;  664.934
462.717;   61.984;   -9.368;  710.326
463.307;   64.353;   -7.908;  705.846
463.897;   61.958;   -9.599;  656.942
464.486;   60.261;   -9.769;  837.128
465.076;   64.335;   -8.048;  733.776
465.666;   68.681;   -9.358;  652.900
466.255;   66.123;   -7.919;  785.651
466.845;   65.424;  -11.689;  666.749
467.434;   67.333;   -7.818;  725.873
468.023;   68.781;   -7.678;  658.357
468.613;   67.377;  -10.939;  713.946
469.202;   71.340;  -10.118;  646.507
469.791;   75.604;   -9.108;  737.811
470.381;   78.057;   -6.058;  742.813
470.970;   77.138;  -10.428;  711.099
471.559;   76.767;  -10.268;  733.291
472.148;   79.636;   -8.448;  675.737
472.738;   82.996;   -6.917;  765.466
473.327;   83.122;  -11.978;  637.529
473.916;   82.146;  -11.888;  737.446
474.505;   85.064;   -9.437;  751.703
475.094;   88.342;   -6.747;  806.570
475.683;   88.814;   -9.367;  797.699
476.272;   89.805;  -12.637;  730.632
476.861;   91.942;  -10.027;  706.754
477.449;   98.110;   -8.716;  728.487
478.038;   94.150;   -9.577;  692.513
478.627;   93.828;   -9.718;  714.852
479.216;  100.138;   -8.947;  769.441
479.805;  103.144;   -6.256;  783.375
480.393;  104.159;   -7.937; 1008.945
480.982;  103.776;   -7.717;  874.501
481.571;  109.112;   -9.266;  858.333
482.159;  110.160;   -7.636;  705.386
482.748;  110.874;   -9.667;  821.385
483.336;  114.943;  -10.376;  858.209
483.925;  115.149;   -7.147;  774.373
484.513;  122.374;   -7.996;  758.962
485.102;  119.688;  -10.027;  810.965
485.690;  128.032;  -10.446; 1011.050
486.278;  129.170;   -8.446;  979.329
486.867;  130.260;   -6.356;  809.662
487.455;  133.285;   -9.136;  898.229
488.043;  133.955;  -10.646;  748.361
488.631;  142.467;   -7.456; 1005.079
489.220;  146.412;   -6.636;  908.626
489.808;  146.708;  -11.036;  741.415
490.396;  155.331;  -10.246;  914.645
490.984;  162.904;   -8.556;  830.161
491.572;  172.937;   -5.886;  940.315
492.160;  181.133;   -9.486;  919.081
492.748;  194.807;  -10.976;  884.341
493.336;  217.457;   -8.776; 1019.693
493.924;  246.765;   -5.465;  958.077
494.512;  279.667;   -9.986; 1066.638
495.100;  328.528;  -10.636; 1103.280
495.687;  389.616;  -10.885; 1206.373
496.275;  445.340;   -8.126; 1150.796
496.863;  514.385;  -10.586; 1281.171
497.451;  631.432;  -11.926; 1386.805
498.038;  741.784;  -10.885; 1556.729
498.626;  842.050;   -6.315; 1741.407
499.214; 1000.379;   -7.326; 2016.609
499.801; 1221.545;  -11.906; 2220.633
500.389; 1476.663;  -10.466; 2312.494
500.976; 1720.178;   -5.236; 2744.849
501.564; 2142.659;   -8.936; 3148.565
502.151; 2633.865;  -13.176; 3515.999
502.738; 3155.343;  -10.646; 3971.274
503.326; 3543.245;   -9.525; 4403.796
503.913; 3822.065;  -10.856; 5161.749
504.500; 4304.289;  -11.586; 5986.420
505.088; 4653.812;  -10.336; 6381.201
505.675; 5128.800;   -6.355; 6925.547
506.262; 5603.423;   -9.046; 7619.060
506.849; 6065.925;  -10.416; 8733.969
507.436; 6503.386;  -10.305; 9790.121
508.023; 6967.861;   -5.496; 9985.472
508.610; 7882.677;   -7.856;10434.618
509.197; 9306.199;  -10.097;11198.435
509.784;10780.578;  -10.886;12391.194
510.371;12122.199;   -9.315;13603.713
510.958;12916.176;   -9.936;14426.586
511.545;13519.958;   -9.326;15243.775
512.132;14222.750;  -10.075;15945.876
512.719;14409.393;   -7.796;16340.369
513.305;15211.630;  -10.606;18011.766
513.892;16560.299;  -11.486;19754.971
514.479;18414.828;   -9.126;20967.805
515.066;20086.797;   -6.026;22299.793
515.652;20444.264;   -8.466;22908.660
516.239;21405.799;  -10.886;23798.875
516.825;23433.348;  -11.496;25567.275
517.412;25342.928;   -5.796;28154.959
517.998;27172.270;  -10.506;28344.111
518.585;26867.719;  -10.076;27134.219
519.171;25503.244;   -8.315;27268.576
519.758;26058.367;   -8.596;28964.129
520.344;27099.881;   -8.466;30664.494
520.930;29600.930;  -11.006;32550.605
521.516;29839.578;  -10.495;35422.895
522.103;28395.713;   -5.526;38280.004
522.689;28580.900;   -8.746;37835.117
523.275;29656.430;  -11.376;37288.613
523.861;30098.096;  -11.156;37281.395
524.447;30577.744;   -8.135;37846.949
525.033;30373.564;   -7.896;38321.949
525.619;32470.889;  -12.476;38579.285
526.205;35975.715;   -9.516;40622.875
526.791;37461.691;   -6.926;42258.836
527.377;39453.340;   -8.346;42966.902
527.963;41374.496;   -8.717;42018.949
528.549;40265.410;  -11.016;42476.828
529.135;40434.840;   -8.536;41854.852
529.721;39815.254;   -9.666;41237.711
530.306;37937.535;  -10.066;41259.445
530.892;38233.441;  -11.356;41506.047
531.478;37656.172;   -6.596;43559.613
532.063;38004.328;   -8.836;47695.563
532.649;41565.914;  -10.047;50808.324
533.235;43031.793;   -9.746;51787.500
533.820;42003.734;   -6.566;52145.035
534.406;40905.719;  -10.817;51133.488
534.991;43883.750;   -9.416;49996.805
535.576;45349.594;   -9.036;48882.852
536.162;45595.176;   -6.156;46942.285
536.747;46328.070;  -11.607;45711.746
537.333;46522.758;  -11.787;48510.180
537.918;45971.957;  -12.437;50439.891
538.503;46464.055;   -7.196;50863.711
539.088;44232.066;  -10.556;50906.922
539.673;42486.059;   -8.767;52621.965
540.259;43064.047;  -10.026;52368.094
540.844;43651.957;   -7.416;50879.109
541.429;40135.480;   -9.467;52077.777
542.014;36944.063;   -9.527;52716.695
542.599;37472.543;   -9.946;52363.281
543.184;42047.734;   -7.927;53187.137
543.769;45506.176;   -9.297;54697.605
544.354;45867.121;  -10.127;53913.914
544.938;45393.988;   -9.267;49680.164
545.523;48006.172;   -6.506;47386.277
546.108;52098.129;   -9.787;49151.949
546.693;51710.000;  -11.587;51384.637
547.278;51449.266;  -10.986;51853.254
547.862;47695.570;   -8.206;51173.750
548.447;44861.738;  -10.067;51691.395
549.031;45849.918;   -9.637;52456.703
549.616;47141.383;   -9.926;52714.516
550.201;45899.488;   -6.347;52414.598
550.785;44539.930;   -7.917;52355.059
551.370;45015.223;  -10.867;54589.453
551.954;46095.355;   -9.047;58267.348
552.538;48018.078;   -7.827;59062.176
553.123;48044.688;  -10.287;58115.285
553.707;43532.305;  -12.178;56556.285
554.291;44163.082;   -8.717;56201.668
554.876;47417.051;   -7.457;55335.762
555.460;48351.453;  -10.387;54155.703
556.044;48958.672;   -9.618;53721.484
556.628;48204.484;  -11.567;53731.016
557.212;46225.047;   -8.097;54312.531
557.796;47195.551;  -11.077;53797.773
558.380;45261.875;  -11.108;56145.984
558.964;44098.824;   -9.057;57277.930
559.548;44281.672;   -6.977;56459.641
560.132;43466.441;  -11.457;54434.543
560.716;41945.316;  -11.378;54800.617
561.300;42768.617;   -9.577;57606.945
561.884;44900.965;   -7.127;58972.445
562.467;46071.781;   -7.118;57327.570
563.051;46227.496;  -13.358;54962.434
563.635;43999.473;  -10.178;52594.473
564.219;43235.961;   -7.837;50610.410
564.802;42611.230;  -11.398;49551.180
565.386;43600.801;  -12.788;48370.953
565.969;44149.855;   -9.077;48178.871
566.553;44277.418;   -6.207;49957.305
567.136;41868.422;   -8.568;50369.594
567.720;40901.453;  -11.868;49492.004
568.303;40944.789;   -8.268;50616.352
568.887;39600.730;   -8.698;50727.148
569.470;39470.367;   -6.808;51698.379
570.053;38136.691;  -13.188;52122.078
570.637;36794.793;  -12.037;52536.438
571.220;36402.270;   -8.577;51186.098
571.803;37107.262;   -8.498;51032.762
572.386;39409.328;  -10.498;49609.887
572.969;40968.680;   -9.388;48285.926
573.552;37399.613;   -8.338;47624.285
574.135;35588.973;   -8.518;45498.641
574.718;32366.838;  -13.628;41970.434
575.301;31668.082;  -10.893;41447.137
575.884;30969.326;   -8.158;40923.836
576.467;35514.020;  -10.328;45267.723
577.050;34107.977;  -13.058;48175.543
577.633;32964.836;   -9.458;47729.328
578.216;34294.293;   -8.928;47579.793
578.799;35419.035;   -9.358;47820.996
579.381;34939.762;  -11.388;48115.551
579.964;32218.789;  -11.718;47333.766
580.547;32335.949;   -8.588;46668.969
581.129;33911.492;   -8.859;44466.141
581.712;34253.156;  -10.729;44164.922
582.294;35756.613;  -11.118;46477.855
582.877;33536.559;   -5.218;48244.254
583.459;33652.574;   -8.679;47437.895
584.042;35630.613;  -10.709;46943.219
584.624;37966.563;  -11.669;46792.227
585.206;36806.180;   -8.218;46557.250
585.789;35170.258;  -10.569;45793.773
586.371;35254.953;  -11.859;43836.391
586.953;33887.730;  -10.719;42972.492
587.536;35468.844;   -7.198;42487.211
588.118;36747.297;   -8.720;42086.414
588.700;36190.309;  -10.439;43389.930
589.282;36103.438;   -9.198;43646.039
589.864;35169.629;   -9.199;43438.109
590.446;32930.828;  -11.319;43151.926
591.028;32434.826;  -11.159;42781.867
591.610;32295.742;  -11.779;42839.098
592.192;29196.895;   -7.668;42820.402
592.774;30017.348;  -11.949;40724.277
593.356;31185.957;  -12.129;39874.789
593.937;29647.629;  -10.669;39980.648
594.519;31012.619;   -6.509;42069.633
595.101;32878.156;  -10.849;42976.031
595.683;31613.592;  -11.679;44084.441
596.264;30834.947;   -9.049;43478.797
596.846;32747.498;   -8.849;43803.672
597.427;33101.551;   -9.570;42986.934
598.009;34026.355;  -12.620;42832.219
598.591;33396.184;  -10.039;42580.086
599.172;32555.797;  -10.369;43061.805
599.753;31033.924;   -9.140;41691.469
600.335;31004.463;  -11.430;40692.520
600.916;31459.469;   -9.939;39982.422
601.498;30218.158;   -8.479;40318.617
602.079;28848.379;  -10.920;40670.609
602.660;30866.914;  -11.480;41450.898
603.241;32609.078;  -11.699;41137.738
603.823;32988.113;   -9.579;38868.797
604.404;32615.434;  -10.620;38182.785
604.985;31245.758;  -10.450;38078.047
605.566;30432.189;   -9.129;38056.633
606.147;30262.887;   -7.510;37020.418
606.728;31473.924;  -10.660;37883.359
607.309;32273.982;  -11.740;38748.273
607.890;31826.623;   -9.759;38850.230
608.471;30560.236;   -8.250;37457.918
609.051;31163.156;   -9.240;36066.457
609.632;29367.098;  -12.120;35991.074
610.213;27927.961;   -9.110;37402.641
610.794;29491.291;   -8.030;38383.363
611.374;32188.137;   -8.110;40562.387
611.955;32220.246;  -13.560;38533.727
612.536;29563.352;  -11.400;36951.789
613.116;28327.566;   -8.070;37197.891
613.697;30354.951;  -10.830;38411.125
614.277;31708.248;  -11.641;38673.938
614.858;31165.906;  -13.310;37075.863
615.438;29697.523;   -7.460;35092.906
616.019;28168.332;   -7.601;33666.301
616.599;28871.391;  -12.020;34189.023
617.179;30553.301;  -11.780;36952.047
617.760;33178.012;   -8.570;39582.574
618.340;33397.793;  -11.471;38943.977
618.920;31800.861;  -11.170;37594.156
619.500;33517.844;  -11.071;37866.938
620.080;33644.316;   -7.750;37869.043
620.660;32018.049;  -12.711;36868.617
621.241;30531.945;  -10.211;36352.309
621.821;29428.885;  -10.961;35459.520
622.401;28626.064;   -7.720;35207.414
622.980;29760.605;   -8.981;35980.422
623.560;30123.094;   -9.331;37351.328
624.140;29013.682;   -9.850;34388.582
624.720;26579.293;   -7.451;32368.764
625.300;24969.287;   -9.070;32638.629
625.880;28355.107;  -12.601;34599.035
626.459;30251.875;  -11.751;36831.738
627.039;31099.176;   -9.281;38299.098
627.619;33003.359;   -8.801;38289.574
628.198;32240.279;  -12.071;37220.695
628.778;30851.857;   -9.461;37632.563
629.357;31722.557;   -8.491;38003.012
629.937;31880.688;   -9.721;38402.039
630.516;32127.922;   -9.951;37868.801
631.096;32478.936;  -11.731;35760.410
631.675;33968.301;   -8.572;35225.219
632.254;33566.012;  -11.282;35130.289
632.834;32890.109;  -13.322;35794.570
633.413;32645.469;  -10.301;35788.922
633.992;31896.426;   -8.582;34532.863
634.571;33217.809;   -8.352;33590.113
635.151;33205.938;  -11.912;34943.863
635.730;32615.059;  -10.511;35352.523
636.309;34793.730;   -7.731;35366.605
636.888;32718.635;   -9.952;36165.637
637.467;31127.496;  -11.672;37515.902
638.046;31112.430;   -8.901;39288.695
638.625;32098.617;   -7.912;38279.699
639.204;32510.666;  -10.022;37741.598
639.782;30514.672;  -12.252;38364.551
640.361;28389.832;  -10.041;36740.621
640.940;27476.410;  -11.161;34950.082
641.519;28822.178;   -9.701;34137.398
642.097;30826.869;  -11.271;35654.258
642.676;32391.535;   -8.651;35637.957
643.255;33711.035;   -8.711;36567.074
643.833;31316.334;   -9.581;37809.434
644.412;28864.719;  -13.711;37337.293
644.990;30681.393;  -11.811;37018.531
645.569;33240.180;   -9.411;36518.469
646.147;32379.314;  -10.291;36186.430
646.726;31269.355;  -12.401;36267.688
647.304;31275.432;  -10.411;36647.625
647.882;30538.504;   -9.651;39286.742
648.461;31985.234;   -9.631;39157.703
649.039;35229.980;  -11.881;35412.883
649.617;35355.941;   -9.661;34744.918
650.195;33126.102;   -9.301;35403.098
650.773;31959.305;  -10.511;35053.797
651.352;31170.398;  -11.521;33756.816
651.930;28801.607;  -12.211;31868.773
652.508;25718.039;   -9.171;33121.551
653.086;26729.391;   -9.371;33564.793
653.663;32290.105;  -13.161;34054.668
654.241;35603.434;  -13.031;35693.309
654.819;36637.059;   -9.371;36422.906
655.397;36861.023;  -10.511;38213.484
655.975;33519.477;  -10.371;39507.625
656.553;30542.908;  -10.051;39498.223
657.130;29246.008;  -10.061;40395.480
657.708;27368.551;   -9.561;39242.020
658.286;24417.475;  -11.511;38920.020
658.863;26239.311;  -10.261;40202.898
659.441;30215.125;   -7.531;39677.938
660.018;32289.703;   -9.501;40413.355
660.596;31512.416;  -13.301;39931.414
661.173;30963.785;  -11.211;39604.531
661.750;32590.535;   -9.951;39700.070
662.328;31910.654;   -9.390;39292.809
662.905;30810.367;  -11.330;38235.648
663.482;28216.543;   -9.050;36212.305
664.060;25397.779;   -8.240;35944.945
664.637;26206.088;  -10.050;35170.785
665.214;29496.162;  -11.760;34197.523
665.791;30207.945;  -10.530;34549.520
666.368;29017.018;   -9.690;35118.578
666.945;30218.387;   -9.320;36019.418
667.522;30655.746;  -11.860;36048.438
668.099;31985.920;  -10.770;36243.914
668.676;32168.045;   -6.260;35958.875
669.253;34652.043;   -7.000;37384.730
669.830;36140.211;  -10.190;36779.629
670.407;33007.793;   -9.550;35231.289
670.984;33403.805;   -9.260;35544.270
671.560;30407.361;   -9.280;35466.867
672.137;25997.570;  -11.810;34280.863
672.714;27995.650;  -11.490;34632.863
673.290;31895.207;   -7.740;35135.422
673.867;31519.838;  -10.660;36114.480
674.443;31569.756;  -12.230;36152.859
675.020;31359.168;  -10.450;35327.238
675.596;30299.244;   -9.260;35795.176
676.173;29400.021;  -10.780;35430.355
676.749;29007.150;  -13.690;33549.516
677.326;28700.508;  -11.980;32210.012
677.902;28194.363;   -8.630;32068.871
678.478;29807.584;  -10.730;32583.891
679.054;30573.254;  -10.520;32088.928
679.631;30103.279;  -11.920;30978.848
680.207;30009.309;   -7.490;33160.887
680.783;31832.363;   -9.860;35570.363
681.359;33315.648;  -13.380;36125.184
681.935;33957.141;  -12.480;35240.922
682.511;32941.520;   -7.900;34429.961
683.087;31704.709;   -7.710;34463.680
683.663;31341.506;  -11.480;34648.898
684.239;30174.463;  -14.090;34546.457
684.815;29092.617;   -7.560;35586.375
685.390;29586.781;   -9.910;35821.895
685.966;31115.051;  -11.159;35085.871
686.542;32564.049;  -11.169;34198.230
687.118;33886.879;   -5.959;32847.707
687.693;32744.275;  -10.329;32794.027
688.269;33283.441;  -12.059;33072.367
688.844;33582.324;  -10.909;33141.664
689.420;31112.746;   -8.019;33965.742
689.995;29771.607;   -8.399;34655.523
690.571;31127.531;  -10.949;33576.742
691.146;30674.648;   -9.619;32657.219
691.722;29093.666;   -8.999;32526.979
692.297;28404.072;  -11.589;33014.617
692.872;28414.705;  -11.739;34012.254
693.448;31241.773;  -11.059;34237.434
694.023;31692.523;  -10.139;34142.672
694.598;29537.457;   -9.029;34132.031
695.173;30714.740;  -13.319;34205.250
695.748;31276.623;  -10.169;32882.488
696.323;29075.465;   -8.339;32864.906
696.898;27492.029;   -8.169;33170.004
697.473;28043.508;  -12.309;32432.984
698.048;28102.654;  -10.989;31649.303
698.623;26945.715;   -9.329;30778.141
699.198;27937.223;   -9.849;31140.119
699.773;28819.711;  -12.329;31764.299
700.348;30121.207;  -10.389;31780.816
700.922;30412.813;   -9.269;32046.375
701.497;31244.350;   -9.329;32603.574
702.072;32382.100;  -10.789;34799.871
702.646;31439.477;  -10.839;35793.172
703.221;30935.195;   -9.099;35201.590
703.795;32918.551;  -10.939;34764.527
704.370;30385.326;  -12.859;34307.367
704.944;28652.055;  -11.559;33509.887
705.519;29458.170;   -7.939;31388.584
706.093;31430.393;  -10.499;31340.104
706.668;33556.914;  -11.289;32630.281
707.242;32970.844;  -11.509;32728.779
707.816;30929.184;   -9.639;32947.238
708.390;29838.041;  -11.429;33277.855
708.965;29538.715;  -11.869;33834.336
709.539;31273.705;  -11.689;33709.273
710.113;31565.836;  -10.478;33044.313
710.687;30575.346;  -10.228;31953.992
711.261;29729.066;  -13.698;30505.949
711.835;30075.994;  -13.378;30262.369
712.409;29079.004;   -9.698;31254.447
712.983;28436.014;  -11.898;32754.986
713.557;30790.316;  -15.138;34018.824
714.131;29148.377;  -14.098;34579.625
714.704;28668.523;   -9.958;33890.262
715.278;30640.846;  -10.028;33531.102
715.852;29017.852;  -11.148;33601.660
716.425;27762.650;   -9.068;33515.117
716.999;26592.041;  -10.038;33185.555
717.573;26367.385;   -9.798;33905.996
718.146;25807.094;  -12.378;35199.293
718.720;26112.100;  -11.918;35060.551
719.293;26570.684;   -8.088;34973.230
719.867;28937.115;  -10.888;36394.449
720.440;30986.453;  -11.938;36663.008
721.013;31728.475;  -12.818;35102.426
721.587;29597.006;  -10.298;33985.266
722.160;27599.453;  -10.048;33524.965
722.733;26603.662;  -12.108;32987.043
723.306;26788.355;  -10.818;33066.301
723.880;28593.480;   -8.908;33399.500
724.453;28179.580;   -9.878;33468.297
725.026;28610.855;  -11.188;33816.637
725.599;31437.082;  -11.678;32797.996
726.172;30662.484;   -9.618;33187.434
726.745;27826.256;   -8.258;35136.613
727.318;27273.395;  -12.978;35751.730
727.891;27051.715;  -12.148;35890.430
728.463;26523.168;   -8.968;34822.090
729.036;26413.482;  -10.188;32895.086
729.609;26330.211;  -11.788;31823.225
730.182;24234.754;  -11.788;31445.283
730.754;22765.117;  -10.268;32373.223
731.327;22971.119;   -9.998;33676.820
731.900;24341.117;  -12.228;33417.000
732.472;24369.576;  -13.848;31978.498
733.045;23409.941;   -8.698;30368.777
733.617;22744.006;  -10.607;30574.215
734.190;24718.104;  -11.507;31280.975
734.762;25693.670;  -13.647;31674.412
735.334;26807.520;   -9.767;31247.291
735.907;27173.066;   -9.897;29876.211
736.479;26801.533;  -11.637;29808.488
737.051;27877.447;   -9.567;30233.547
737.623;27521.395;   -8.187;31469.086
738.195;26329.516;  -11.187;31784.225
738.768;24976.848;  -12.337;32120.523
739.340;23215.746;  -12.227;32094.342
739.912;22420.805;  -11.057;31312.680
740.484;22461.867;  -10.207;31946.238
741.056;22173.576;  -10.047;32984.059
741.628;23204.705;  -13.627;33897.715
742.199;24194.758;   -7.177;33213.016
742.771;26461.498;  -10.797;31369.113
743.343;27398.543;  -11.997;31865.473
743.915;27089.730;  -12.867;32388.631
744.487;24568.176;   -7.617;31079.568
745.058;21697.695;   -9.557;30570.107
745.630;22540.000;   -9.877;29970.127
746.201;24073.482;  -14.177;29186.766
746.773;24727.352;   -9.237;28805.723
747.344;23142.117;   -9.847;29591.223
747.916;21349.412;  -11.657;31412.201
748.487;22221.025;  -10.587;32194.898
749.059;23911.273;   -8.707;32533.719
749.630;24242.430;  -10.537;32158.518
750.201;23630.648;  -11.687;30855.395
750.773;22337.350;  -11.647;28622.555
751.344;22095.006;   -7.147;28405.732
751.915;24058.188;   -9.757;28461.551
752.486;25139.357;  -12.427;27842.850
753.057;24192.697;  -12.227;27845.008
753.628;24200.041;  -10.417;27728.107
754.199;23645.889;  -11.767;27381.086
754.770;23451.182;  -11.187;25882.203
755.341;22549.080;  -10.507;25886.184
755.912;20868.748;   -9.387;26050.861
756.483;19237.828;  -10.647;26798.779
757.054;19610.180;  -11.837;27048.238
757.625;19666.900;  -12.716;26294.838
758.195;19466.236;   -9.666;26142.076
758.766;19647.135;   -8.656;26392.234
759.337;19042.859;  -12.856;26334.594
759.907;18879.652;  -13.366;27579.652
760.478;18797.561;   -8.576;28352.770
761.048;19827.334;  -10.526;27325.088
761.619;19905.543;  -11.116;26460.428
762.189;18472.484;  -12.136;26029.826
762.760;18169.518;   -9.456;26430.145
763.330;18729.957;   -7.136;26670.902
763.900;19061.420;  -11.786;26603.021
764.471;18542.928;  -11.546;25542.740
765.041;17494.910;   -8.096;24358.459
765.611;16744.643;   -8.876;23991.297
766.181;16771.863;  -12.196;24470.236
766.751;16489.787;  -11.636;24845.975
767.321;17330.543;  -10.156;24533.633
767.891;16782.109;  -11.766;24916.492
768.461;17042.879;  -14.936;24776.771
769.031;18172.807;  -12.356;24757.988
769.601;18731.957;   -7.526;24181.088
770.171;18418.254;  -10.766;23670.387
770.741;17637.285;  -13.176;22960.045
771.311;17260.350;  -10.616;22917.523
771.880;17593.801;   -9.576;23562.941
772.450;17258.230;  -10.336;24216.500
773.020;16847.492;  -13.516;24140.398
773.589;17384.385;  -13.466;24414.857
774.159;17191.396;   -8.686;23858.717
774.729;15972.190;   -9.476;22942.135
775.298;14237.384;  -13.666;22324.033
775.867;13937.558;  -11.716;21140.313
776.437;14186.856;   -9.906;20838.092
777.006;13472.605;  -12.166;20599.510
777.576;12874.919;  -12.356;20508.809
778.145;12796.023;  -11.646;20732.947
778.714;13263.323;   -8.226;21062.465
779.283;14247.265;   -9.556;20949.664
779.853;14833.063;  -14.116;20508.623
780.422;14208.646;  -11.506;20649.082
780.991;13734.651;   -9.556;21527.520
781.560;13450.493;   -9.095;22632.658
782.129;13316.694;  -12.135;23048.277
782.698;13251.085;  -10.865;23438.555
783.267;12890.980;   -9.335;23267.734
783.836;12952.419;  -11.045;22415.133
784.404;13639.961;  -13.865;20443.152
784.973;12969.117;  -13.095;19699.150
785.542;11650.747;  -11.575;19763.828
786.111;11035.269;   -9.705;20341.408
786.679;11714.347;  -12.105;20207.967
787.248;11946.830;  -12.455;19516.465
787.817;11569.403;  -11.535;18900.363
788.385;11709.240;   -9.765;17879.121
788.954;11849.770;  -14.005;17658.301
789.522;11337.562;  -11.955;17788.879
790.090;11562.286;  -10.135;18118.277
790.659;12509.344;  -10.975;18338.736
791.227;12383.943;  -13.375;18508.615
791.795;11683.954;  -12.375;17898.254
792.364;11156.316;  -10.725;17295.133
792.932;11299.981;   -9.715;16822.051
793.500;11459.028;  -12.675;17040.148
794.068;11248.485;  -13.495;17179.787
794.636;10066.604;  -10.885;16664.246
795.204; 8995.038;  -11.045;16524.545
795.772; 9689.500;  -13.175;17274.564
796.340;10902.094;  -12.445;17891.002
796.908;10722.769;   -9.735;17648.561
797.476;11038.314;   -9.815;17064.080
798.044;11789.175;  -13.985;16672.777
798.612;11583.251;  -13.115;17023.996
799.180;10340.192;  -10.185;16561.615
799.747; 9355.095;   -9.055;15962.773
800.315; 8708.631;  -12.385;15296.992
800.883; 8961.979;  -15.035;14801.771
801.450; 9276.876;  -10.365;14534.430
802.018; 9423.350;   -9.855;14173.248
802.585; 9589.956;  -11.905;14029.547
803.153; 9172.042;  -11.585;13836.846
803.720; 8553.255;   -9.095;13567.324
804.287; 8667.637;   -9.135;13360.622
804.855; 9043.286;  -11.604;13681.981
805.422; 9161.850;  -11.794;13536.560
805.989; 8972.695;  -10.734;13355.958
806.556; 8490.348;  -10.444;13747.896
807.124; 8361.536;  -12.764;13987.376
807.691; 8935.372;  -12.964;14038.674
808.258; 9274.665;  -11.134;14120.152
808.825; 9453.952;   -9.854;13860.111
809.392; 9140.264;  -10.504;13268.790
809.959; 8660.283;  -13.054;12680.389
810.526; 8460.759;   -8.294;12427.308
811.093; 8146.413;   -8.394;12030.105
811.659; 7433.662;  -12.304;11653.664
812.226; 7263.078;  -13.944;11637.183
812.793; 7779.125;  -10.484;11611.521
813.360; 7900.997;  -10.144;11885.181
813.926; 7241.932;  -11.684;12770.539
814.493; 6638.893;  -13.644;12677.638
815.060; 6481.101;   -9.724;11974.336
815.626; 6778.942;   -9.854;11594.715
816.193; 6780.277;  -13.254;11579.474
816.759; 6734.450;  -13.204;11666.972
817.325; 6535.942;   -9.434;11325.530
817.892; 6247.830;  -10.134;11105.369
818.458; 6176.078;  -13.474;10843.928
819.024; 6131.171;  -11.854;10714.406
819.591; 6410.714;  -10.244;10469.165
820.157; 6577.062;  -10.704;10235.523
820.723; 6893.438;  -12.324;10847.563
821.289; 7298.396;   -9.444;11040.980
821.855; 7305.293;   -8.374;10357.100
822.421; 6880.429;  -10.234; 9978.918
822.987; 6627.953;  -13.294; 9754.177
823.553; 6501.913;  -10.884;10065.755
824.119; 6094.908;   -8.884;10036.294
824.685; 5944.229;   -6.784;10029.192
825.251; 5902.691;  -12.004;10199.230
825.816; 6037.738;  -11.474; 9820.189
826.382; 5810.643;   -9.174; 9297.248
826.948; 5497.744;   -9.214; 9381.347
827.513; 5269.240;  -10.774; 9450.726
828.079; 5236.085;  -11.924; 9472.444
828.645; 5294.088;  -10.543; 9292.643
829.210; 5449.476;  -10.533; 9065.341
829.776; 5474.750;  -10.753; 9132.620
830.341; 5428.375;  -10.173; 9092.878
830.906; 5553.548;  -10.743; 9078.557
831.472; 5444.966;  -11.113; 8534.535
832.037; 4943.625;  -10.603; 8677.874
832.602; 4846.930;  -13.323; 8628.692
833.167; 5215.333;  -10.823; 8879.031
833.733; 5183.201;  -10.113; 9189.790
834.298; 4923.360;  -13.583; 9052.608
834.863; 4778.792;  -12.703; 8895.087
835.428; 4627.657;  -10.523; 8824.266
835.993; 4541.658;   -6.963; 8845.385
836.558; 4629.657;  -10.763; 8888.563
837.123; 4769.843;   -9.903; 8966.582
837.688; 4644.734;   -9.913; 8617.860
838.253; 4521.005;  -10.283; 8590.699
838.817; 4684.817;  -12.963; 8443.797
839.382; 4848.386;  -14.243; 8799.356
839.947; 4689.300;  -10.733; 8810.595
840.511; 4768.152;   -9.383; 8796.394
841.076; 4825.233;  -12.563; 8347.231
841.641; 4633.868;  -12.953; 8224.330
842.205; 4328.874;   -7.043; 8223.349
842.770; 4270.077;   -8.163; 8622.107
843.334; 4317.438;  -12.503; 8410.386
843.898; 4298.722;  -11.693; 8337.465
844.463; 4196.443;  -10.203; 8506.283
845.027; 4097.275;   -9.533; 8280.962
845.591; 4141.837;  -13.443; 8231.141
846.156; 4066.281;  -13.143; 7969.179
846.720; 3848.380;   -9.433; 7768.278
847.284; 3539.156;  -11.033; 7630.957
847.848; 3384.439;  -10.403; 7472.395
848.412; 3413.917;  -11.553; 7437.394
848.976; 3614.244;   -8.393; 7674.592
849.540; 3679.492;   -8.713; 7836.011
850.104; 3663.235;  -12.463; 7913.669
850.668; 3779.856;  -12.973; 7694.508
851.232; 3807.249;  -10.793; 7756.887
851.796; 3713.127;  -10.662; 7926.545
852.359; 3745.083;  -13.082; 7827.844
852.923; 3496.839;  -12.192; 7641.163
853.487; 3401.525;  -11.912; 7342.501
854.050; 3566.863;  -10.892; 7042.820
854.614; 3540.632;  -13.992; 7151.338
855.177; 3399.185;  -11.732; 7105.077
855.741; 3311.876;   -8.962; 6989.675
856.304; 3211.779;   -9.442; 6596.634
856.868; 2973.608;  -14.192; 6356.272
857.431; 2759.836;  -12.702; 6468.571
857.995; 2804.222;   -9.942; 6373.210
858.558; 2856.390;   -9.112; 6324.448
859.121; 2662.700;  -12.932; 6408.327
859.684; 2567.130;  -13.442; 6347.886
860.247; 2982.990;  -10.632; 6321.264
860.810; 3349.509;  -11.272; 6301.903
861.374; 3364.128;   -9.832; 6607.881
861.937; 3332.191;  -11.762; 6408.200
862.500; 3198.654;   -9.722; 6572.639
863.062; 2879.017;  -10.512; 6387.297
863.625; 2757.847;  -11.232; 6190.836
864.188; 2754.965;  -14.112; 5807.254
864.751; 2764.699;  -11.302; 5682.413
865.314; 2898.729;  -10.112; 5547.492
865.876; 2955.186;  -12.182; 5500.150
866.439; 2889.073;  -10.722; 5415.909
867.002; 2747.134;   -9.252; 5501.567
867.564; 2645.628;   -9.572; 5413.946
868.127; 2516.270;  -13.142; 5160.325
868.689; 2218.588;  -12.902; 5133.183
869.252; 2063.983;   -9.732; 5252.382
869.814; 2073.554;   -9.432; 5297.141
870.377; 2193.383;  -11.552; 5390.919
870.939; 2192.349;   -9.052; 5599.898
871.501; 2110.590;  -10.982; 5248.336
872.063; 2133.169;  -12.292; 4854.235
872.626; 2146.533;  -14.912; 4817.074
873.188; 2212.261;  -13.112; 4987.732
873.750; 2266.028;  -13.442; 4868.651
874.312; 2449.991;   -9.402; 4779.330
874.874; 2718.562;  -11.062; 4866.348
875.436; 2527.343;  -13.931; 4718.887
875.998; 1933.595;   -9.561; 4660.005
876.560; 1445.545;  -11.321; 4462.964
877.122; 1126.721;  -12.221; 4145.042
877.683;  936.783;  -12.191; 4056.481
878.245;  986.718;  -12.101; 3950.740
878.807; 1189.490;   -8.971; 4058.958
879.369; 1347.599;  -12.071; 3954.677
879.930; 1389.295;  -14.621; 3941.495
880.492; 1313.589;  -10.311; 4067.014
881.053; 1226.317;  -10.901; 3859.633
881.615; 1241.837;  -14.411; 3776.071
882.176; 1298.151;  -13.761; 3734.750
882.738; 1337.061;   -9.181; 3678.489
883.299; 1319.253;  -11.791; 3405.407
883.860; 1258.545;  -13.121; 3351.106
884.422; 1171.576;  -11.211; 3394.044
884.983; 1112.091;  -10.091; 3166.443
885.544; 1101.303;   -8.461; 3189.802
886.105; 1056.561;  -12.361; 3160.360
886.666;  986.220;  -14.141; 3093.059
887.227;  961.278;  -11.361; 2941.957
887.788;  982.960;  -11.401; 2974.836
888.349;  944.736;  -13.791; 2721.214
888.910;  855.094;  -13.191; 2696.493
889.471;  757.630;   -9.881; 2560.172
890.032;  690.533;   -9.881; 2558.190
890.593;  693.272;  -10.371; 2567.669
891.153;  695.152;  -13.301; 2460.307
891.714;  634.548;  -11.431; 2372.046
892.275;  587.381;  -11.291; 2309.505
892.835;  575.152;  -11.471; 2382.543
893.396;  565.618;  -11.541; 2295.502
893.956;  556.313;  -11.181; 2162.420
894.517;  540.011;  -11.741; 2125.439
895.077;  492.358;  -11.671; 2086.978
895.638;  441.856;  -11.311; 2126.316
896.198;  422.080;   -9.831; 1838.275
896.758;  423.976;   -8.421; 1892.813
897.319;  418.746;  -12.351; 1792.232
897.879;  400.235;  -13.511; 1762.751
898.439;  375.265;  -12.001; 1661.149
898.999;  355.125;  -10.180; 1781.468
899.559;  340.507;  -12.030; 1703.347
900.119;  331.690;  -15.710; 1537.525
900.679;  312.757;   -8.900; 1638.384
901.239;  286.984;   -8.340; 1527.902
901.799;  272.721;  -13.910; 1456.441
902.359;  263.203;  -13.460; 1357.140
902.919;  257.891;  -11.490; 1331.118
903.479;  256.101;  -12.110; 1317.257
904.038;  249.124;  -11.720; 1262.595
904.598;  233.293;  -13.610; 1152.034
905.158;  221.528;  -11.040; 1240.893
905.717;  216.057;  -10.900; 1233.691
906.277;  211.378;  -15.080; 1217.330
906.836;  207.026;  -13.380; 1222.408
907.396;  204.666;  -10.780; 1193.047
907.955;  198.807;   -8.500; 1182.526
908.515;  191.787;  -12.760; 1099.364
909.074;  187.285;  -11.900; 1092.863
909.633;  185.561;   -8.950; 1069.121
910.192;  181.877;   -8.770; 1196.460
910.752;  177.791;  -12.390; 1029.960
911.311;  173.043;  -13.680; 1009.780
911.870;  168.011;  -12.370;  971.460
912.429;  165.692;  -10.900; 1094.080
912.988;  163.831;  -11.690; 1081.060
913.547;  159.505;  -13.240;  940.380
914.106;  158.717;  -11.990;  999.420
914.665;  159.194;   -9.990;  984.020
915.224;  157.743;  -12.880; 1035.760
915.782;  155.440;  -12.350;  922.560
916.341;  154.628;   -9.110; 1049.840
916.900;  150.629;   -9.270;  925.260
917.458;  146.406;  -13.240;  884.220
918.017;  143.475;  -13.550;  942.600
918.576;  142.137;  -12.320;  904.440
919.134;  142.998;  -11.490;  837.980
919.693;  143.335;  -13.670;  893.060
920.251;  141.233;  -15.470;  876.500
920.809;  140.424;  -11.290;  839.580
921.368;  141.518;  -10.210;  885.360
921.926;  142.427;  -12.140;  842.940
922.484;  140.838;  -13.080;  903.360
923.042;  140.677;  -11.720;  880.340
923.601;  142.530;   -7.480;  998.680
924.159;  141.699;  -11.570;  935.560
924.717;  141.064;  -13.840;  841.080
925.275;  141.731;  -10.640;  903.240
925.833;  140.467;  -11.540;  779.320
926.391;  141.652;  -12.960;  938.380
926.949;  141.384;  -14.130;  857.680
927.506;  141.413;  -11.750;  903.500
928.064;  140.632;  -10.250;  877.580
928.622;  139.489;  -13.030;  880.100
929.180;  141.091;  -13.400;  814.180
929.737;  142.283;  -10.700;  808.540
930.295;  143.066;  -10.070;  928.480
930.853;  144.397;  -11.960;  849.100
931.410;  142.367;  -13.120;  821.120
931.968;  143.097;  -10.770;  940.660
932.525;  144.777;  -10.680;  909.380
933.082;  148.079;  -13.130;  811.440
933.640;  152.940;  -13.210;  925.900
934.197;  153.463;  -11.060;  886.360
934.754;  154.509;   -9.580;  897.780
935.312;  155.434;  -14.000;  863.340
935.869;  158.044;  -10.710; 1012.980
936.426;  156.612;   -9.860;  872.800
936.983;  156.450;   -9.710;  889.020
937.540;  154.206;  -13.990;  838.280
938.097;  153.551;  -14.040;  940.120
938.654;  155.601;  -10.310;  898.860
939.211;  156.570;  -10.560;  952.480
939.768;  154.625;  -13.900;  915.420
940.324;  156.063;  -14.760;  904.200
940.881;  159.882;  -10.370;  878.500
941.438;  167.301;   -8.260; 1021.200
941.995;  168.776;  -12.540;  992.560
942.551;  165.084;  -14.670;  875.620
943.108;  165.385;  -10.450;  937.920
943.664;  167.263;  -10.750;  869.340
944.221;  171.940;  -11.550; 1088.140
944.777;  174.795;  -14.770;  869.680
945.334;  173.233;  -12.820;  884.840
945.890;  171.174;  -10.130;  946.480
946.446;  169.451;  -13.470;  947.020
947.003;  169.439;  -12.120;  964.940
947.559;  169.333;   -9.980; 1063.040
948.115;  167.276;   -9.080; 1026.540
948.671;  163.936;  -10.830;  967.300
949.227;  161.079;  -12.440;  859.560
949.783;  160.685;  -12.910;  858.900
950.339;  163.326;  -10.270;  991.000
950.895;  165.132;  -13.630; 1023.840
951.451;  162.721;  -15.100;  925.280
952.007;  161.981;  -11.330;  998.540
952.563;  161.093;  -10.580;  937.780
953.118;  156.821;  -13.440;  904.940
953.674;  153.453;  -12.710;  935.780
954.230;  155.404;  -10.350;  949.640
954.785;  158.731;   -9.190;  936.640
955.341;  161.041;  -11.200;  998.160
955.897;  156.382;  -16.560;  834.660
956.452;  154.089;  -12.570;  953.840
957.008;  152.447;   -7.970; 1083.640
957.563;  151.637;  -11.940; 1009.540
958.118;  149.763;  -13.450;  877.700
958.674;  149.159;  -12.030;  946.780
959.229;  149.415;   -9.410; 1013.980
959.784;  147.758;  -12.000;  832.400
960.339;  144.122;  -14.780; 1001.280
960.894;  137.616;   -9.860;  963.760
961.449;  132.387;   -9.970;  859.960
962.004;  132.000;  -10.900; 1212.840
962.559;  125.845;  -13.150;  860.140
963.114;  123.502;  -13.740;  742.480
963.669;  126.491;   -9.820;  915.500
964.224;  126.200;  -13.890;  874.340
964.779;  125.284;  -12.600;  828.420
965.334;  125.483;  -10.950; 1017.860
965.888;  123.059;  -11.170;  875.360
966.443;  125.456;  -12.540;  972.380
966.998;  124.193;  -15.780;  819.460
967.552;  123.711;   -9.760;  908.380
968.107;  118.955;   -9.060;  868.300
968.661;  118.227;  -11.950;  922.440
969.216;  116.257;  -12.800;  856.280
969.770;  116.512;  -11.210;  917.200
970.324;  114.075;  -11.610;  923.140
970.879;  111.875;  -11.370;  947.180
971.433;  110.529;  -12.540;  952.720
971.987;  108.580;  -11.320;  895.340
972.541;  107.892;  -10.720;  917.100
973.095;  110.204;   -9.680; 1009.460
973.649;  109.028;  -11.440;  809.480
974.203;  107.705;  -11.210;  829.040
974.757;  108.912;  -10.240;  855.220
975.311;  108.852;  -13.720;  872.600
975.865;  108.704;  -13.770;  881.820
976.419;  107.248;  -11.690;  857.400
976.973;  107.999;   -9.510;  849.620
977.526;  108.841;  -12.620;  949.920
978.080;  104.562;  -12.010;  796.780
978.634;  102.225;  -10.170;  921.320
979.187;  100.345;   -9.020;  905.400
979.741;   99.427;   -9.820; 1018.380
980.294;   95.030;  -14.870;  789.160
980.848;   91.135;  -12.380;  717.220
981.401;   90.469;  -10.350;  816.540
981.955;   90.578;  -13.720;  844.300
982.508;   87.637;  -11.490;  746.340
983.061;   87.049;  -10.000;  915.260
983.615;   86.218;  -11.480;  798.800
984.168;   86.490;  -13.220;  770.080
984.721;   85.884;  -13.960;  880.760
985.274;   83.630;  -10.870;  867.500
985.827;   82.469;   -9.790;  834.220
986.380;   81.454;  -13.120;  721.340
986.933;   81.583;  -12.450;  864.800
987.486;   80.737;  -10.210;  861.920
988.039;   80.422;   -8.430;  863.100
988.591;   78.265;  -10.520;  893.260
989.144;   73.274;  -14.860;  737.260
989.697;   72.040;  -13.080;  758.740
990.250;   71.449;  -10.150;  858.100
990.802;   69.377;  -13.430;  755.860
991.355;   69.151;  -12.750;  974.880
991.907;   66.567;  -12.040;  864.320
992.460;   63.984;  -11.330;  753.760
993.012;   63.479;  -13.610;  749.540
993.565;   61.623;  -13.460;  711.360
994.117;   63.243;   -9.360;  950.780
994.669;   60.053;  -11.300;  701.320
995.221;   59.869;  -13.540;  791.920
995.774;   59.421;  -13.430;  787.580
996.326;   57.928;  -12.520;  740.220
996.878;   58.186;  -10.950;  838.420
997.430;   56.769;  -14.300;  699.860
997.982;   54.940;  -13.760;  750.140
998.534;   53.965;  -11.530;  739.060
999.086;   53.386;  -10.310;  738.220
999.638;   52.599;  -12.530;  661.380
1000.190;   51.557;  -11.840;  699.320
1000.741;   50.337;  -10.260;  742.700
1001.293;   50.620;   -8.860;  686.020
1001.845;   49.839;  -13.700;  676.640
1002.396;   50.465;  -12.100;  743.400
1002.948;   48.710;  -12.760;  737.400
1003.500;   47.834;  -10.380;  723.780
1004.051;   48.548;  -11.900;  907.580
1004.603;   46.444;  -12.250;  791.820
1005.154;   43.723;  -13.210;  608.980
1005.705;   43.420;  -10.950;  723.960
1006.257;   42.856;  -13.880;  707.220
1006.808;   42.095;  -12.840;  685.460
1007.359;   41.521;  -10.570;  763.240
1007.910;   40.561;   -9.620;  646.640
1008.461;   41.176;  -13.630;  732.940
1009.013;   38.494;  -17.200;  588.340
1009.564;   40.069;  -10.200;  793.520
1010.115;   38.153;  -12.570;  597.040
1010.665;   38.686;  -15.150;  602.160
1011.216;   38.566;  -14.480;  667.920
1011.767;   38.006;  -11.340;  697.920
1012.318;   38.345;   -9.780;  736.980
1012.869;   37.476;  -12.380;  679.000
1013.419;   36.178;  -15.560;  603.120
1013.970;   36.099;  -11.010;  666.640
1014.521;   35.967;  -11.610;  620.620
1015.071;   36.481;  -13.450;  670.380
1015.622;   35.678;  -13.870;  635.460
1016.172;   34.450;  -11.610;  596.820
1016.723;   34.969;  -12.120;  614.380
1017.273;   34.988;  -13.620;  604.160
1017.823;   34.059;  -14.140;  650.340
1018.374;   34.365;  -12.800;  611.760
1018.924;   33.851;  -12.340;  716.880
1019.474;   35.332;  -11.410;  718.880
1020.024;   32.150;  -14.770;  657.580
1020.574;   33.064;   -9.780;  726.160
1021.124;   33.774;   -8.560;  673.580
1021.674;   32.595;  -15.190;  559.120
1022.224;   33.432;  -13.530;  708.940
1022.774;   32.249;  -13.280;  668.820
1023.324;   33.342;  -10.690;  753.520
1023.874;   34.494;  -10.240;  875.760
1024.423;   31.658;  -12.540;  613.700
1024.973;   30.449;  -10.010;  610.760
1025.523;   30.319;  -10.550;  620.960
1026.072;   31.237;  -13.560;  606.420
1026.622;   30.308;  -15.120;  675.740
1027.172;   31.562;  -11.260;  715.660
1027.721;   30.558;  -11.410;  601.220
1028.270;   31.286;  -13.530;  663.400
1028.820;   30.315;  -13.680;  638.080
1029.369;   29.945;  -13.520;  612.700
1029.918;   30.688;  -10.980;  649.840
1030.468;   30.285;  -13.530;  564.780
1031.017;   29.836;  -13.170;  634.800
1031.566;   28.216;  -12.200;  608.900
1032.115;   29.744;   -9.960;  694.500
1032.664;   28.586;  -13.210;  596.480
1033.213;   28.419;  -12.500;  735.420
1033.762;   28.076;  -11.910;  635.620
1034.311;   27.817;   -9.640;  677.220
1034.860;   28.580;  -13.310;  691.000
1035.408;   28.710;  -11.830;  722.720
1035.957;   28.363;  -12.000;  719.540
1036.506;   26.554;  -11.690;  530.800
1037.055;   29.830;  -10.990;  844.320
1037.603;   27.336;  -15.120;  664.000
1038.152;   25.212;  -12.450;  534.760
1038.700;   26.714;  -10.560;  585.740
1039.249;   26.488;  -11.080;  681.220
1039.797;   26.562;  -12.540;  633.360
1040.345;   26.027;  -11.920;  705.420
1040.894;   25.558;  -11.410;  625.300
1041.442;   26.128;  -14.320;  632.200
1041.990;   25.003;  -16.240;  559.160
1042.538;   23.911;  -11.680;  536.180
1043.087;   24.398;  -10.760;  570.860
1043.635;   26.253;  -11.850;  670.500
1044.183;   24.406;  -15.480;  586.400
1044.731;   23.803;  -11.770;  576.000
1045.279;   24.380;  -13.090;  674.920
1045.827;   26.769;  -12.440;  892.400
1046.374;   23.326;  -13.840;  515.420
1046.922;   21.944;  -13.220;  590.580
1047.470;   24.901;  -10.230;  691.300
1048.018;   24.229;  -14.590;  647.960
1048.565;   24.701;  -12.050;  708.600
1049.113;   23.205;  -11.650;  557.000
1049.660;   23.506;  -10.510;  629.660
1050.208;   23.847;  -13.310;  675.640
1050.755;   22.123;  -15.900;  606.580
1051.303;   22.599;  -11.430;  686.820
1051.850;   22.411;   -8.480;  635.120
1052.397;   20.728;  -15.010;  473.960
1052.945;   21.433;  -13.960;  617.760
1053.492;   23.169;  -13.150;  741.840
1054.039;   22.919;   -9.630;  720.180
1054.586;   22.492;  -13.680;  557.240
1055.133;   22.683;  -14.570;  693.140
1055.680;   22.187;  -13.820;  646.620
1056.227;   20.746;  -11.730;  542.780
1056.774;   23.328;  -12.480;  794.980
1057.321;   20.520;  -13.930;  523.260
1057.868;   20.676;  -11.690;  651.320
1058.415;   20.664;   -9.520;  651.980
1058.961;   21.441;  -13.160;  678.940
1059.508;   20.617;  -12.920;  643.820
1060.055;   19.690;  -11.920;  581.780
1060.601;   20.908;  -11.500;  624.300
1061.148;   20.393;  -14.330;  616.820
1061.694;   19.860;  -16.870;  592.580
1062.241;   20.261;  -10.330;  596.320
1062.787;   20.753;  -10.620;  663.140
1063.334;   21.970;  -10.110;  808.560
1063.880;   20.153;  -13.400;  668.360
1064.426;   19.712;  -10.680;  706.820
1064.972;   18.937;   -9.920;  601.340
1065.518;   18.125;  -10.980;  566.640
1066.065;   19.012;  -14.890;  624.460
1066.611;   17.526;  -12.870;  598.800
1067.157;   18.951;  -12.950;  641.860
1067.703;   19.563;  -13.540;  668.480
1068.249;   18.471;  -13.540;  605.220
1068.794;   17.690;  -12.600;  626.880
1069.340;   17.616;  -10.620;  578.960
1069.886;   18.999;  -12.830;  590.700
1070.432;   16.631;  -14.870;  541.720
1070.977;   16.892;  -11.980;  601.080
1071.523;   16.842;   -8.200;  573.060
1072.068;   17.927;  -12.330;  582.000
1072.614;   16.550;  -16.370;  527.760
1073.160;   17.161;  -11.100;  687.040
1073.705;   16.317;  -10.480;  572.520
1074.250;   17.432;  -14.520;  559.900
1074.796;   17.371;  -11.460;  655.160
1075.341;   17.305;  -11.950;  664.100
1075.886;   16.719;  -11.460;  594.240
1076.431;   17.212;  -13.770;  649.880
1076.976;   16.562;  -12.680;  639.220
1077.521;   15.495;  -13.170;  583.080
1078.067;   15.187;  -10.860;  579.400
1078.612;   16.578;  -13.920;  661.620
1079.156;   15.429;  -13.880;  601.540
1079.701;   15.400;  -13.120;  693.260
1080.246;   16.538;   -9.940;  696.300
1080.791;   16.674;  -14.740;  625.020
1081.336;   15.970;  -13.750;  659.320
1081.880;   14.967;  -13.400;  649.680
1082.425;   14.780;  -12.220;  573.480
1082.970;   16.981;  -11.610;  717.040
1083.514;   15.032;  -13.580;  597.000
1084.059;   13.793;  -12.810;  586.720
1084.603;   13.911;  -12.320;  565.840
1085.147;   15.764;  -13.190;  645.220
1085.692;   14.849;  -12.480;  716.800
1086.236;   12.641;  -13.020;  503.140
1086.780;   15.379;   -9.190;  751.440
1087.325;   15.139;  -12.480;  654.620
1087.869;   14.634;  -12.450;  610.700
1088.413;   14.400;  -12.240;  705.040
1088.957;   12.758;   -9.020;  543.400
1089.501;   15.301;  -10.320;  766.640
1090.045;   14.150;  -12.720;  726.480
1090.589;   11.149;  -13.690;  569.920
1091.133;   13.273;  -10.020;  673.340
1091.676;   13.684;  -12.330;  591.940
1092.220;   12.527;  -14.970;  600.920
1092.764;   13.808;  -12.430;  706.960
1093.307;   14.001;   -9.800;  673.780
1093.851;   12.112;  -14.970;  556.540
1094.395;   13.115;  -15.310;  683.140
1094.938;   11.362;  -10.370;  632.520
1095.482;   12.202;  -11.050;  559.800
1096.025;   13.760;  -11.840;  710.880
1096.568;   14.203;  -12.840;  779.280
1097.112;    9.835;  -14.700;  508.180
1097.655;   12.613;   -8.720;  603.000
1098.198;   11.361;  -13.610;  600.180
1098.741;   11.348;  -13.350;  612.860
1099.285;   12.061;  -11.230;  657.300
1099.828;   10.320;  -11.840;  439.400
1100.371;   12.534;  -10.840;  608.160
1100.914;   11.140;  -14.190;  682.660
1101.457;   11.088;  -11.240;  679.900
1101.999;    9.971;  -11.270;  584.680
1102.542;   11.408;  -11.480;  641.440
1103.085;   10.131;  -11.750;  658.500
1103.628;   10.935;  -11.400;  762.060
1104.170;    9.357;  -10.490;  588.280
1104.713;   11.662;  -10.600;  646.700
1105.256;    9.948;  -14.360;  557.440
1105.798;    8.966;  -13.210;  499.980
1106.341;   10.778;  -10.270;  728.900
1106.883;    9.994;  -12.200;  521.340
1107.425;   10.557;  -13.110;  668.180
1107.968;    9.762;  -12.840;  612.380
1108.510;    9.912;   -6.480;  684.960
1109.052;    9.100;  -13.940;  612.620
1109.594;    8.798;  -13.690;  554.440
1110.136;    8.923;  -11.880;  643.220
1110.679;    8.948;   -9.500;  633.080
1111.221;    9.859;  -14.160;  604.460
1111.763;    8.272;  -13.980;  559.220
1112.304;    8.535;  -13.880;  547.140
1112.846;    9.200;  -12.210;  666.240
1113.388;   12.693;  -11.390;  942.180
1113.930;    8.918;  -14.540;  694.200
1114.472;    7.623;  -12.640;  606.540
1115.013;    6.578;  -11.620;  551.280
1115.555;    7.933;  -13.640;  587.100
1116.097;    6.600;  -15.380;  579.480
1116.638;    7.572;  -12.640;  684.600
1117.180;    8.460;   -9.850;  667.740
1117.721;    8.326;  -13.690;  568.580
1118.262;    8.773;  -12.680;  677.960
1118.804;    7.807;  -12.530;  637.340
1119.345;    6.136;  -11.690;  578.400
1119.886;    9.243;  -13.380;  704.040
1120.427;    7.517;  -14.070;  589.020
1120.969;    6.172;  -13.500;  597.920
1121.510;    6.795;  -11.480;  563.060
1122.051;    7.252;  -12.830;  723.580
1122.592;    6.041;  -14.290;  655.420
1123.133;    5.240;  -12.400;  547.940
1123.673;    7.200;  -10.130;  706.480
1124.214;    6.914;  -12.930;  612.460
1124.755;    7.212;  -14.380;  639.460
1125.296;    6.316;  -14.000;  627.320
1125.836;    6.644;  -10.070;  691.500
1126.377;    5.772;  -12.640;  599.660
1126.918;    6.690;  -12.960;  614.980
1127.458;    5.208;  -13.350;  622.220
1127.999;    6.208;  -10.750;  656.980
1128.539;    6.723;  -12.350;  694.240
1129.079;    5.618;  -14.860;  632.720
1129.620;    4.843;  -13.840;  558.100
1130.160;    4.648;  -12.330;  539.480
1130.700;    6.444;  -14.530;  640.840
1131.240;    6.669;  -12.530;  643.700
1131.781;    4.351;  -14.450;  619.680
1132.321;    5.203;   -9.790;  599.120
1132.861;    4.857;  -14.860;  564.200
1133.401;    4.093;  -14.290;  593.940
1133.941;    5.266;  -11.750;  626.280
1134.481;    4.114;   -9.920;  597.580
1135.020;    5.106;  -12.290;  609.160
1135.560;    4.881;  -11.650;  674.940
1136.100;    2.940;  -16.270;  501.160
1136.640;    3.283;  -10.890;  510.480
1137.179;    4.397;  -14.180;  537.960
1137.719;    4.507;  -16.250;  605.400
1138.258;    4.293;  -14.230;  587.360
1138.798;    4.627;   -9.090;  663.780
1139.337;    3.931;  -15.130;  482.840
1139.877;    4.153;  -13.680;  642.360
1140.416;    6.368;  -11.320;  878.060
1140.955;    3.187;  -10.860;  535.380
1141.494;    4.030;  -12.920;  669.280
1142.034;    2.846;  -13.930;  583.520
1142.573;    3.309;  -11.440;  646.280
1143.112;    3.033;  -12.000;  553.480
1143.651;    4.004;  -13.670;  536.480
1144.190;    4.126;  -12.730;  691.640
1144.729;    3.139;  -14.560;  607.420
1145.267;    3.271;  -11.830;  584.900
1145.806;    4.582;  -12.230;  637.040
1146.345;    2.966;  -14.130;  635.020
1146.884;    1.870;  -11.590;  622.500
1147.422;    1.722;  -12.550;  533.060
1147.961;    4.841;  -11.180;  708.460
1148.500;    3.622;  -11.510;  669.720
1149.038;    2.989;  -11.640;  632.500
1149.577;    3.276;  -10.130;  698.640
1150.115;    1.975;  -13.970;  452.280
1150.653;    2.617;  -14.520;  607.340
1151.192;    1.879;  -12.810;  552.920
1151.730;    2.285;   -9.100;  652.560
1152.268;    2.564;  -12.220;  589.520
1152.806;    1.909;  -14.140;  571.180
1153.344;   -0.012;  -12.350;  577.640
1153.882;    1.993;   -8.980;  600.060
1154.421;    0.917;  -15.190;  470.620
1154.958;    1.138;  -15.210;  595.240
1155.496;    2.349;  -12.850;  645.280
1156.034;    1.244;   -9.940;  721.880
1156.572;    2.865;  -13.570;  667.060
1157.110;    1.332;  -14.590;  473.940
1157.647;    2.279;  -13.030;  676.960
1158.185;    0.834;  -12.140;  564.320
1158.723;    0.084;  -14.390;  509.200
1159.260;    1.267;  -14.090;  701.700
1159.798;    1.568;  -11.920;  658.160
1160.335;    0.127;  -11.110;  631.820

