
Integration time [ms]:   3.276
Averaging Nr. [scans]: 1000
Smoothing Nr. [pixels]: 0
Data measured with spectrometer [name]: 7414430SP
Wave   ;Sample   ;Dark     ;Reference
[nm]   ;[counts] ;[counts] ;[counts] 

288.544;  158.546;    7.793;  793.890
289.143;  160.165;    7.462;  681.602
289.742;  161.807;    8.602;  828.814
290.341;  149.865;    1.321;  789.841
290.940;  139.283;   -0.709;  730.702
291.538;  140.486;    0.881;  881.108
292.137;  139.826;    0.122;  792.581
292.736;  142.694;   -1.929;  975.101
293.335;  138.261;   -8.229;  735.086
293.934;  140.205;   -5.279;  781.677
294.532;  140.946;   -1.369; 1031.958
295.131;  126.840;   -7.641;  834.394
295.730;  126.913;   -8.420;  809.588
296.328;  122.983;   -5.611;  783.442
296.927;  123.599;   -5.781;  779.652
297.525;  125.521;   -6.361;  781.236
298.124;  116.281;  -11.382;  654.009
298.722;  120.425;   -7.641;  761.933
299.321;  118.044;   -6.811;  708.597
299.919;  113.632;   -6.991;  751.918
300.518;  110.537;  -10.362;  689.338
301.116;  113.099;   -9.581;  691.381
301.715;  114.099;   -4.891;  730.222
302.313;  113.638;   -8.801;  704.943
302.911;  107.260;   -8.522;  733.830
303.509;  111.617;   -6.171;  925.627
304.108;  109.797;   -7.311;  760.383
304.706;  109.935;   -8.321;  801.664
305.304;  103.546;  -10.222;  796.707
305.902;  107.806;   -6.021;  784.484
306.500;  104.497;   -4.971;  728.200
307.098;  103.838;   -7.061;  746.560
307.696;  101.335;   -8.801;  780.432
308.294;  100.922;   -6.411;  731.359
308.892;  102.867;   -2.901;  759.769
309.490;  100.528;   -5.041;  712.161
310.088;   98.131;   -5.002;  788.444
310.686;  102.453;   -2.041;  821.749
311.284;   97.810;   -2.351;  766.040
311.882;   95.168;   -4.422;  731.225
312.480;   92.301;   -4.192;  697.167
313.078;   93.795;   -1.172;  808.331
313.675;   93.933;   -2.601;  691.600
314.273;   90.167;   -1.312;  797.837
314.871;   89.172;   -3.942;  589.829
315.468;   85.896;   -2.802;  652.090
316.066;   89.871;   -0.701;  694.427
316.664;   83.349;   -4.362;  656.351
317.261;   87.401;   -2.872;  910.128
317.859;   81.593;   -2.022;  768.735
318.456;   82.835;   -0.531;  830.096
319.054;   79.459;   -3.912;  787.828
319.651;   77.406;   -4.752;  759.928
320.249;   75.063;   -2.602;  810.188
320.846;   73.746;   -0.821;  714.286
321.443;   71.804;   -4.642;  832.135
322.041;   68.794;   -5.002;  812.315
322.638;   65.121;   -3.982;  701.456
323.235;   66.833;   -3.411;  665.683
323.833;   64.861;   -7.361;  740.354
324.430;   59.027;   -8.611;  615.900
325.027;   59.977;   -4.061;  876.855
325.624;   60.108;   -4.031;  644.532
326.221;   57.694;   -7.481;  689.717
326.818;   56.211;   -5.281;  818.332
327.415;   58.404;   -7.460;  748.828
328.012;   58.362;   -5.510;  690.585
328.609;   57.665;   -7.880;  731.389
329.206;   55.767;   -8.331;  778.621
329.803;   55.383;   -5.121;  737.841
330.400;   57.775;   -4.510;  704.260
330.997;   60.114;   -6.441;  817.147
331.594;   57.415;   -8.831;  788.185
332.191;   62.571;   -7.621;  728.722
332.787;   66.697;   -4.591;  844.463
333.384;   66.595;   -7.412;  763.093
333.981;   65.959;   -8.293;  815.687
334.578;   67.388;   -7.052;  708.378
335.174;   69.350;   -3.102;  731.469
335.771;   69.475;   -5.943;  836.456
336.367;   67.517;   -7.393;  710.631
336.964;   71.125;   -4.063;  793.266
337.561;   68.634;   -3.813;  731.112
338.157;   65.597;   -4.654;  911.916
338.754;   63.372;   -7.934;  796.589
339.350;   61.562;   -4.414;  722.493
339.946;   62.919;   -4.664;  773.135
340.543;   55.552;   -6.375;  846.136
341.139;   49.977;   -9.815;  720.836
341.735;   46.278;   -4.526;  772.593
342.332;   45.550;   -4.895;  691.472
342.928;   45.949;   -4.295;  795.394
343.524;   38.597;   -5.476;  761.684
344.120;   35.312;   -5.856;  738.562
344.716;   38.813;   -2.155;  723.717
345.313;   35.990;   -6.275;  795.342
345.909;   30.667;   -8.815;  627.336
346.505;   31.134;   -5.305;  740.247
347.101;   32.818;   -2.674;  827.864
347.697;   33.455;   -4.344;  785.398
348.293;   27.710;   -9.975;  627.244
348.889;   28.120;   -5.774;  745.914
349.485;   28.127;   -5.004;  688.205
350.081;   28.406;   -4.704;  772.592
350.676;   23.853;   -6.635;  691.606
351.272;   27.595;   -4.504;  809.530
351.868;   27.661;   -3.914;  780.497
352.464;   25.440;   -9.044;  723.932
353.059;   21.276;   -8.314;  646.017
353.655;   23.814;   -7.024;  777.063
354.251;   25.492;   -5.343;  759.845
354.846;   21.021;   -8.604;  740.646
355.442;   18.056;   -6.945;  753.071
356.038;   19.533;   -7.564;  751.708
356.633;   19.601;   -5.814;  728.594
357.229;   18.640;   -7.364;  724.757
357.824;   15.969;   -8.024;  703.600
358.420;   14.674;   -9.384;  679.726
359.015;   15.609;   -5.104;  695.357
359.610;   16.624;   -6.854;  763.920
360.206;   10.413;  -10.185;  603.240
360.801;   12.413;   -7.054;  646.503
361.396;   15.625;   -5.034;  725.975
361.992;   11.435;   -8.284;  668.220
362.587;    8.486;   -8.625;  670.160
363.182;    9.655;   -7.674;  689.631
363.777;   11.284;   -5.164;  738.242
364.372;   10.896;   -8.604;  737.314
364.967;    6.043;   -9.055;  680.744
365.563;   10.378;   -6.114;  815.567
366.158;    8.013;   -5.814;  685.161
366.753;    8.384;   -7.854;  649.263
367.348;    6.372;   -7.804;  746.056
367.942;    6.630;   -7.954;  697.298
368.537;    6.046;   -4.984;  754.245
369.132;    6.324;   -8.564;  703.428
369.727;    2.119;   -8.855;  638.079
370.322;    2.991;   -6.245;  580.186
370.917;    2.517;   -6.425;  710.646
371.511;    5.681;   -6.294;  861.834
372.106;    2.252;   -7.685;  776.964
372.701;   -1.612;   -7.335;  585.988
373.296;    4.465;   -4.564;  863.135
373.890;   -0.234;  -10.235;  647.840
374.485;   -2.366;   -7.885;  691.199
375.079;    0.975;   -7.324;  738.685
375.674;    1.986;   -3.494;  812.970
376.268;   -1.709;   -8.525;  691.759
376.863;   -6.632;  -10.086;  580.327
377.457;   -1.952;   -7.025;  662.490
378.052;   -3.118;   -3.585;  764.884
378.646;   -3.563;   -7.595;  741.167
379.240;   -4.360;   -8.335;  721.176
379.835;   -3.948;   -5.785;  636.978
380.429;   -5.510;   -4.335;  562.557
381.023;   -4.825;   -6.805;  779.205
381.617;   -7.810;   -9.195;  680.106
382.212;   -4.869;   -6.905;  685.303
382.806;   -3.906;   -3.745;  760.690
383.400;   -7.176;   -7.745;  672.281
383.994;   -8.617;   -9.765;  664.870
384.588;   -5.492;   -6.564;  697.701
385.182;   -3.958;   -5.344;  726.624
385.776;   -4.809;   -8.514;  706.875
386.370;   -8.483;   -9.555;  681.968
386.964;   -7.713;   -8.715;  684.155
387.558;   -5.927;   -6.174;  598.360
388.152;   -8.922;   -8.725;  681.959
388.745;   -7.378;   -7.965;  814.707
389.339;   -6.386;   -5.924;  747.642
389.933;   -5.028;   -5.524;  695.370
390.527;   -5.655;   -7.114;  859.029
391.120;  -12.137;  -10.725;  595.318
391.714;   -9.491;   -8.035;  711.633
392.308;   -5.711;   -3.574;  780.253
392.901;   -9.782;   -7.245;  642.460
393.495;  -11.586;   -9.285;  595.414
394.089;  -10.213;   -5.895;  760.452
394.682;  -10.258;   -4.295;  697.188
395.275;  -10.678;   -9.875;  719.927
395.869;  -12.129;   -8.485;  667.314
396.462;  -10.058;   -7.455;  616.609
397.056;   -5.754;   -5.424;  776.621
397.649;  -10.745;   -6.605;  731.575
398.242;   -8.430;   -8.224;  712.645
398.836;   -7.895;   -7.474;  766.408
399.429;   -9.169;   -7.094;  631.041
400.022;  -11.937;   -9.475;  665.902
400.615;   -9.162;   -7.145;  805.609
401.208;   -8.624;   -7.174;  691.451
401.802;   -9.869;   -5.515;  699.329
402.395;  -11.109;   -9.875;  683.502
402.988;  -11.580;   -8.845;  696.627
403.581;   -9.496;   -8.874;  646.878
404.174;   -6.832;   -5.324;  686.568
404.767;   -9.259;   -9.575;  638.583
405.360;  -12.162;  -10.965;  621.445
405.953;   -7.556;   -8.764;  759.034
406.545;   -6.310;   -7.514;  725.342
407.138;   -9.904;  -10.025;  618.350
407.731;   -8.856;  -10.034;  613.303
408.324;   -5.453;   -9.374;  660.554
408.917;   -6.935;   -6.534;  681.864
409.509;   -7.637;   -8.004;  740.396
410.102;   -9.855;   -9.875;  643.948
410.695;   -4.029;   -8.604;  665.758
411.287;   -4.986;   -6.794;  599.821
411.880;   -5.814;   -9.334;  585.421
412.472;   -9.087;  -10.254;  613.092
413.065;   -6.580;   -6.714;  629.408
413.657;   -4.228;   -7.234;  576.678
414.250;   -3.343;  -10.544;  646.681
414.842;   -5.651;   -9.744;  676.353
415.434;   -3.450;   -6.994;  570.463
416.027;    0.504;   -5.893;  652.196
416.619;   -0.837;   -7.264;  713.400
417.211;   -1.743;  -10.374;  599.352
417.804;    1.083;   -7.993;  628.499
418.396;   -1.746;   -7.234;  607.643
418.988;    0.148;   -9.443;  659.238
419.580;   -3.415;  -10.724;  568.276
420.172;   -1.961;  -10.323;  536.196
420.764;    2.759;   -8.793;  672.482
421.356;    2.343;  -11.143;  636.898
421.948;    1.305;   -8.293;  677.661
422.540;    5.842;   -7.893;  680.027
423.132;    5.555;   -7.082;  600.641
423.724;    2.806;   -8.653;  561.267
424.316;    5.456;  -10.213;  621.345
424.908;    7.579;   -9.762;  591.517
425.500;    8.551;   -5.572;  647.978
426.092;    9.562;   -8.422;  648.268
426.683;    7.432;   -9.283;  684.836
427.275;   10.022;   -7.852;  641.471
427.867;   11.783;   -5.272;  668.948
428.458;   13.255;   -7.682;  732.344
429.050;   10.914;  -10.612;  680.749
429.642;   12.784;   -9.882;  743.124
430.233;   14.374;   -6.962;  569.356
430.825;   15.992;   -6.842;  724.809
431.416;   12.812;   -9.672;  698.241
432.008;   16.508;   -6.552;  651.723
432.599;   17.659;   -6.891;  656.073
433.190;   14.563;  -10.912;  637.670
433.782;   14.035;  -11.172;  590.395
434.373;   20.771;   -6.061;  884.765
434.964;   19.172;   -8.251;  602.920
435.556;   17.648;   -9.722;  634.537
436.147;   20.006;   -9.082;  758.490
436.738;   19.258;   -8.041;  701.099
437.329;   25.470;   -7.341;  721.723
437.920;   18.939;   -8.162;  666.688
438.511;   18.500;  -11.802;  564.526
439.103;   24.766;  -10.191;  623.998
439.694;   26.489;   -7.601;  681.583
440.285;   27.564;   -8.541;  764.432
440.876;   25.795;   -9.751;  845.738
441.466;   24.244;   -9.401;  575.162
442.057;   30.683;   -7.760;  665.814
442.648;   29.671;   -9.971;  746.255
443.239;   27.948;  -11.001;  620.477
443.830;   32.275;   -7.990;  704.958
444.421;   34.474;   -7.910;  655.474
445.011;   31.316;   -8.131;  693.619
445.602;   30.825;   -7.111;  743.126
446.193;   32.854;  -10.920;  488.117
446.783;   37.011;   -6.500;  640.397
447.374;   33.367;   -8.671;  692.759
447.964;   33.397;  -10.781;  713.770
448.555;   41.761;   -9.650;  822.742
449.145;   38.415;   -8.660;  662.853
449.736;   40.061;   -8.990;  803.179
450.326;   39.045;   -9.500;  713.626
450.917;   43.591;   -8.680;  675.324
451.507;   43.294;   -7.520;  600.661
452.097;   44.436;   -8.590;  746.267
452.688;   46.014;  -11.340;  742.160
453.278;   44.660;  -10.100;  566.840
453.868;   49.513;   -6.019;  793.550
454.458;   46.384;   -9.440;  651.141
455.048;   48.410;  -10.560;  711.783
455.639;   49.846;  -11.799;  567.096
456.229;   52.562;   -6.899;  710.694
456.819;   55.107;   -7.389;  751.158
457.409;   55.478;  -11.119;  773.993
457.999;   58.324;   -9.289;  737.505
458.589;   58.503;   -6.139;  686.606
459.179;   59.159;   -8.729;  717.658
459.769;   56.097;   -9.789;  627.099
460.358;   61.067;  -10.259;  797.262
460.948;   61.933;   -7.299;  689.503
461.538;   63.811;  -10.289;  660.677
462.128;   60.471;  -11.269;  664.934
462.717;   66.970;   -9.368;  710.326
463.307;   70.189;   -7.908;  705.846
463.897;   66.490;   -9.599;  656.942
464.486;   66.184;   -9.769;  837.128
465.076;   69.936;   -8.048;  733.776
465.666;   73.597;   -9.358;  652.900
466.255;   71.982;   -7.919;  785.651
466.845;   71.081;  -11.689;  666.749
467.434;   73.786;   -7.818;  725.873
468.023;   74.728;   -7.678;  658.357
468.613;   73.350;  -10.939;  713.946
469.202;   76.823;  -10.118;  646.507
469.791;   81.312;   -9.108;  737.811
470.381;   83.722;   -6.058;  742.813
470.970;   83.506;  -10.428;  711.099
471.559;   83.158;  -10.268;  733.291
472.148;   86.078;   -8.448;  675.737
472.738;   88.952;   -6.917;  765.466
473.327;   88.935;  -11.978;  637.529
473.916;   87.800;  -11.888;  737.446
474.505;   91.754;   -9.437;  751.703
475.094;   95.468;   -6.747;  806.570
475.683;   95.551;   -9.367;  797.699
476.272;   96.200;  -12.637;  730.632
476.861;   98.372;  -10.027;  706.754
477.449;  104.906;   -8.716;  728.487
478.038;  100.028;   -9.577;  692.513
478.627;  101.407;   -9.718;  714.852
479.216;  107.609;   -8.947;  769.441
479.805;  110.882;   -6.256;  783.375
480.393;  110.372;   -7.937; 1008.945
480.982;  110.430;   -7.717;  874.501
481.571;  116.651;   -9.266;  858.333
482.159;  117.112;   -7.636;  705.386
482.748;  117.993;   -9.667;  821.385
483.336;  121.579;  -10.376;  858.209
483.925;  122.466;   -7.147;  774.373
484.513;  130.006;   -7.996;  758.962
485.102;  127.186;  -10.027;  810.965
485.690;  136.243;  -10.446; 1011.050
486.278;  137.336;   -8.446;  979.329
486.867;  138.512;   -6.356;  809.662
487.455;  140.927;   -9.136;  898.229
488.043;  142.685;  -10.646;  748.361
488.631;  152.465;   -7.456; 1005.079
489.220;  156.148;   -6.636;  908.626
489.808;  156.802;  -11.036;  741.415
490.396;  165.760;  -10.246;  914.645
490.984;  172.791;   -8.556;  830.161
491.572;  184.702;   -5.886;  940.315
492.160;  193.692;   -9.486;  919.081
492.748;  207.896;  -10.976;  884.341
493.336;  232.631;   -8.776; 1019.693
493.924;  263.961;   -5.465;  958.077
494.512;  301.829;   -9.986; 1066.638
495.100;  353.732;  -10.636; 1103.280
495.687;  419.856;  -10.885; 1206.373
496.275;  478.497;   -8.126; 1150.796
496.863;  555.979;  -10.586; 1281.171
497.451;  684.809;  -11.926; 1386.805
498.038;  800.156;  -10.885; 1556.729
498.626;  905.724;   -6.315; 1741.407
499.214; 1072.567;   -7.326; 2016.609
499.801; 1313.160;  -11.906; 2220.633
500.389; 1580.477;  -10.466; 2312.494
500.976; 1842.118;   -5.236; 2744.849
501.564; 2307.933;   -8.936; 3148.565
502.151; 2846.178;  -13.176; 3515.999
502.738; 3405.466;  -10.646; 3971.274
503.326; 3795.894;   -9.525; 4403.796
503.913; 4104.769;  -10.856; 5161.749
504.500; 4637.205;  -11.586; 5986.420
505.088; 4999.790;  -10.336; 6381.201
505.675; 5526.890;   -6.355; 6925.547
506.262; 6024.456;   -9.046; 7619.060
506.849; 6506.165;  -10.416; 8733.969
507.436; 7050.432;  -10.305; 9790.121
508.023; 7578.426;   -5.496; 9985.472
508.610; 8547.853;   -7.856;10434.618
509.197;10027.695;  -10.097;11198.435
509.784;11623.589;  -10.886;12391.194
510.371;13076.558;   -9.315;13603.713
510.958;13918.232;   -9.936;14426.586
511.545;14486.809;   -9.326;15243.775
512.132;15230.668;  -10.075;15945.876
512.719;15479.366;   -7.796;16340.369
513.305;16375.083;  -10.606;18011.766
513.892;17827.061;  -11.486;19754.971
514.479;19810.623;   -9.126;20967.805
515.066;21613.088;   -6.026;22299.793
515.652;21816.779;   -8.466;22908.660
516.239;22796.625;  -10.886;23798.875
516.825;25218.264;  -11.496;25567.275
517.412;27540.881;   -5.796;28154.959
517.998;29677.783;  -10.506;28344.111
518.585;29377.273;  -10.076;27134.219
519.171;27893.732;   -8.315;27268.576
519.758;28538.504;   -8.596;28964.129
520.344;29723.727;   -8.466;30664.494
520.930;32291.854;  -11.006;32550.605
521.516;32668.385;  -10.495;35422.895
522.103;31378.635;   -5.526;38280.004
522.689;32020.209;   -8.746;37835.117
523.275;33922.445;  -11.376;37288.613
523.861;36098.609;  -11.156;37281.395
524.447;39891.563;   -8.135;37846.949
525.033;40974.738;   -7.896;38321.949
525.619;40013.316;  -12.476;38579.285
526.205;39998.238;   -9.516;40622.875
526.791;39721.293;   -6.926;42258.836
527.377;41025.723;   -8.346;42966.902
527.963;42776.664;   -8.717;42018.949
528.549;41589.242;  -11.016;42476.828
529.135;41875.547;   -8.536;41854.852
529.721;41354.641;   -9.666;41237.711
530.306;39687.168;  -10.066;41259.445
530.892;40121.809;  -11.356;41506.047
531.478;39737.012;   -6.596;43559.613
532.063;40477.992;   -8.836;47695.563
532.649;44082.281;  -10.047;50808.324
533.235;45478.770;   -9.746;51787.500
533.820;44445.145;   -6.566;52145.035
534.406;43635.395;  -10.817;51133.488
534.991;46770.723;   -9.416;49996.805
535.576;48207.828;   -9.036;48882.852
536.162;48440.484;   -6.156;46942.285
536.747;49374.492;  -11.607;45711.746
537.333;49544.348;  -11.787;48510.180
537.918;49437.117;  -12.437;50439.891
538.503;50311.086;   -7.196;50863.711
539.088;48311.695;  -10.556;50906.922
539.673;46772.875;   -8.767;52621.965
540.259;48179.949;  -10.026;52368.094
540.844;49944.289;   -7.416;50879.109
541.429;48403.152;   -9.467;52077.777
542.014;47901.090;   -9.527;52716.695
542.599;50792.805;   -9.946;52363.281
543.184;53855.453;   -7.927;53187.137
543.769;52047.184;   -9.297;54697.605
544.354;48451.418;  -10.127;53913.914
544.938;46734.773;   -9.267;49680.164
545.523;49133.402;   -6.506;47386.277
546.108;52680.660;   -9.787;49151.949
546.693;52286.949;  -11.587;51384.637
547.278;52410.938;  -10.986;51853.254
547.862;49004.047;   -8.206;51173.750
548.447;46086.727;  -10.067;51691.395
549.031;46770.695;   -9.637;52456.703
549.616;47931.176;   -9.926;52714.516
550.201;46771.383;   -6.347;52414.598
550.785;45609.246;   -7.917;52355.059
551.370;46344.898;  -10.867;54589.453
551.954;47547.113;   -9.047;58267.348
552.538;49515.828;   -7.827;59062.176
553.123;49474.297;  -10.287;58115.285
553.707;44969.832;  -12.178;56556.285
554.291;45463.324;   -8.717;56201.668
554.876;48689.258;   -7.457;55335.762
555.460;49815.281;  -10.387;54155.703
556.044;50639.727;   -9.618;53721.484
556.628;49773.563;  -11.567;53731.016
557.212;47830.109;   -8.097;54312.531
557.796;49051.832;  -11.077;53797.773
558.380;47267.027;  -11.108;56145.984
558.964;45963.344;   -9.057;57277.930
559.548;45871.438;   -6.977;56459.641
560.132;44777.223;  -11.457;54434.543
560.716;43414.211;  -11.378;54800.617
561.300;44429.668;   -9.577;57606.945
561.884;46690.848;   -7.127;58972.445
562.467;47581.559;   -7.118;57327.570
563.051;47359.445;  -13.358;54962.434
563.635;44695.613;  -10.178;52594.473
564.219;43791.633;   -7.837;50610.410
564.802;43309.867;  -11.398;49551.180
565.386;44562.773;  -12.788;48370.953
565.969;45443.473;   -9.077;48178.871
566.553;45903.066;   -6.207;49957.305
567.136;43042.184;   -8.568;50369.594
567.720;41990.391;  -11.868;49492.004
568.303;42233.152;   -8.268;50616.352
568.887;40754.090;   -8.698;50727.148
569.470;40316.723;   -6.808;51698.379
570.053;38866.391;  -13.188;52122.078
570.637;37667.449;  -12.037;52536.438
571.220;37464.625;   -8.577;51186.098
571.803;38261.949;   -8.498;51032.762
572.386;40518.824;  -10.498;49609.887
572.969;41982.418;   -9.388;48285.926
573.552;38337.586;   -8.338;47624.285
574.135;36607.809;   -8.518;45498.641
574.718;33299.078;  -13.628;41970.434
575.301;32585.105;  -10.893;41447.137
575.884;31871.133;   -8.158;40923.836
576.467;36511.238;  -10.328;45267.723
577.050;34923.344;  -13.058;48175.543
577.633;33756.336;   -9.458;47729.328
578.216;35436.250;   -8.928;47579.793
578.799;36792.773;   -9.358;47820.996
579.381;36212.238;  -11.388;48115.551
579.964;33137.371;  -11.718;47333.766
580.547;33058.449;   -8.588;46668.969
581.129;34569.891;   -8.859;44466.141
581.712;34870.121;  -10.729;44164.922
582.294;36524.043;  -11.118;46477.855
582.877;34386.695;   -5.218;48244.254
583.459;34607.938;   -8.679;47437.895
584.042;36484.355;  -10.709;46943.219
584.624;38681.582;  -11.669;46792.227
585.206;37345.293;   -8.218;46557.250
585.789;35952.113;  -10.569;45793.773
586.371;36186.172;  -11.859;43836.391
586.953;34939.879;  -10.719;42972.492
587.536;36697.000;   -7.198;42487.211
588.118;37857.871;   -8.720;42086.414
588.700;37205.441;  -10.439;43389.930
589.282;37156.926;   -9.198;43646.039
589.864;36288.859;   -9.199;43438.109
590.446;33929.379;  -11.319;43151.926
591.028;33307.328;  -11.159;42781.867
591.610;33063.219;  -11.779;42839.098
592.192;29713.354;   -7.668;42820.402
592.774;30639.117;  -11.949;40724.277
593.356;31855.363;  -12.129;39874.789
593.937;30135.693;  -10.669;39980.648
594.519;31459.881;   -6.509;42069.633
595.101;33389.383;  -10.849;42976.031
595.683;32013.947;  -11.679;44084.441
596.264;31413.867;   -9.049;43478.797
596.846;33542.438;   -8.849;43803.672
597.427;33909.688;   -9.570;42986.934
598.009;35092.262;  -12.620;42832.219
598.591;34289.809;  -10.039;42580.086
599.172;33212.637;  -10.369;43061.805
599.753;31591.023;   -9.140;41691.469
600.335;31642.982;  -11.430;40692.520
600.916;31899.752;   -9.939;39982.422
601.498;30509.703;   -8.479;40318.617
602.079;29379.051;  -10.920;40670.609
602.660;31369.373;  -11.480;41450.898
603.241;33027.000;  -11.699;41137.738
603.823;33414.230;   -9.579;38868.797
604.404;33222.504;  -10.620;38182.785
604.985;31886.842;  -10.450;38078.047
605.566;31164.588;   -9.129;38056.633
606.147;30939.025;   -7.510;37020.418
606.728;32137.621;  -10.660;37883.359
607.309;32955.477;  -11.740;38748.273
607.890;32467.664;   -9.759;38850.230
608.471;31147.182;   -8.250;37457.918
609.051;31810.834;   -9.240;36066.457
609.632;29795.723;  -12.120;35991.074
610.213;28254.008;   -9.110;37402.641
610.794;30263.105;   -8.030;38383.363
611.374;32890.578;   -8.110;40562.387
611.955;32538.717;  -13.560;38533.727
612.536;29855.674;  -11.400;36951.789
613.116;28661.334;   -8.070;37197.891
613.697;30555.656;  -10.830;38411.125
614.277;31964.109;  -11.641;38673.938
614.858;31412.561;  -13.310;37075.863
615.438;29708.189;   -7.460;35092.906
616.019;28224.645;   -7.601;33666.301
616.599;28987.832;  -12.020;34189.023
617.179;30762.818;  -11.780;36952.047
617.760;33634.469;   -8.570;39582.574
618.340;33759.434;  -11.471;38943.977
618.920;32184.705;  -11.170;37594.156
619.500;34001.477;  -11.071;37866.938
620.080;34236.566;   -7.750;37869.043
620.660;32441.834;  -12.711;36868.617
621.241;30655.385;  -10.211;36352.309
621.821;29616.145;  -10.961;35459.520
622.401;28912.396;   -7.720;35207.414
622.980;29939.590;   -8.981;35980.422
623.560;30302.164;   -9.331;37351.328
624.140;29192.775;   -9.850;34388.582
624.720;26640.273;   -7.451;32368.764
625.300;24935.900;   -9.070;32638.629
625.880;28321.922;  -12.601;34599.035
626.459;30343.990;  -11.751;36831.738
627.039;31456.238;   -9.281;38299.098
627.619;33371.484;   -8.801;38289.574
628.198;32413.074;  -12.071;37220.695
628.778;31140.529;   -9.461;37632.563
629.357;32009.002;   -8.491;38003.012
629.937;32182.414;   -9.721;38402.039
630.516;32286.684;   -9.951;37868.801
631.096;32576.631;  -11.731;35760.410
631.675;34082.414;   -8.572;35225.219
632.254;33701.215;  -11.282;35130.289
632.834;33022.629;  -13.322;35794.570
633.413;32803.371;  -10.301;35788.922
633.992;32059.105;   -8.582;34532.863
634.571;33490.363;   -8.352;33590.113
635.151;33443.910;  -11.912;34943.863
635.730;32994.395;  -10.511;35352.523
636.309;35296.039;   -7.731;35366.605
636.888;32857.246;   -9.952;36165.637
637.467;31073.369;  -11.672;37515.902
638.046;31205.398;   -8.901;39288.695
638.625;32453.143;   -7.912;38279.699
639.204;32682.750;  -10.022;37741.598
639.782;30487.188;  -12.252;38364.551
640.361;28544.135;  -10.041;36740.621
640.940;27707.834;  -11.161;34950.082
641.519;28966.904;   -9.701;34137.398
642.097;30966.848;  -11.271;35654.258
642.676;32716.576;   -8.651;35637.957
643.255;33997.102;   -8.711;36567.074
643.833;31518.652;   -9.581;37809.434
644.412;28997.930;  -13.711;37337.293
644.990;30982.057;  -11.811;37018.531
645.569;33504.207;   -9.411;36518.469
646.147;32522.883;  -10.291;36186.430
646.726;31357.357;  -12.401;36267.688
647.304;31355.344;  -10.411;36647.625
647.882;30645.893;   -9.651;39286.742
648.461;32106.260;   -9.631;39157.703
649.039;35496.563;  -11.881;35412.883
649.617;35618.676;   -9.661;34744.918
650.195;33352.941;   -9.301;35403.098
650.773;32130.967;  -10.511;35053.797
651.352;31114.379;  -11.521;33756.816
651.930;28970.152;  -12.211;31868.773
652.508;26053.770;   -9.171;33121.551
653.086;26998.273;   -9.371;33564.793
653.663;32408.311;  -13.161;34054.668
654.241;35785.781;  -13.031;35693.309
654.819;36864.871;   -9.371;36422.906
655.397;37107.406;  -10.511;38213.484
655.975;33773.125;  -10.371;39507.625
656.553;30581.592;  -10.051;39498.223
657.130;29153.236;  -10.061;40395.480
657.708;27307.393;   -9.561;39242.020
658.286;24607.586;  -11.511;38920.020
658.863;26464.367;  -10.261;40202.898
659.441;30201.756;   -7.531;39677.938
660.018;32346.777;   -9.501;40413.355
660.596;31526.857;  -13.301;39931.414
661.173;31053.475;  -11.211;39604.531
661.750;32939.191;   -9.951;39700.070
662.328;32249.082;   -9.390;39292.809
662.905;30922.951;  -11.330;38235.648
663.482;28133.420;   -9.050;36212.305
664.060;25174.383;   -8.240;35944.945
664.637;25839.365;  -10.050;35170.785
665.214;29120.232;  -11.760;34197.523
665.791;29792.855;  -10.530;34549.520
666.368;28811.242;   -9.690;35118.578
666.945;30338.947;   -9.320;36019.418
667.522;30890.457;  -11.860;36048.438
668.099;32179.965;  -10.770;36243.914
668.676;32260.131;   -6.260;35958.875
669.253;34634.438;   -7.000;37384.730
669.830;35804.250;  -10.190;36779.629
670.407;32558.822;   -9.550;35231.289
670.984;32915.949;   -9.260;35544.270
671.560;30030.031;   -9.280;35466.867
672.137;25935.932;  -11.810;34280.863
672.714;27958.990;  -11.490;34632.863
673.290;31792.813;   -7.740;35135.422
673.867;31484.592;  -10.660;36114.480
674.443;31546.912;  -12.230;36152.859
675.020;31335.010;  -10.450;35327.238
675.596;30075.402;   -9.260;35795.176
676.173;29136.275;  -10.780;35430.355
676.749;28697.420;  -13.690;33549.516
677.326;28435.973;  -11.980;32210.012
677.902;27939.402;   -8.630;32068.871
678.478;29559.133;  -10.730;32583.891
679.054;30079.855;  -10.520;32088.928
679.631;29545.730;  -11.920;30978.848
680.207;29585.457;   -7.490;33160.887
680.783;31442.309;   -9.860;35570.363
681.359;32941.617;  -13.380;36125.184
681.935;33615.551;  -12.480;35240.922
682.511;32803.238;   -7.900;34429.961
683.087;31651.234;   -7.710;34463.680
683.663;31147.834;  -11.480;34648.898
684.239;29842.855;  -14.090;34546.457
684.815;28702.305;   -7.560;35586.375
685.390;29318.971;   -9.910;35821.895
685.966;30906.289;  -11.159;35085.871
686.542;32206.543;  -11.169;34198.230
687.118;33324.020;   -5.959;32847.707
687.693;32367.895;  -10.329;32794.027
688.269;33108.582;  -12.059;33072.367
688.844;33197.859;  -10.909;33141.664
689.420;30531.346;   -8.019;33965.742
689.995;29453.383;   -8.399;34655.523
690.571;30676.922;  -10.949;33576.742
691.146;29993.541;   -9.619;32657.219
691.722;28466.461;   -8.999;32526.979
692.297;27851.836;  -11.589;33014.617
692.872;27967.574;  -11.739;34012.254
693.448;30795.865;  -11.059;34237.434
694.023;31034.346;  -10.139;34142.672
694.598;28950.377;   -9.029;34132.031
695.173;30205.211;  -13.319;34205.250
695.748;30509.627;  -10.169;32882.488
696.323;28337.807;   -8.339;32864.906
696.898;27126.486;   -8.169;33170.004
697.473;27763.752;  -12.309;32432.984
698.048;27857.320;  -10.989;31649.303
698.623;26808.209;   -9.329;30778.141
699.198;27843.182;   -9.849;31140.119
699.773;28522.092;  -12.329;31764.299
700.348;29705.826;  -10.389;31780.816
700.922;30103.904;   -9.269;32046.375
701.497;30794.752;   -9.329;32603.574
702.072;31686.977;  -10.789;34799.871
702.646;30827.510;  -10.839;35793.172
703.221;30490.750;   -9.099;35201.590
703.795;32354.271;  -10.939;34764.527
704.370;29726.561;  -12.859;34307.367
704.944;28053.617;  -11.559;33509.887
705.519;29245.994;   -7.939;31388.584
706.093;31267.766;  -10.499;31340.104
706.668;33268.719;  -11.289;32630.281
707.242;32693.848;  -11.509;32728.779
707.816;30575.053;   -9.639;32947.238
708.390;29410.479;  -11.429;33277.855
708.965;29090.158;  -11.869;33834.336
709.539;30871.504;  -11.689;33709.273
710.113;31148.229;  -10.478;33044.313
710.687;30369.789;  -10.228;31953.992
711.261;29583.105;  -13.698;30505.949
711.835;29880.096;  -13.378;30262.369
712.409;28752.979;   -9.698;31254.447
712.983;28192.605;  -11.898;32754.986
713.557;30436.334;  -15.138;34018.824
714.131;28653.553;  -14.098;34579.625
714.704;28303.779;   -9.958;33890.262
715.278;30343.924;  -10.028;33531.102
715.852;28865.912;  -11.148;33601.660
716.425;27782.365;   -9.068;33515.117
716.999;26848.555;  -10.038;33185.555
717.573;26569.906;   -9.798;33905.996
718.146;25824.545;  -12.378;35199.293
718.720;25966.041;  -11.918;35060.551
719.293;26236.547;   -8.088;34973.230
719.867;28408.982;  -10.888;36394.449
720.440;30426.564;  -11.938;36663.008
721.013;31248.162;  -12.818;35102.426
721.587;29103.395;  -10.298;33985.266
722.160;27037.203;  -10.048;33524.965
722.733;26080.666;  -12.108;32987.043
723.306;26262.023;  -10.818;33066.301
723.880;27982.207;   -8.908;33399.500
724.453;27619.410;   -9.878;33468.297
725.026;28168.420;  -11.188;33816.637
725.599;30928.455;  -11.678;32797.996
726.172;30103.994;   -9.618;33187.434
726.745;27502.678;   -8.258;35136.613
727.318;27077.961;  -12.978;35751.730
727.891;26725.654;  -12.148;35890.430
728.463;26022.947;   -8.968;34822.090
729.036;25730.240;  -10.188;32895.086
729.609;25582.475;  -11.788;31823.225
730.182;23538.691;  -11.788;31445.283
730.754;22156.738;  -10.268;32373.223
731.327;22600.168;   -9.998;33676.820
731.900;24133.646;  -12.228;33417.000
732.472;23915.154;  -13.848;31978.498
733.045;22802.293;   -8.698;30368.777
733.617;22317.275;  -10.607;30574.215
734.190;24338.424;  -11.507;31280.975
734.762;25317.350;  -13.647;31674.412
735.334;26482.314;   -9.767;31247.291
735.907;26756.516;   -9.897;29876.211
736.479;26541.680;  -11.637;29808.488
737.051;27778.025;   -9.567;30233.547
737.623;27313.418;   -8.187;31469.086
738.195;25879.588;  -11.187;31784.225
738.768;24434.250;  -12.337;32120.523
739.340;22777.906;  -12.227;32094.342
739.912;22095.453;  -11.057;31312.680
740.484;22153.174;  -10.207;31946.238
741.056;21784.650;  -10.047;32984.059
741.628;22714.303;  -13.627;33897.715
742.199;23672.762;   -7.177;33213.016
742.771;26030.580;  -10.797;31369.113
743.343;27006.178;  -11.997;31865.473
743.915;26724.309;  -12.867;32388.631
744.487;24199.654;   -7.617;31079.568
745.058;21319.662;   -9.557;30570.107
745.630;22024.352;   -9.877;29970.127
746.201;23483.074;  -14.177;29186.766
746.773;23988.443;   -9.237;28805.723
747.344;22276.777;   -9.847;29591.223
747.916;20570.396;  -11.657;31412.201
748.487;21462.061;  -10.587;32194.898
749.059;23182.145;   -8.707;32533.719
749.630;23552.332;  -10.537;32158.518
750.201;22961.936;  -11.687;30855.395
750.773;21828.477;  -11.647;28622.555
751.344;21676.115;   -7.147;28405.732
751.915;23552.980;   -9.757;28461.551
752.486;24534.604;  -12.427;27842.850
753.057;23580.590;  -12.227;27845.008
753.628;23641.637;  -10.417;27728.107
754.199;23136.246;  -11.767;27381.086
754.770;22807.209;  -11.187;25882.203
755.341;21815.195;  -10.507;25886.184
755.912;20317.268;   -9.387;26050.861
756.483;18874.168;  -10.647;26798.779
757.054;19275.484;  -11.837;27048.238
757.625;19330.443;  -12.716;26294.838
758.195;19089.410;   -9.666;26142.076
758.766;19261.770;   -8.656;26392.234
759.337;18751.350;  -12.856;26334.594
759.907;18590.520;  -13.366;27579.652
760.478;18444.527;   -8.576;28352.770
761.048;19452.611;  -10.526;27325.088
761.619;19464.117;  -11.116;26460.428
762.189;18022.459;  -12.136;26029.826
762.760;17697.926;   -9.456;26430.145
763.330;18187.949;   -7.136;26670.902
763.900;18388.650;  -11.786;26603.021
764.471;17786.197;  -11.546;25542.740
765.041;16828.113;   -8.096;24358.459
765.611;16259.956;   -8.876;23991.297
766.181;16368.389;  -12.196;24470.236
766.751;16060.970;  -11.636;24845.975
767.321;16843.463;  -10.156;24533.633
767.891;16188.604;  -11.766;24916.492
768.461;16485.850;  -14.936;24776.771
769.031;17708.914;  -12.356;24757.988
769.601;18340.643;   -7.526;24181.088
770.171;18045.865;  -10.766;23670.387
770.741;17184.264;  -13.176;22960.045
771.311;16728.152;  -10.616;22917.523
771.880;17081.717;   -9.576;23562.941
772.450;16744.309;  -10.336;24216.500
773.020;16438.531;  -13.516;24140.398
773.589;16993.594;  -13.466;24414.857
774.159;16744.133;   -8.686;23858.717
774.729;15447.156;   -9.476;22942.135
775.298;13766.400;  -13.666;22324.033
775.867;13568.095;  -11.716;21140.313
776.437;13798.529;   -9.906;20838.092
777.006;13091.825;  -12.166;20599.510
777.576;12589.395;  -12.356;20508.809
778.145;12503.401;  -11.646;20732.947
778.714;12938.461;   -8.226;21062.465
779.283;13884.247;   -9.556;20949.664
779.853;14387.877;  -14.116;20508.623
780.422;13793.565;  -11.506;20649.082
780.991;13395.979;   -9.556;21527.520
781.560;13200.854;   -9.095;22632.658
782.129;13113.924;  -12.135;23048.277
782.698;12977.952;  -10.865;23438.555
783.267;12617.879;   -9.335;23267.734
783.836;12722.448;  -11.045;22415.133
784.404;13346.778;  -13.865;20443.152
784.973;12622.074;  -13.095;19699.150
785.542;11335.571;  -11.575;19763.828
786.111;10757.792;   -9.705;20341.408
786.679;11454.173;  -12.105;20207.967
787.248;11686.694;  -12.455;19516.465
787.817;11321.001;  -11.535;18900.363
788.385;11419.995;   -9.765;17879.121
788.954;11524.934;  -14.005;17658.301
789.522;11046.262;  -11.955;17788.879
790.090;11320.311;  -10.135;18118.277
790.659;12224.886;  -10.975;18338.736
791.227;12093.089;  -13.375;18508.615
791.795;11439.370;  -12.375;17898.254
792.364;10909.454;  -10.725;17295.133
792.932;11005.170;   -9.715;16822.051
793.500;11159.711;  -12.675;17040.148
794.068;10910.717;  -13.495;17179.787
794.636; 9694.931;  -10.885;16664.246
795.204; 8626.544;  -11.045;16524.545
795.772; 9370.903;  -13.175;17274.564
796.340;10593.476;  -12.445;17891.002
796.908;10373.645;   -9.735;17648.561
797.476;10692.180;   -9.815;17064.080
798.044;11445.188;  -13.985;16672.777
798.612;11260.962;  -13.115;17023.996
799.180;10047.536;  -10.185;16561.615
799.747; 9156.572;   -9.055;15962.773
800.315; 8626.859;  -12.385;15296.992
800.883; 8892.331;  -15.035;14801.771
801.450; 9112.018;  -10.365;14534.430
802.018; 9172.430;   -9.855;14173.248
802.585; 9345.190;  -11.905;14029.547
803.153; 8970.327;  -11.585;13836.846
803.720; 8434.024;   -9.095;13567.324
804.287; 8547.366;   -9.135;13360.622
804.855; 8892.096;  -11.604;13681.981
805.422; 9001.523;  -11.794;13536.560
805.989; 8814.434;  -10.734;13355.958
806.556; 8319.595;  -10.444;13747.896
807.124; 8171.391;  -12.764;13987.376
807.691; 8720.903;  -12.964;14038.674
808.258; 9065.863;  -11.134;14120.152
808.825; 9260.725;   -9.854;13860.111
809.392; 8911.667;  -10.504;13268.790
809.959; 8382.546;  -13.054;12680.389
810.526; 8212.717;   -8.294;12427.308
811.093; 7923.405;   -8.394;12030.105
811.659; 7227.418;  -12.304;11653.664
812.226; 7047.491;  -13.944;11637.183
812.793; 7513.821;  -10.484;11611.521
813.360; 7590.507;  -10.144;11885.181
813.926; 6935.443;  -11.684;12770.539
814.493; 6367.296;  -13.644;12677.638
815.060; 6264.890;   -9.724;11974.336
815.626; 6575.019;   -9.854;11594.715
816.193; 6536.058;  -13.254;11579.474
816.759; 6463.932;  -13.204;11666.972
817.325; 6260.188;   -9.434;11325.530
817.892; 5990.556;  -10.134;11105.369
818.458; 5965.066;  -13.474;10843.928
819.024; 5964.031;  -11.854;10714.406
819.591; 6267.539;  -10.244;10469.165
820.157; 6419.045;  -10.704;10235.523
820.723; 6708.261;  -12.324;10847.563
821.289; 7090.527;   -9.444;11040.980
821.855; 7064.548;   -8.374;10357.100
822.421; 6630.348;  -10.234; 9978.918
822.987; 6387.208;  -13.294; 9754.177
823.553; 6249.745;  -10.884;10065.755
824.119; 5859.536;   -8.884;10036.294
824.685; 5719.636;   -6.784;10029.192
825.251; 5692.280;  -12.004;10199.230
825.816; 5829.734;  -11.474; 9820.189
826.382; 5620.089;   -9.174; 9297.248
826.948; 5347.926;   -9.214; 9381.347
827.513; 5135.922;  -10.774; 9450.726
828.079; 5062.739;  -11.924; 9472.444
828.645; 5085.777;  -10.543; 9292.643
829.210; 5242.857;  -10.533; 9065.341
829.776; 5283.000;  -10.753; 9132.620
830.341; 5254.558;  -10.173; 9092.878
830.906; 5390.334;  -10.743; 9078.557
831.472; 5270.087;  -11.113; 8534.535
832.037; 4755.624;  -10.603; 8677.874
832.602; 4656.826;  -13.323; 8628.692
833.167; 5028.315;  -10.823; 8879.031
833.733; 5009.690;  -10.113; 9189.790
834.298; 4748.316;  -13.583; 9052.608
834.863; 4608.196;  -12.703; 8895.087
835.428; 4452.570;  -10.523; 8824.266
835.993; 4363.128;   -6.963; 8845.385
836.558; 4456.266;  -10.763; 8888.563
837.123; 4604.775;   -9.903; 8966.582
837.688; 4512.158;   -9.913; 8617.860
838.253; 4392.531;  -10.283; 8590.699
838.817; 4541.625;  -12.963; 8443.797
839.382; 4701.532;  -14.243; 8799.356
839.947; 4550.276;  -10.733; 8810.595
840.511; 4601.398;   -9.383; 8796.394
841.076; 4612.972;  -12.563; 8347.231
841.641; 4429.459;  -12.953; 8224.330
842.205; 4162.995;   -7.043; 8223.349
842.770; 4114.258;   -8.163; 8622.107
843.334; 4144.250;  -12.503; 8410.386
843.898; 4117.506;  -11.693; 8337.465
844.463; 4008.809;  -10.203; 8506.283
845.027; 3909.886;   -9.533; 8280.962
845.591; 3956.640;  -13.443; 8231.141
846.156; 3877.720;  -13.143; 7969.179
846.720; 3675.963;   -9.433; 7768.278
847.284; 3382.659;  -11.033; 7630.957
847.848; 3229.506;  -10.403; 7472.395
848.412; 3252.516;  -11.553; 7437.394
848.976; 3427.638;   -8.393; 7674.592
849.540; 3489.084;   -8.713; 7836.011
850.104; 3483.266;  -12.463; 7913.669
850.668; 3603.363;  -12.973; 7694.508
851.232; 3631.385;  -10.793; 7756.887
851.796; 3542.798;  -10.662; 7926.545
852.359; 3568.404;  -13.082; 7827.844
852.923; 3334.725;  -12.192; 7641.163
853.487; 3252.521;  -11.912; 7342.501
854.050; 3400.225;  -10.892; 7042.820
854.614; 3361.188;  -13.992; 7151.338
855.177; 3234.775;  -11.732; 7105.077
855.741; 3162.009;   -8.962; 6989.675
856.304; 3063.943;   -9.442; 6596.634
856.868; 2836.191;  -14.192; 6356.272
857.431; 2618.600;  -12.702; 6468.571
857.995; 2654.225;   -9.942; 6373.210
858.558; 2702.792;   -9.112; 6324.448
859.121; 2532.856;  -12.932; 6408.327
859.684; 2454.601;  -13.442; 6347.886
860.247; 2846.159;  -10.632; 6321.264
860.810; 3181.738;  -11.272; 6301.903
861.374; 3194.380;   -9.832; 6607.881
861.937; 3158.719;  -11.762; 6408.200
862.500; 3023.270;   -9.722; 6572.639
863.062; 2722.970;  -10.512; 6387.297
863.625; 2603.430;  -11.232; 6190.836
864.188; 2596.511;  -14.112; 5807.254
864.751; 2594.002;  -11.302; 5682.413
865.314; 2716.116;  -10.112; 5547.492
865.876; 2763.135;  -12.182; 5500.150
866.439; 2689.471;  -10.722; 5415.909
867.002; 2539.046;   -9.252; 5501.567
867.564; 2432.018;   -9.572; 5413.946
868.127; 2309.196;  -13.142; 5160.325
868.689; 2044.040;  -12.902; 5133.183
869.252; 1905.974;   -9.732; 5252.382
869.814; 1915.188;   -9.432; 5297.141
870.377; 2027.505;  -11.552; 5390.919
870.939; 2025.965;   -9.052; 5599.898
871.501; 1939.434;  -10.982; 5248.336
872.063; 1950.068;  -12.292; 4854.235
872.626; 1952.568;  -14.912; 4817.074
873.188; 1967.438;  -13.112; 4987.732
873.750; 1927.371;  -13.442; 4868.651
874.312; 1986.398;   -9.402; 4779.330
874.874; 2115.823;  -11.062; 4866.348
875.436; 2000.229;  -13.931; 4718.887
875.998; 1719.127;   -9.561; 4660.005
876.560; 1564.807;  -11.321; 4462.964
877.122; 1558.750;  -12.221; 4145.042
877.683; 1534.636;  -12.191; 4056.481
878.245; 1614.675;  -12.101; 3950.740
878.807; 1757.116;   -8.971; 4058.958
879.369; 1796.391;  -12.071; 3954.677
879.930; 1726.757;  -14.621; 3941.495
880.492; 1561.014;  -10.311; 4067.014
881.053; 1414.401;  -10.901; 3859.633
881.615; 1400.017;  -14.411; 3776.071
882.176; 1421.815;  -13.761; 3734.750
882.738; 1433.871;   -9.181; 3678.489
883.299; 1395.978;  -11.791; 3405.407
883.860; 1321.035;  -13.121; 3351.106
884.422; 1221.730;  -11.211; 3394.044
884.983; 1155.308;  -10.091; 3166.443
885.544; 1137.766;   -8.461; 3189.802
886.105; 1081.246;  -12.361; 3160.360
886.666; 1005.355;  -14.141; 3093.059
887.227;  978.271;  -11.361; 2941.957
887.788;  997.445;  -11.401; 2974.836
888.349;  957.233;  -13.791; 2721.214
888.910;  860.204;  -13.191; 2696.493
889.471;  758.876;   -9.881; 2560.172
890.032;  691.108;   -9.881; 2558.190
890.593;  691.219;  -10.371; 2567.669
891.153;  688.338;  -13.301; 2460.307
891.714;  627.093;  -11.431; 2372.046
892.275;  582.067;  -11.291; 2309.505
892.835;  572.169;  -11.471; 2382.543
893.396;  561.906;  -11.541; 2295.502
893.956;  551.530;  -11.181; 2162.420
894.517;  534.837;  -11.741; 2125.439
895.077;  488.050;  -11.671; 2086.978
895.638;  437.876;  -11.311; 2126.316
896.198;  418.614;   -9.831; 1838.275
896.758;  420.057;   -8.421; 1892.813
897.319;  413.002;  -12.351; 1792.232
897.879;  393.459;  -13.511; 1762.751
898.439;  367.651;  -12.001; 1661.149
898.999;  347.191;  -10.180; 1781.468
899.559;  332.719;  -12.030; 1703.347
900.119;  323.627;  -15.710; 1537.525
900.679;  304.226;   -8.900; 1638.384
901.239;  279.310;   -8.340; 1527.902
901.799;  265.527;  -13.910; 1456.441
902.359;  256.695;  -13.460; 1357.140
902.919;  251.407;  -11.490; 1331.118
903.479;  248.818;  -12.110; 1317.257
904.038;  241.810;  -11.720; 1262.595
904.598;  227.102;  -13.610; 1152.034
905.158;  214.264;  -11.040; 1240.893
905.717;  209.185;  -10.900; 1233.691
906.277;  204.879;  -15.080; 1217.330
906.836;  201.409;  -13.380; 1222.408
907.396;  198.925;  -10.780; 1193.047
907.955;  192.883;   -8.500; 1182.526
908.515;  186.263;  -12.760; 1099.364
909.074;  182.978;  -11.900; 1092.863
909.633;  178.573;   -8.950; 1069.121
910.192;  176.470;   -8.770; 1196.460
910.752;  171.965;  -12.390; 1029.960
911.311;  168.454;  -13.680; 1009.780
911.870;  162.284;  -12.370;  971.460
912.429;  160.909;  -10.900; 1094.080
912.988;  158.454;  -11.690; 1081.060
913.547;  154.464;  -13.240;  940.380
914.106;  153.277;  -11.990;  999.420
914.665;  153.421;   -9.990;  984.020
915.224;  152.516;  -12.880; 1035.760
915.782;  150.848;  -12.350;  922.560
916.341;  151.376;   -9.110; 1049.840
916.900;  149.684;   -9.270;  925.260
917.458;  145.875;  -13.240;  884.220
918.017;  144.056;  -13.550;  942.600
918.576;  144.384;  -12.320;  904.440
919.134;  143.339;  -11.490;  837.980
919.693;  141.527;  -13.670;  893.060
920.251;  140.085;  -15.470;  876.500
920.809;  139.963;  -11.290;  839.580
921.368;  140.730;  -10.210;  885.360
921.926;  139.368;  -12.140;  842.940
922.484;  137.722;  -13.080;  903.360
923.042;  137.680;  -11.720;  880.340
923.601;  138.903;   -7.480;  998.680
924.159;  139.194;  -11.570;  935.560
924.717;  138.852;  -13.840;  841.080
925.275;  138.828;  -10.640;  903.240
925.833;  138.864;  -11.540;  779.320
926.391;  138.808;  -12.960;  938.380
926.949;  138.393;  -14.130;  857.680
927.506;  137.560;  -11.750;  903.500
928.064;  137.291;  -10.250;  877.580
928.622;  137.343;  -13.030;  880.100
929.180;  137.288;  -13.400;  814.180
929.737;  138.729;  -10.700;  808.540
930.295;  140.546;  -10.070;  928.480
930.853;  140.174;  -11.960;  849.100
931.410;  139.450;  -13.120;  821.120
931.968;  139.675;  -10.770;  940.660
932.525;  141.059;  -10.680;  909.380
933.082;  144.794;  -13.130;  811.440
933.640;  149.253;  -13.210;  925.900
934.197;  149.777;  -11.060;  886.360
934.754;  150.899;   -9.580;  897.780
935.312;  151.858;  -14.000;  863.340
935.869;  155.197;  -10.710; 1012.980
936.426;  152.532;   -9.860;  872.800
936.983;  151.708;   -9.710;  889.020
937.540;  150.365;  -13.990;  838.280
938.097;  150.166;  -14.040;  940.120
938.654;  151.996;  -10.310;  898.860
939.211;  153.167;  -10.560;  952.480
939.768;  152.440;  -13.900;  915.420
940.324;  152.747;  -14.760;  904.200
940.881;  157.070;  -10.370;  878.500
941.438;  163.082;   -8.260; 1021.200
941.995;  163.488;  -12.540;  992.560
942.551;  162.019;  -14.670;  875.620
943.108;  162.100;  -10.450;  937.920
943.664;  163.071;  -10.750;  869.340
944.221;  168.627;  -11.550; 1088.140
944.777;  170.927;  -14.770;  869.680
945.334;  170.040;  -12.820;  884.840
945.890;  167.976;  -10.130;  946.480
946.446;  165.630;  -13.470;  947.020
947.003;  165.469;  -12.120;  964.940
947.559;  165.283;   -9.980; 1063.040
948.115;  162.176;   -9.080; 1026.540
948.671;  159.949;  -10.830;  967.300
949.227;  157.368;  -12.440;  859.560
949.783;  156.528;  -12.910;  858.900
950.339;  159.360;  -10.270;  991.000
950.895;  159.900;  -13.630; 1023.840
951.451;  158.108;  -15.100;  925.280
952.007;  158.270;  -11.330;  998.540
952.563;  157.333;  -10.580;  937.780
953.118;  152.573;  -13.440;  904.940
953.674;  148.704;  -12.710;  935.780
954.230;  151.213;  -10.350;  949.640
954.785;  154.573;   -9.190;  936.640
955.341;  156.438;  -11.200;  998.160
955.897;  153.091;  -16.560;  834.660
956.452;  150.004;  -12.570;  953.840
957.008;  148.353;   -7.970; 1083.640
957.563;  147.131;  -11.940; 1009.540
958.118;  145.749;  -13.450;  877.700
958.674;  145.557;  -12.030;  946.780
959.229;  145.187;   -9.410; 1013.980
959.784;  144.487;  -12.000;  832.400
960.339;  140.398;  -14.780; 1001.280
960.894;  134.488;   -9.860;  963.760
961.449;  129.585;   -9.970;  859.960
962.004;  128.332;  -10.900; 1212.840
962.559;  122.237;  -13.150;  860.140
963.114;  119.816;  -13.740;  742.480
963.669;  122.830;   -9.820;  915.500
964.224;  122.754;  -13.890;  874.340
964.779;  122.189;  -12.600;  828.420
965.334;  122.293;  -10.950; 1017.860
965.888;  120.508;  -11.170;  875.360
966.443;  120.968;  -12.540;  972.380
966.998;  120.836;  -15.780;  819.460
967.552;  121.312;   -9.760;  908.380
968.107;  116.354;   -9.060;  868.300
968.661;  114.705;  -11.950;  922.440
969.216;  113.443;  -12.800;  856.280
969.770;  112.976;  -11.210;  917.200
970.324;  110.647;  -11.610;  923.140
970.879;  108.240;  -11.370;  947.180
971.433;  107.838;  -12.540;  952.720
971.987;  106.696;  -11.320;  895.340
972.541;  106.037;  -10.720;  917.100
973.095;  106.633;   -9.680; 1009.460
973.649;  105.936;  -11.440;  809.480
974.203;  105.286;  -11.210;  829.040
974.757;  106.185;  -10.240;  855.220
975.311;  106.485;  -13.720;  872.600
975.865;  106.206;  -13.770;  881.820
976.419;  104.927;  -11.690;  857.400
976.973;  105.481;   -9.510;  849.620
977.526;  104.997;  -12.620;  949.920
978.080;  101.102;  -12.010;  796.780
978.634;  100.451;  -10.170;  921.320
979.187;   97.267;   -9.020;  905.400
979.741;   97.002;   -9.820; 1018.380
980.294;   92.518;  -14.870;  789.160
980.848;   88.517;  -12.380;  717.220
981.401;   88.165;  -10.350;  816.540
981.955;   88.700;  -13.720;  844.300
982.508;   84.868;  -11.490;  746.340
983.061;   84.249;  -10.000;  915.260
983.615;   83.824;  -11.480;  798.800
984.168;   83.059;  -13.220;  770.080
984.721;   83.429;  -13.960;  880.760
985.274;   81.969;  -10.870;  867.500
985.827;   80.478;   -9.790;  834.220
986.380;   79.409;  -13.120;  721.340
986.933;   79.380;  -12.450;  864.800
987.486;   78.933;  -10.210;  861.920
988.039;   78.004;   -8.430;  863.100
988.591;   75.738;  -10.520;  893.260
989.144;   72.240;  -14.860;  737.260
989.697;   69.885;  -13.080;  758.740
990.250;   68.857;  -10.150;  858.100
990.802;   67.312;  -13.430;  755.860
991.355;   66.824;  -12.750;  974.880
991.907;   64.588;  -12.040;  864.320
992.460;   62.351;  -11.330;  753.760
993.012;   60.946;  -13.610;  749.540
993.565;   59.581;  -13.460;  711.360
994.117;   60.542;   -9.360;  950.780
994.669;   58.761;  -11.300;  701.320
995.221;   58.492;  -13.540;  791.920
995.774;   57.956;  -13.430;  787.580
996.326;   56.331;  -12.520;  740.220
996.878;   56.590;  -10.950;  838.420
997.430;   54.765;  -14.300;  699.860
997.982;   53.593;  -13.760;  750.140
998.534;   53.512;  -11.530;  739.060
999.086;   50.975;  -10.310;  738.220
999.638;   51.309;  -12.530;  661.380
1000.190;   49.579;  -11.840;  699.320
1000.741;   48.762;  -10.260;  742.700
1001.293;   48.943;   -8.860;  686.020
1001.845;   48.527;  -13.700;  676.640
1002.396;   48.331;  -12.100;  743.400
1002.948;   47.714;  -12.760;  737.400
1003.500;   46.881;  -10.380;  723.780
1004.051;   46.909;  -11.900;  907.580
1004.603;   45.659;  -12.250;  791.820
1005.154;   41.924;  -13.210;  608.980
1005.705;   41.403;  -10.950;  723.960
1006.257;   42.187;  -13.880;  707.220
1006.808;   41.195;  -12.840;  685.460
1007.359;   39.951;  -10.570;  763.240
1007.910;   39.602;   -9.620;  646.640
1008.461;   38.310;  -13.630;  732.940
1009.013;   38.316;  -17.200;  588.340
1009.564;   38.353;  -10.200;  793.520
1010.115;   37.444;  -12.570;  597.040
1010.665;   37.074;  -15.150;  602.160
1011.216;   37.050;  -14.480;  667.920
1011.767;   36.214;  -11.340;  697.920
1012.318;   36.711;   -9.780;  736.980
1012.869;   35.373;  -12.380;  679.000
1013.419;   35.450;  -15.560;  603.120
1013.970;   34.916;  -11.010;  666.640
1014.521;   34.241;  -11.610;  620.620
1015.071;   35.433;  -13.450;  670.380
1015.622;   34.644;  -13.870;  635.460
1016.172;   33.296;  -11.610;  596.820
1016.723;   33.503;  -12.120;  614.380
1017.273;   33.283;  -13.620;  604.160
1017.823;   33.604;  -14.140;  650.340
1018.374;   32.892;  -12.800;  611.760
1018.924;   32.985;  -12.340;  716.880
1019.474;   33.168;  -11.410;  718.880
1020.024;   31.859;  -14.770;  657.580
1020.574;   32.125;   -9.780;  726.160
1021.124;   32.361;   -8.560;  673.580
1021.674;   31.255;  -15.190;  559.120
1022.224;   31.954;  -13.530;  708.940
1022.774;   31.760;  -13.280;  668.820
1023.324;   32.647;  -10.690;  753.520
1023.874;   33.758;  -10.240;  875.760
1024.423;   30.759;  -12.540;  613.700
1024.973;   30.033;  -10.010;  610.760
1025.523;   29.276;  -10.550;  620.960
1026.072;   30.009;  -13.560;  606.420
1026.622;   28.966;  -15.120;  675.740
1027.172;   30.435;  -11.260;  715.660
1027.721;   28.464;  -11.410;  601.220
1028.270;   29.433;  -13.530;  663.400
1028.820;   29.424;  -13.680;  638.080
1029.369;   28.701;  -13.520;  612.700
1029.918;   28.742;  -10.980;  649.840
1030.468;   28.783;  -13.530;  564.780
1031.017;   28.210;  -13.170;  634.800
1031.566;   27.996;  -12.200;  608.900
1032.115;   28.239;   -9.960;  694.500
1032.664;   26.824;  -13.210;  596.480
1033.213;   27.623;  -12.500;  735.420
1033.762;   26.962;  -11.910;  635.620
1034.311;   27.007;   -9.640;  677.220
1034.860;   27.629;  -13.310;  691.000
1035.408;   27.288;  -11.830;  722.720
1035.957;   26.884;  -12.000;  719.540
1036.506;   24.957;  -11.690;  530.800
1037.055;   28.148;  -10.990;  844.320
1037.603;   26.070;  -15.120;  664.000
1038.152;   24.448;  -12.450;  534.760
1038.700;   25.349;  -10.560;  585.740
1039.249;   25.241;  -11.080;  681.220
1039.797;   25.269;  -12.540;  633.360
1040.345;   24.755;  -11.920;  705.420
1040.894;   24.189;  -11.410;  625.300
1041.442;   23.909;  -14.320;  632.200
1041.990;   23.575;  -16.240;  559.160
1042.538;   23.049;  -11.680;  536.180
1043.087;   23.489;  -10.760;  570.860
1043.635;   25.048;  -11.850;  670.500
1044.183;   23.464;  -15.480;  586.400
1044.731;   22.564;  -11.770;  576.000
1045.279;   22.743;  -13.090;  674.920
1045.827;   25.787;  -12.440;  892.400
1046.374;   22.347;  -13.840;  515.420
1046.922;   21.246;  -13.220;  590.580
1047.470;   22.880;  -10.230;  691.300
1048.018;   23.275;  -14.590;  647.960
1048.565;   24.006;  -12.050;  708.600
1049.113;   22.032;  -11.650;  557.000
1049.660;   22.694;  -10.510;  629.660
1050.208;   22.975;  -13.310;  675.640
1050.755;   21.397;  -15.900;  606.580
1051.303;   22.103;  -11.430;  686.820
1051.850;   21.253;   -8.480;  635.120
1052.397;   20.470;  -15.010;  473.960
1052.945;   19.934;  -13.960;  617.760
1053.492;   22.018;  -13.150;  741.840
1054.039;   21.888;   -9.630;  720.180
1054.586;   20.932;  -13.680;  557.240
1055.133;   21.832;  -14.570;  693.140
1055.680;   21.143;  -13.820;  646.620
1056.227;   20.159;  -11.730;  542.780
1056.774;   21.967;  -12.480;  794.980
1057.321;   19.653;  -13.930;  523.260
1057.868;   19.667;  -11.690;  651.320
1058.415;   19.213;   -9.520;  651.980
1058.961;   20.495;  -13.160;  678.940
1059.508;   19.597;  -12.920;  643.820
1060.055;   18.734;  -11.920;  581.780
1060.601;   19.350;  -11.500;  624.300
1061.148;   19.628;  -14.330;  616.820
1061.694;   19.159;  -16.870;  592.580
1062.241;   19.375;  -10.330;  596.320
1062.787;   19.643;  -10.620;  663.140
1063.334;   21.771;  -10.110;  808.560
1063.880;   18.910;  -13.400;  668.360
1064.426;   18.567;  -10.680;  706.820
1064.972;   17.881;   -9.920;  601.340
1065.518;   17.893;  -10.980;  566.640
1066.065;   17.870;  -14.890;  624.460
1066.611;   17.372;  -12.870;  598.800
1067.157;   18.094;  -12.950;  641.860
1067.703;   18.575;  -13.540;  668.480
1068.249;   17.587;  -13.540;  605.220
1068.794;   16.901;  -12.600;  626.880
1069.340;   16.298;  -10.620;  578.960
1069.886;   17.492;  -12.830;  590.700
1070.432;   16.352;  -14.870;  541.720
1070.977;   16.256;  -11.980;  601.080
1071.523;   15.654;   -8.200;  573.060
1072.068;   16.595;  -12.330;  582.000
1072.614;   15.923;  -16.370;  527.760
1073.160;   16.797;  -11.100;  687.040
1073.705;   15.317;  -10.480;  572.520
1074.250;   16.293;  -14.520;  559.900
1074.796;   16.925;  -11.460;  655.160
1075.341;   17.024;  -11.950;  664.100
1075.886;   16.213;  -11.460;  594.240
1076.431;   15.856;  -13.770;  649.880
1076.976;   16.112;  -12.680;  639.220
1077.521;   14.623;  -13.170;  583.080
1078.067;   13.939;  -10.860;  579.400
1078.612;   15.563;  -13.920;  661.620
1079.156;   14.559;  -13.880;  601.540
1079.701;   14.807;  -13.120;  693.260
1080.246;   15.971;   -9.940;  696.300
1080.791;   15.147;  -14.740;  625.020
1081.336;   15.205;  -13.750;  659.320
1081.880;   14.235;  -13.400;  649.680
1082.425;   13.733;  -12.220;  573.480
1082.970;   15.534;  -11.610;  717.040
1083.514;   13.978;  -13.580;  597.000
1084.059;   13.205;  -12.810;  586.720
1084.603;   12.853;  -12.320;  565.840
1085.147;   14.201;  -13.190;  645.220
1085.692;   14.122;  -12.480;  716.800
1086.236;   12.112;  -13.020;  503.140
1086.780;   14.422;   -9.190;  751.440
1087.325;   13.921;  -12.480;  654.620
1087.869;   13.764;  -12.450;  610.700
1088.413;   13.667;  -12.240;  705.040
1088.957;   12.002;   -9.020;  543.400
1089.501;   14.062;  -10.320;  766.640
1090.045;   13.159;  -12.720;  726.480
1090.589;   11.275;  -13.690;  569.920
1091.133;   12.458;  -10.020;  673.340
1091.676;   12.796;  -12.330;  591.940
1092.220;   12.140;  -14.970;  600.920
1092.764;   12.848;  -12.430;  706.960
1093.307;   12.166;   -9.800;  673.780
1093.851;   11.868;  -14.970;  556.540
1094.395;   12.676;  -15.310;  683.140
1094.938;   11.563;  -10.370;  632.520
1095.482;   11.831;  -11.050;  559.800
1096.025;   12.402;  -11.840;  710.880
1096.568;   12.867;  -12.840;  779.280
1097.112;    9.587;  -14.700;  508.180
1097.655;   10.759;   -8.720;  603.000
1098.198;   10.635;  -13.610;  600.180
1098.741;   10.509;  -13.350;  612.860
1099.285;   10.521;  -11.230;  657.300
1099.828;    8.606;  -11.840;  439.400
1100.371;   10.901;  -10.840;  608.160
1100.914;   10.579;  -14.190;  682.660
1101.457;   10.178;  -11.240;  679.900
1101.999;    8.366;  -11.270;  584.680
1102.542;   10.543;  -11.480;  641.440
1103.085;    9.782;  -11.750;  658.500
1103.628;   10.841;  -11.400;  762.060
1104.170;    9.011;  -10.490;  588.280
1104.713;    9.664;  -10.600;  646.700
1105.256;    9.210;  -14.360;  557.440
1105.798;    7.934;  -13.210;  499.980
1106.341;   10.564;  -10.270;  728.900
1106.883;    9.437;  -12.200;  521.340
1107.425;    9.453;  -13.110;  668.180
1107.968;    8.126;  -12.840;  612.380
1108.510;    9.050;   -6.480;  684.960
1109.052;    7.976;  -13.940;  612.620
1109.594;    8.287;  -13.690;  554.440
1110.136;    8.828;  -11.880;  643.220
1110.679;    7.874;   -9.500;  633.080
1111.221;    8.768;  -14.160;  604.460
1111.763;    7.805;  -13.980;  559.220
1112.304;    7.744;  -13.880;  547.140
1112.846;    7.984;  -12.210;  666.240
1113.388;   11.590;  -11.390;  942.180
1113.930;    8.043;  -14.540;  694.200
1114.472;    6.872;  -12.640;  606.540
1115.013;    6.166;  -11.620;  551.280
1115.555;    7.031;  -13.640;  587.100
1116.097;    6.326;  -15.380;  579.480
1116.638;    6.708;  -12.640;  684.600
1117.180;    7.731;   -9.850;  667.740
1117.721;    7.049;  -13.690;  568.580
1118.262;    7.836;  -12.680;  677.960
1118.804;    7.379;  -12.530;  637.340
1119.345;    6.333;  -11.690;  578.400
1119.886;    7.412;  -13.380;  704.040
1120.427;    6.365;  -14.070;  589.020
1120.969;    5.713;  -13.500;  597.920
1121.510;    5.125;  -11.480;  563.060
1122.051;    7.226;  -12.830;  723.580
1122.592;    5.834;  -14.290;  655.420
1123.133;    4.233;  -12.400;  547.940
1123.673;    6.613;  -10.130;  706.480
1124.214;    6.250;  -12.930;  612.460
1124.755;    6.706;  -14.380;  639.460
1125.296;    5.711;  -14.000;  627.320
1125.836;    6.205;  -10.070;  691.500
1126.377;    5.630;  -12.640;  599.660
1126.918;    6.450;  -12.960;  614.980
1127.458;    4.198;  -13.350;  622.220
1127.999;    5.146;  -10.750;  656.980
1128.539;    6.338;  -12.350;  694.240
1129.079;    4.878;  -14.860;  632.720
1129.620;    4.323;  -13.840;  558.100
1130.160;    3.300;  -12.330;  539.480
1130.700;    6.336;  -14.530;  640.840
1131.240;    5.392;  -12.530;  643.700
1131.781;    4.910;  -14.450;  619.680
1132.321;    4.130;   -9.790;  599.120
1132.861;    3.930;  -14.860;  564.200
1133.401;    2.981;  -14.290;  593.940
1133.941;    4.389;  -11.750;  626.280
1134.481;    3.457;   -9.920;  597.580
1135.020;    3.292;  -12.290;  609.160
1135.560;    4.415;  -11.650;  674.940
1136.100;    2.890;  -16.270;  501.160
1136.640;    2.811;  -10.890;  510.480
1137.179;    4.118;  -14.180;  537.960
1137.719;    3.579;  -16.250;  605.400
1138.258;    3.242;  -14.230;  587.360
1138.798;    3.583;   -9.090;  663.780
1139.337;    2.699;  -15.130;  482.840
1139.877;    4.250;  -13.680;  642.360
1140.416;    5.342;  -11.320;  878.060
1140.955;    2.476;  -10.860;  535.380
1141.494;    3.703;  -12.920;  669.280
1142.034;    2.674;  -13.930;  583.520
1142.573;    3.558;  -11.440;  646.280
1143.112;    1.769;  -12.000;  553.480
1143.651;    2.462;  -13.670;  536.480
1144.190;    3.556;  -12.730;  691.640
1144.729;    2.860;  -14.560;  607.420
1145.267;    2.867;  -11.830;  584.900
1145.806;    3.657;  -12.230;  637.040
1146.345;    2.183;  -14.130;  635.020
1146.884;    2.833;  -11.590;  622.500
1147.422;    1.086;  -12.550;  533.060
1147.961;    3.581;  -11.180;  708.460
1148.500;    2.777;  -11.510;  669.720
1149.038;    2.873;  -11.640;  632.500
1149.577;    2.041;  -10.130;  698.640
1150.115;    0.719;  -13.970;  452.280
1150.653;    2.311;  -14.520;  607.340
1151.192;    1.704;  -12.810;  552.920
1151.730;    1.544;   -9.100;  652.560
1152.268;    1.351;  -12.220;  589.520
1152.806;    1.171;  -14.140;  571.180
1153.344;    0.115;  -12.350;  577.640
1153.882;    0.766;   -8.980;  600.060
1154.421;   -0.180;  -15.190;  470.620
1154.958;    1.214;  -15.210;  595.240
1155.496;    1.868;  -12.850;  645.280
1156.034;    0.898;   -9.940;  721.880
1156.572;    2.479;  -13.570;  667.060
1157.110;    0.795;  -14.590;  473.940
1157.647;    1.755;  -13.030;  676.960
1158.185;   -0.027;  -12.140;  564.320
1158.723;   -0.358;  -14.390;  509.200
1159.260;    1.427;  -14.090;  701.700
1159.798;    0.588;  -11.920;  658.160
1160.335;    0.272;  -11.110;  631.820

