
Integration time [ms]:   3.276
Averaging Nr. [scans]: 1000
Smoothing Nr. [pixels]: 0
Data measured with spectrometer [name]: 7414430SP
Wave   ;Sample   ;Dark     ;Reference
[nm]   ;[counts] ;[counts] ;[counts] 

288.544;  151.167;    7.793;  793.890
289.143;  154.782;    7.462;  681.602
289.742;  155.890;    8.602;  828.814
290.341;  140.563;    1.321;  789.841
290.940;  129.884;   -0.709;  730.702
291.538;  131.157;    0.881;  881.108
292.137;  131.381;    0.122;  792.581
292.736;  135.472;   -1.929;  975.101
293.335;  131.814;   -8.229;  735.086
293.934;  132.206;   -5.279;  781.677
294.532;  130.158;   -1.369; 1031.958
295.131;  116.437;   -7.641;  834.394
295.730;  117.550;   -8.420;  809.588
296.328;  115.749;   -5.611;  783.442
296.927;  116.908;   -5.781;  779.652
297.525;  117.713;   -6.361;  781.236
298.124;  107.273;  -11.382;  654.009
298.722;  111.583;   -7.641;  761.933
299.321;  109.854;   -6.811;  708.597
299.919;  107.099;   -6.991;  751.918
300.518;  104.558;  -10.362;  689.338
301.116;  106.067;   -9.581;  691.381
301.715;  105.776;   -4.891;  730.222
302.313;  104.740;   -8.801;  704.943
302.911;  100.272;   -8.522;  733.830
303.509;  105.512;   -6.171;  925.627
304.108;  103.284;   -7.311;  760.383
304.706;  102.323;   -8.321;  801.664
305.304;   96.144;  -10.222;  796.707
305.902;  102.035;   -6.021;  784.484
306.500;   98.118;   -4.971;  728.200
307.098;   96.579;   -7.061;  746.560
307.696;   93.872;   -8.801;  780.432
308.294;   94.827;   -6.411;  731.359
308.892;   97.942;   -2.901;  759.769
309.490;   92.703;   -5.041;  712.161
310.088;   90.511;   -5.002;  788.444
310.686;   95.855;   -2.041;  821.749
311.284;   91.516;   -2.351;  766.040
311.882;   89.891;   -4.422;  731.225
312.480;   85.817;   -4.192;  697.167
313.078;   86.665;   -1.172;  808.331
313.675;   88.253;   -2.601;  691.600
314.273;   82.973;   -1.312;  797.837
314.871;   82.230;   -3.942;  589.829
315.468;   80.488;   -2.802;  652.090
316.066;   83.459;   -0.701;  694.427
316.664;   76.110;   -4.362;  656.351
317.261;   80.436;   -2.872;  910.128
317.859;   75.883;   -2.022;  768.735
318.456;   76.366;   -0.531;  830.096
319.054;   71.973;   -3.912;  787.828
319.651;   70.859;   -4.752;  759.928
320.249;   69.119;   -2.602;  810.188
320.846;   68.631;   -0.821;  714.286
321.443;   65.721;   -4.642;  832.135
322.041;   62.528;   -5.002;  812.315
322.638;   59.441;   -3.982;  701.456
323.235;   61.782;   -3.411;  665.683
323.833;   58.047;   -7.361;  740.354
324.430;   53.226;   -8.611;  615.900
325.027;   54.231;   -4.061;  876.855
325.624;   54.286;   -4.031;  644.532
326.221;   51.531;   -7.481;  689.717
326.818;   51.105;   -5.281;  818.332
327.415;   53.807;   -7.460;  748.828
328.012;   53.940;   -5.510;  690.585
328.609;   51.949;   -7.880;  731.389
329.206;   50.328;   -8.331;  778.621
329.803;   50.340;   -5.121;  737.841
330.400;   53.222;   -4.510;  704.260
330.997;   54.695;   -6.441;  817.147
331.594;   53.616;   -8.831;  788.185
332.191;   58.132;   -7.621;  728.722
332.787;   61.052;   -4.591;  844.463
333.384;   59.916;   -7.412;  763.093
333.981;   58.571;   -8.293;  815.687
334.578;   61.215;   -7.052;  708.378
335.174;   64.651;   -3.102;  731.469
335.771;   63.314;   -5.943;  836.456
336.367;   60.009;   -7.393;  710.631
336.964;   64.395;   -4.063;  793.266
337.561;   62.453;   -3.813;  731.112
338.157;   57.959;   -4.654;  911.916
338.754;   54.742;   -7.934;  796.589
339.350;   53.392;   -4.414;  722.493
339.946;   55.408;   -4.664;  773.135
340.543;   47.925;   -6.375;  846.136
341.139;   41.774;   -9.815;  720.836
341.735;   40.247;   -4.526;  772.593
342.332;   39.130;   -4.895;  691.472
342.928;   38.873;   -4.295;  795.394
343.524;   33.205;   -5.476;  761.684
344.120;   29.551;   -5.856;  738.562
344.716;   33.136;   -2.155;  723.717
345.313;   29.849;   -6.275;  795.342
345.909;   25.231;   -8.815;  627.336
346.505;   26.692;   -5.305;  740.247
347.101;   27.196;   -2.674;  827.864
347.697;   28.047;   -4.344;  785.398
348.293;   21.778;   -9.975;  627.244
348.889;   23.500;   -5.774;  745.914
349.485;   22.929;   -5.004;  688.205
350.081;   23.342;   -4.704;  772.592
350.676;   17.903;   -6.635;  691.606
351.272;   22.796;   -4.504;  809.530
351.868;   23.030;   -3.914;  780.497
352.464;   19.192;   -9.044;  723.932
353.059;   14.895;   -8.314;  646.017
353.655;   18.639;   -7.024;  777.063
354.251;   20.538;   -5.343;  759.845
354.846;   14.480;   -8.604;  740.646
355.442;   11.992;   -6.945;  753.071
356.038;   14.391;   -7.564;  751.708
356.633;   15.305;   -5.814;  728.594
357.229;   12.082;   -7.364;  724.757
357.824;    9.978;   -8.024;  703.600
358.420;   10.173;   -9.384;  679.726
359.015;   10.518;   -5.104;  695.357
359.610;   11.632;   -6.854;  763.920
360.206;    5.271;  -10.185;  603.240
360.801;    8.015;   -7.054;  646.503
361.396;   10.422;   -5.034;  725.975
361.992;    5.528;   -8.284;  668.220
362.587;    3.620;   -8.625;  670.160
363.182;    6.007;   -7.674;  689.631
363.777;    6.106;   -5.164;  738.242
364.372;    5.668;   -8.604;  737.314
364.967;    1.852;   -9.055;  680.744
365.563;    5.845;   -6.114;  815.567
366.158;    3.467;   -5.814;  685.161
366.753;    3.268;   -7.854;  649.263
367.348;    2.024;   -7.804;  746.056
367.942;    1.938;   -7.954;  697.298
368.537;    0.403;   -4.984;  754.245
369.132;    0.754;   -8.564;  703.428
369.727;   -2.952;   -8.855;  638.079
370.322;   -1.674;   -6.245;  580.186
370.917;   -1.738;   -6.425;  710.646
371.511;    1.421;   -6.294;  861.834
372.106;   -2.365;   -7.685;  776.964
372.701;   -5.219;   -7.335;  585.988
373.296;   -0.155;   -4.564;  863.135
373.890;   -4.920;  -10.235;  647.840
374.485;   -6.899;   -7.885;  691.199
375.079;   -2.923;   -7.324;  738.685
375.674;   -1.823;   -3.494;  812.970
376.268;   -6.376;   -8.525;  691.759
376.863;  -12.394;  -10.086;  580.327
377.457;   -6.019;   -7.025;  662.490
378.052;   -7.396;   -3.585;  764.884
378.646;   -8.530;   -7.595;  741.167
379.240;   -8.821;   -8.335;  721.176
379.835;   -7.661;   -5.785;  636.978
380.429;   -9.471;   -4.335;  562.557
381.023;   -9.325;   -6.805;  779.205
381.617;  -12.433;   -9.195;  680.106
382.212;   -8.751;   -6.905;  685.303
382.806;   -7.475;   -3.745;  760.690
383.400;  -11.890;   -7.745;  672.281
383.994;  -13.183;   -9.765;  664.870
384.588;   -9.424;   -6.564;  697.701
385.182;   -7.323;   -5.344;  726.624
385.776;   -9.079;   -8.514;  706.875
386.370;  -12.638;   -9.555;  681.968
386.964;  -11.877;   -8.715;  684.155
387.558;   -9.759;   -6.174;  598.360
388.152;  -13.449;   -8.725;  681.959
388.745;  -11.952;   -7.965;  814.707
389.339;   -9.899;   -5.924;  747.642
389.933;   -8.757;   -5.524;  695.370
390.527;  -10.244;   -7.114;  859.029
391.120;  -16.801;  -10.725;  595.318
391.714;  -13.705;   -8.035;  711.633
392.308;   -9.500;   -3.574;  780.253
392.901;  -14.192;   -7.245;  642.460
393.495;  -15.668;   -9.285;  595.414
394.089;  -13.151;   -5.895;  760.452
394.682;  -13.783;   -4.295;  697.188
395.275;  -14.735;   -9.875;  719.927
395.869;  -15.826;   -8.485;  667.314
396.462;  -13.825;   -7.455;  616.609
397.056;  -10.039;   -5.424;  776.621
397.649;  -15.545;   -6.605;  731.575
398.242;  -12.477;   -8.224;  712.645
398.836;  -11.863;   -7.474;  766.408
399.429;  -12.537;   -7.094;  631.041
400.022;  -16.795;   -9.475;  665.902
400.615;  -14.559;   -7.145;  805.609
401.208;  -11.680;   -7.174;  691.451
401.802;  -14.627;   -5.515;  699.329
402.395;  -15.550;   -9.875;  683.502
402.988;  -16.743;   -8.845;  696.627
403.581;  -12.875;   -8.874;  646.878
404.174;  -10.776;   -5.324;  686.568
404.767;  -13.784;   -9.575;  638.583
405.360;  -17.055;  -10.965;  621.445
405.953;  -10.852;   -8.764;  759.034
406.545;   -9.686;   -7.514;  725.342
407.138;  -15.065;  -10.025;  618.350
407.731;  -14.115;  -10.034;  613.303
408.324;   -9.253;   -9.374;  660.554
408.917;   -9.937;   -6.534;  681.864
409.509;  -12.374;   -8.004;  740.396
410.102;  -13.800;   -9.875;  643.948
410.695;   -7.837;   -8.604;  665.758
411.287;   -8.382;   -6.794;  599.821
411.880;  -10.784;   -9.334;  585.421
412.472;  -13.563;  -10.254;  613.092
413.065;  -10.849;   -6.714;  629.408
413.657;   -8.489;   -7.234;  576.678
414.250;   -8.158;  -10.544;  646.681
414.842;  -10.360;   -9.744;  676.353
415.434;   -7.238;   -6.994;  570.463
416.027;   -3.885;   -5.893;  652.196
416.619;   -6.133;   -7.264;  713.400
417.211;   -5.953;  -10.374;  599.352
417.804;   -3.082;   -7.993;  628.499
418.396;   -6.368;   -7.234;  607.643
418.988;   -4.087;   -9.443;  659.238
419.580;   -7.790;  -10.724;  568.276
420.172;   -6.295;  -10.323;  536.196
420.764;   -1.436;   -8.793;  672.482
421.356;   -2.188;  -11.143;  636.898
421.948;   -3.479;   -8.293;  677.661
422.540;    1.648;   -7.893;  680.027
423.132;    0.995;   -7.082;  600.641
423.724;   -2.105;   -8.653;  561.267
424.316;   -0.543;  -10.213;  621.345
424.908;    3.114;   -9.762;  591.517
425.500;    3.313;   -5.572;  647.978
426.092;    3.902;   -8.422;  648.268
426.683;    3.069;   -9.283;  684.836
427.275;    5.970;   -7.852;  641.471
427.867;    7.384;   -5.272;  668.948
428.458;    8.219;   -7.682;  732.344
429.050;    6.059;  -10.612;  680.749
429.642;    8.230;   -9.882;  743.124
430.233;    9.584;   -6.962;  569.356
430.825;   10.560;   -6.842;  724.809
431.416;    6.926;   -9.672;  698.241
432.008;   11.379;   -6.552;  651.723
432.599;   12.309;   -6.891;  656.073
433.190;    9.097;  -10.912;  637.670
433.782;    8.512;  -11.172;  590.395
434.373;   15.896;   -6.061;  884.765
434.964;   14.309;   -8.251;  602.920
435.556;   12.144;   -9.722;  634.537
436.147;   15.589;   -9.082;  758.490
436.738;   14.998;   -8.041;  701.099
437.329;   20.362;   -7.341;  721.723
437.920;   13.385;   -8.162;  666.688
438.511;   13.065;  -11.802;  564.526
439.103;   19.035;  -10.191;  623.998
439.694;   21.442;   -7.601;  681.583
440.285;   21.872;   -8.541;  764.432
440.876;   20.131;   -9.751;  845.738
441.466;   19.524;   -9.401;  575.162
442.057;   25.402;   -7.760;  665.814
442.648;   23.440;   -9.971;  746.255
443.239;   21.617;  -11.001;  620.477
443.830;   26.771;   -7.990;  704.958
444.421;   29.756;   -7.910;  655.474
445.011;   25.224;   -8.131;  693.619
445.602;   25.209;   -7.111;  743.126
446.193;   26.389;  -10.920;  488.117
446.783;   32.175;   -6.500;  640.397
447.374;   26.457;   -8.671;  692.759
447.964;   27.292;  -10.781;  713.770
448.555;   35.755;   -9.650;  822.742
449.145;   32.056;   -8.660;  662.853
449.736;   33.466;   -8.990;  803.179
450.326;   32.577;   -9.500;  713.626
450.917;   37.374;   -8.680;  675.324
451.507;   36.788;   -7.520;  600.661
452.097;   37.344;   -8.590;  746.267
452.688;   38.046;  -11.340;  742.160
453.278;   37.820;  -10.100;  566.840
453.868;   43.341;   -6.019;  793.550
454.458;   40.987;   -9.440;  651.141
455.048;   40.770;  -10.560;  711.783
455.639;   42.468;  -11.799;  567.096
456.229;   46.442;   -6.899;  710.694
456.819;   48.001;   -7.389;  751.158
457.409;   48.095;  -11.119;  773.993
457.999;   51.516;   -9.289;  737.505
458.589;   51.426;   -6.139;  686.606
459.179;   50.469;   -8.729;  717.658
459.769;   49.358;   -9.789;  627.099
460.358;   54.470;  -10.259;  797.262
460.948;   54.136;   -7.299;  689.503
461.538;   56.759;  -10.289;  660.677
462.128;   52.797;  -11.269;  664.934
462.717;   60.069;   -9.368;  710.326
463.307;   62.910;   -7.908;  705.846
463.897;   58.717;   -9.599;  656.942
464.486;   58.221;   -9.769;  837.128
465.076;   61.871;   -8.048;  733.776
465.666;   66.314;   -9.358;  652.900
466.255;   63.810;   -7.919;  785.651
466.845;   62.747;  -11.689;  666.749
467.434;   65.882;   -7.818;  725.873
468.023;   68.029;   -7.678;  658.357
468.613;   64.219;  -10.939;  713.946
469.202;   69.008;  -10.118;  646.507
469.791;   72.931;   -9.108;  737.811
470.381;   74.988;   -6.058;  742.813
470.970;   74.643;  -10.428;  711.099
471.559;   74.152;  -10.268;  733.291
472.148;   76.756;   -8.448;  675.737
472.738;   80.097;   -6.917;  765.466
473.327;   79.612;  -11.978;  637.529
473.916;   79.390;  -11.888;  737.446
474.505;   84.558;   -9.437;  751.703
475.094;   86.987;   -6.747;  806.570
475.683;   86.434;   -9.367;  797.699
476.272;   87.016;  -12.637;  730.632
476.861;   90.526;  -10.027;  706.754
477.449;   96.515;   -8.716;  728.487
478.038;   90.978;   -9.577;  692.513
478.627;   92.229;   -9.718;  714.852
479.216;   98.486;   -8.947;  769.441
479.805;  101.227;   -6.256;  783.375
480.393;  101.409;   -7.937; 1008.945
480.982;  100.478;   -7.717;  874.501
481.571;  106.315;   -9.266;  858.333
482.159;  107.079;   -7.636;  705.386
482.748;  106.267;   -9.667;  821.385
483.336;  110.658;  -10.376;  858.209
483.925;  111.376;   -7.147;  774.373
484.513;  118.752;   -7.996;  758.962
485.102;  115.618;  -10.027;  810.965
485.690;  123.657;  -10.446; 1011.050
486.278;  126.166;   -8.446;  979.329
486.867;  126.574;   -6.356;  809.662
487.455;  128.556;   -9.136;  898.229
488.043;  129.508;  -10.646;  748.361
488.631;  138.206;   -7.456; 1005.079
489.220;  142.488;   -6.636;  908.626
489.808;  142.884;  -11.036;  741.415
490.396;  150.104;  -10.246;  914.645
490.984;  156.237;   -8.556;  830.161
491.572;  165.691;   -5.886;  940.315
492.160;  171.238;   -9.486;  919.081
492.748;  183.010;  -10.976;  884.341
493.336;  205.229;   -8.776; 1019.693
493.924;  230.544;   -5.465;  958.077
494.512;  258.465;   -9.986; 1066.638
495.100;  292.571;  -10.636; 1103.280
495.687;  347.453;  -10.885; 1206.373
496.275;  410.319;   -8.126; 1150.796
496.863;  478.713;  -10.586; 1281.171
497.451;  575.549;  -11.926; 1386.805
498.038;  706.917;  -10.885; 1556.729
498.626;  813.346;   -6.315; 1741.407
499.214;  969.219;   -7.326; 2016.609
499.801; 1168.282;  -11.906; 2220.633
500.389; 1401.642;  -10.466; 2312.494
500.976; 1691.007;   -5.236; 2744.849
501.564; 2121.776;   -8.936; 3148.565
502.151; 2473.934;  -13.176; 3515.999
502.738; 2875.069;  -10.646; 3971.274
503.326; 3288.349;   -9.525; 4403.796
503.913; 3702.577;  -10.856; 5161.749
504.500; 4083.199;  -11.586; 5986.420
505.088; 4471.062;  -10.336; 6381.201
505.675; 5016.325;   -6.355; 6925.547
506.262; 5676.735;   -9.046; 7619.060
506.849; 6396.148;  -10.416; 8733.969
507.436; 6939.310;  -10.305; 9790.121
508.023; 7500.765;   -5.496; 9985.472
508.610; 7736.724;   -7.856;10434.618
509.197; 8348.346;  -10.097;11198.435
509.784; 9671.228;  -10.886;12391.194
510.371;10875.699;   -9.315;13603.713
510.958;11654.982;   -9.936;14426.586
511.545;12348.284;   -9.326;15243.775
512.132;13121.562;  -10.075;15945.876
512.719;13560.264;   -7.796;16340.369
513.305;14739.878;  -10.606;18011.766
513.892;15507.122;  -11.486;19754.971
514.479;16625.963;   -9.126;20967.805
515.066;18113.271;   -6.026;22299.793
515.652;19797.895;   -8.466;22908.660
516.239;20966.693;  -10.886;23798.875
516.825;21691.834;  -11.496;25567.275
517.412;22634.473;   -5.796;28154.959
517.998;23478.213;  -10.506;28344.111
518.585;23541.781;  -10.076;27134.219
519.171;24111.414;   -8.315;27268.576
519.758;25946.135;   -8.596;28964.129
520.344;27996.684;   -8.466;30664.494
520.930;27691.268;  -11.006;32550.605
521.516;28448.527;  -10.495;35422.895
522.103;30096.064;   -5.526;38280.004
522.689;30588.410;   -8.746;37835.117
523.275;30325.854;  -11.376;37288.613
523.861;32129.662;  -11.156;37281.395
524.447;33919.324;   -8.135;37846.949
525.033;33685.176;   -7.896;38321.949
525.619;33794.734;  -12.476;38579.285
526.205;34974.676;   -9.516;40622.875
526.791;37795.988;   -6.926;42258.836
527.377;37591.883;   -8.346;42966.902
527.963;38179.805;   -8.717;42018.949
528.549;37502.676;  -11.016;42476.828
529.135;36140.664;   -8.536;41854.852
529.721;34804.883;   -9.666;41237.711
530.306;33625.246;  -10.066;41259.445
530.892;32304.283;  -11.356;41506.047
531.478;31891.541;   -6.596;43559.613
532.063;34615.980;   -8.836;47695.563
532.649;37086.402;  -10.047;50808.324
533.235;38188.160;   -9.746;51787.500
533.820;37373.621;   -6.566;52145.035
534.406;36592.125;  -10.817;51133.488
534.991;33848.262;   -9.416;49996.805
535.576;30430.238;   -9.036;48882.852
536.162;32166.096;   -6.156;46942.285
536.747;37727.629;  -11.607;45711.746
537.333;44504.156;  -11.787;48510.180
537.918;49869.094;  -12.437;50439.891
538.503;50472.992;   -7.196;50863.711
539.088;47246.883;  -10.556;50906.922
539.673;46946.414;   -8.767;52621.965
540.259;47691.785;  -10.026;52368.094
540.844;45090.918;   -7.416;50879.109
541.429;46910.590;   -9.467;52077.777
542.014;48851.840;   -9.527;52716.695
542.599;47643.020;   -9.946;52363.281
543.184;44505.430;   -7.927;53187.137
543.769;45516.000;   -9.297;54697.605
544.354;45824.023;  -10.127;53913.914
544.938;44404.711;   -9.267;49680.164
545.523;46011.148;   -6.506;47386.277
546.108;48807.219;   -9.787;49151.949
546.693;50489.359;  -11.587;51384.637
547.278;50935.262;  -10.986;51853.254
547.862;48297.426;   -8.206;51173.750
548.447;43868.867;  -10.067;51691.395
549.031;42712.168;   -9.637;52456.703
549.616;46993.746;   -9.926;52714.516
550.201;47051.133;   -6.347;52414.598
550.785;48351.992;   -7.917;52355.059
551.370;47367.973;  -10.867;54589.453
551.954;46563.004;   -9.047;58267.348
552.538;47466.461;   -7.827;59062.176
553.123;46074.496;  -10.287;58115.285
553.707;43681.449;  -12.178;56556.285
554.291;45339.852;   -8.717;56201.668
554.876;48968.469;   -7.457;55335.762
555.460;49055.852;  -10.387;54155.703
556.044;48925.168;   -9.618;53721.484
556.628;46565.992;  -11.567;53731.016
557.212;45182.699;   -8.097;54312.531
557.796;44219.813;  -11.077;53797.773
558.380;44657.164;  -11.108;56145.984
558.964;44854.988;   -9.057;57277.930
559.548;45897.211;   -6.977;56459.641
560.132;43644.070;  -11.457;54434.543
560.716;41790.480;  -11.378;54800.617
561.300;42816.715;   -9.577;57606.945
561.884;44004.879;   -7.127;58972.445
562.467;41900.340;   -7.118;57327.570
563.051;41219.895;  -13.358;54962.434
563.635;43076.184;  -10.178;52594.473
564.219;43774.316;   -7.837;50610.410
564.802;44522.383;  -11.398;49551.180
565.386;43850.000;  -12.788;48370.953
565.969;43094.875;   -9.077;48178.871
566.553;41663.031;   -6.207;49957.305
567.136;42636.355;   -8.568;50369.594
567.720;39772.387;  -11.868;49492.004
568.303;37680.883;   -8.268;50616.352
568.887;37697.930;   -8.698;50727.148
569.470;38347.289;   -6.808;51698.379
570.053;37599.145;  -13.188;52122.078
570.637;35030.168;  -12.037;52536.438
571.220;34784.148;   -8.577;51186.098
571.803;35980.184;   -8.498;51032.762
572.386;38052.148;  -10.498;49609.887
572.969;40460.820;   -9.388;48285.926
573.552;39043.152;   -8.338;47624.285
574.135;37328.391;   -8.518;45498.641
574.718;34809.422;  -13.628;41970.434
575.301;34299.941;  -10.893;41447.137
575.884;33790.465;   -8.158;40923.836
576.467;34947.742;  -10.328;45267.723
577.050;36200.645;  -13.058;48175.543
577.633;37238.719;   -9.458;47729.328
578.216;36543.969;   -8.928;47579.793
578.799;35718.945;   -9.358;47820.996
579.381;34893.781;  -11.388;48115.551
579.964;32682.885;  -11.718;47333.766
580.547;34906.305;   -8.588;46668.969
581.129;35682.590;   -8.859;44466.141
581.712;36406.016;  -10.729;44164.922
582.294;36624.645;  -11.118;46477.855
582.877;36689.105;   -5.218;48244.254
583.459;35152.691;   -8.679;47437.895
584.042;32965.141;  -10.709;46943.219
584.624;32594.705;  -11.669;46792.227
585.206;32536.818;   -8.218;46557.250
585.789;32874.441;  -10.569;45793.773
586.371;35128.375;  -11.859;43836.391
586.953;35879.395;  -10.719;42972.492
587.536;36755.875;   -7.198;42487.211
588.118;37485.883;   -8.720;42086.414
588.700;33409.641;  -10.439;43389.930
589.282;32379.064;   -9.198;43646.039
589.864;33367.754;   -9.199;43438.109
590.446;34662.684;  -11.319;43151.926
591.028;34712.590;  -11.159;42781.867
591.610;33394.563;  -11.779;42839.098
592.192;30526.320;   -7.668;42820.402
592.774;29185.490;  -11.949;40724.277
593.356;28263.043;  -12.129;39874.789
593.937;27284.150;  -10.669;39980.648
594.519;29423.174;   -6.509;42069.633
595.101;31472.629;  -10.849;42976.031
595.683;31543.053;  -11.679;44084.441
596.264;32191.002;   -9.049;43478.797
596.846;32277.574;   -8.849;43803.672
597.427;32281.789;   -9.570;42986.934
598.009;33500.375;  -12.620;42832.219
598.591;33737.402;  -10.039;42580.086
599.172;33430.879;  -10.369;43061.805
599.753;33562.727;   -9.140;41691.469
600.335;34671.012;  -11.430;40692.520
600.916;32821.707;   -9.939;39982.422
601.498;30900.529;   -8.479;40318.617
602.079;29508.834;  -10.920;40670.609
602.660;29035.334;  -11.480;41450.898
603.241;30839.977;  -11.699;41137.738
603.823;29678.047;   -9.579;38868.797
604.404;28593.789;  -10.620;38182.785
604.985;30373.842;  -10.450;38078.047
605.566;30745.814;   -9.129;38056.633
606.147;30671.098;   -7.510;37020.418
606.728;32040.475;  -10.660;37883.359
607.309;30613.992;  -11.740;38748.273
607.890;30565.223;   -9.759;38850.230
608.471;30144.709;   -8.250;37457.918
609.051;29374.617;   -9.240;36066.457
609.632;28084.514;  -12.120;35991.074
610.213;28070.352;   -9.110;37402.641
610.794;28929.229;   -8.030;38383.363
611.374;29025.729;   -8.110;40562.387
611.955;30151.188;  -13.560;38533.727
612.536;31598.531;  -11.400;36951.789
613.116;30975.557;   -8.070;37197.891
613.697;31259.729;  -10.830;38411.125
614.277;29301.348;  -11.641;38673.938
614.858;29931.590;  -13.310;37075.863
615.438;29762.979;   -7.460;35092.906
616.019;27852.277;   -7.601;33666.301
616.599;28037.961;  -12.020;34189.023
617.179;29595.576;  -11.780;36952.047
617.760;30793.943;   -8.570;39582.574
618.340;31517.063;  -11.471;38943.977
618.920;32377.104;  -11.170;37594.156
619.500;32468.205;  -11.071;37866.938
620.080;31387.844;   -7.750;37869.043
620.660;32303.090;  -12.711;36868.617
621.241;34093.492;  -10.211;36352.309
621.821;34785.059;  -10.961;35459.520
622.401;33573.789;   -7.720;35207.414
622.980;32325.744;   -8.981;35980.422
623.560;30892.029;   -9.331;37351.328
624.140;29496.236;   -9.850;34388.582
624.720;24876.924;   -7.451;32368.764
625.300;21596.156;   -9.070;32638.629
625.880;24939.193;  -12.601;34599.035
626.459;29064.162;  -11.751;36831.738
627.039;31824.203;   -9.281;38299.098
627.619;31686.344;   -8.801;38289.574
628.198;30251.299;  -12.071;37220.695
628.778;29256.525;   -9.461;37632.563
629.357;29714.463;   -8.491;38003.012
629.937;29933.115;   -9.721;38402.039
630.516;29489.656;   -9.951;37868.801
631.096;29393.723;  -11.731;35760.410
631.675;31358.014;   -8.572;35225.219
632.254;36485.359;  -11.282;35130.289
632.834;36196.832;  -13.322;35794.570
633.413;34584.512;  -10.301;35788.922
633.992;32267.928;   -8.582;34532.863
634.571;32522.582;   -8.352;33590.113
635.151;35002.875;  -11.912;34943.863
635.730;33871.348;  -10.511;35352.523
636.309;30742.725;   -7.731;35366.605
636.888;28099.307;   -9.952;36165.637
637.467;28262.533;  -11.672;37515.902
638.046;29536.734;   -8.901;39288.695
638.625;32365.168;   -7.912;38279.699
639.204;32367.186;  -10.022;37741.598
639.782;31379.766;  -12.252;38364.551
640.361;27733.986;  -10.041;36740.621
640.940;25125.035;  -11.161;34950.082
641.519;25876.807;   -9.701;34137.398
642.097;28702.824;  -11.271;35654.258
642.676;31330.697;   -8.651;35637.957
643.255;32747.486;   -8.711;36567.074
643.833;32256.930;   -9.581;37809.434
644.412;32202.338;  -13.711;37337.293
644.990;31010.096;  -11.811;37018.531
645.569;30666.904;   -9.411;36518.469
646.147;30489.271;  -10.291;36186.430
646.726;30864.084;  -12.401;36267.688
647.304;31800.053;  -10.411;36647.625
647.882;32999.227;   -9.651;39286.742
648.461;34695.051;   -9.631;39157.703
649.039;33264.867;  -11.881;35412.883
649.617;32059.381;   -9.661;34744.918
650.195;30978.424;   -9.301;35403.098
650.773;29747.801;  -10.511;35053.797
651.352;27586.379;  -11.521;33756.816
651.930;25198.486;  -12.211;31868.773
652.508;23602.211;   -9.171;33121.551
653.086;27398.359;   -9.371;33564.793
653.663;30712.217;  -13.161;34054.668
654.241;29241.090;  -13.031;35693.309
654.819;30345.824;   -9.371;36422.906
655.397;30223.207;  -10.511;38213.484
655.975;29723.836;  -10.371;39507.625
656.553;29424.166;  -10.051;39498.223
657.130;28128.963;  -10.061;40395.480
657.708;27332.006;   -9.561;39242.020
658.286;27437.119;  -11.511;38920.020
658.863;28666.826;  -10.261;40202.898
659.441;32056.721;   -7.531;39677.938
660.018;32262.297;   -9.501;40413.355
660.596;30802.672;  -13.301;39931.414
661.173;32127.738;  -11.211;39604.531
661.750;32610.971;   -9.951;39700.070
662.328;31494.768;   -9.390;39292.809
662.905;30557.701;  -11.330;38235.648
663.482;26597.803;   -9.050;36212.305
664.060;24617.098;   -8.240;35944.945
664.637;27431.596;  -10.050;35170.785
665.214;28725.248;  -11.760;34197.523
665.791;30360.111;  -10.530;34549.520
666.368;29745.412;   -9.690;35118.578
666.945;30142.205;   -9.320;36019.418
667.522;31696.598;  -11.860;36048.438
668.099;31385.836;  -10.770;36243.914
668.676;29926.586;   -6.260;35958.875
669.253;28641.389;   -7.000;37384.730
669.830;28776.002;  -10.190;36779.629
670.407;28776.467;   -9.550;35231.289
670.984;28695.109;   -9.260;35544.270
671.560;29692.438;   -9.280;35466.867
672.137;29081.789;  -11.810;34280.863
672.714;29920.738;  -11.490;34632.863
673.290;31320.924;   -7.740;35135.422
673.867;31329.283;  -10.660;36114.480
674.443;31240.545;  -12.230;36152.859
675.020;29266.494;  -10.450;35327.238
675.596;30018.588;   -9.260;35795.176
676.173;30693.406;  -10.780;35430.355
676.749;30369.535;  -13.690;33549.516
677.326;30029.076;  -11.980;32210.012
677.902;29786.186;   -8.630;32068.871
678.478;29230.984;  -10.730;32583.891
679.054;28192.164;  -10.520;32088.928
679.631;28609.965;  -11.920;30978.848
680.207;30030.822;   -7.490;33160.887
680.783;31485.275;   -9.860;35570.363
681.359;30622.043;  -13.380;36125.184
681.935;30436.242;  -12.480;35240.922
682.511;30626.934;   -7.900;34429.961
683.087;31134.191;   -7.710;34463.680
683.663;30221.674;  -11.480;34648.898
684.239;28745.125;  -14.090;34546.457
684.815;28086.891;   -7.560;35586.375
685.390;28124.131;   -9.910;35821.895
685.966;28671.914;  -11.159;35085.871
686.542;30939.000;  -11.169;34198.230
687.118;33416.066;   -5.959;32847.707
687.693;34119.922;  -10.329;32794.027
688.269;33737.477;  -12.059;33072.367
688.844;31974.736;  -10.909;33141.664
689.420;30049.234;   -8.019;33965.742
689.995;28419.063;   -8.399;34655.523
690.571;27012.926;  -10.949;33576.742
691.146;26876.607;   -9.619;32657.219
691.722;26815.414;   -8.999;32526.979
692.297;26211.607;  -11.589;33014.617
692.872;27295.539;  -11.739;34012.254
693.448;27259.961;  -11.059;34237.434
694.023;26286.771;  -10.139;34142.672
694.598;28138.475;   -9.029;34132.031
695.173;29026.951;  -13.319;34205.250
695.748;28011.609;  -10.169;32882.488
696.323;27865.262;   -8.339;32864.906
696.898;28081.936;   -8.169;33170.004
697.473;28441.992;  -12.309;32432.984
698.048;27798.193;  -10.989;31649.303
698.623;27350.281;   -9.329;30778.141
699.198;28556.590;   -9.849;31140.119
699.773;30053.742;  -12.329;31764.299
700.348;28986.373;  -10.389;31780.816
700.922;29011.719;   -9.269;32046.375
701.497;30169.965;   -9.329;32603.574
702.072;30521.256;  -10.789;34799.871
702.646;29059.990;  -10.839;35793.172
703.221;26746.555;   -9.099;35201.590
703.795;28461.273;  -10.939;34764.527
704.370;28971.688;  -12.859;34307.367
704.944;29138.664;  -11.559;33509.887
705.519;29688.250;   -7.939;31388.584
706.093;30809.227;  -10.499;31340.104
706.668;31423.309;  -11.289;32630.281
707.242;30355.871;  -11.509;32728.779
707.816;29154.865;   -9.639;32947.238
708.390;27647.467;  -11.429;33277.855
708.965;27996.877;  -11.869;33834.336
709.539;27911.254;  -11.689;33709.273
710.113;27895.924;  -10.478;33044.313
710.687;27483.465;  -10.228;31953.992
711.261;26055.930;  -13.698;30505.949
711.835;25856.412;  -13.378;30262.369
712.409;26046.807;   -9.698;31254.447
712.983;28074.801;  -11.898;32754.986
713.557;29459.453;  -15.138;34018.824
714.131;29381.748;  -14.098;34579.625
714.704;28382.654;   -9.958;33890.262
715.278;25869.609;  -10.028;33531.102
715.852;24603.822;  -11.148;33601.660
716.425;25690.127;   -9.068;33515.117
716.999;26917.984;  -10.038;33185.555
717.573;27774.877;   -9.798;33905.996
718.146;28803.105;  -12.378;35199.293
718.720;28877.717;  -11.918;35060.551
719.293;28796.852;   -8.088;34973.230
719.867;31881.172;  -10.888;36394.449
720.440;31872.926;  -11.938;36663.008
721.013;30098.637;  -12.818;35102.426
721.587;28353.803;  -10.298;33985.266
722.160;27022.711;  -10.048;33524.965
722.733;25945.143;  -12.108;32987.043
723.306;26163.762;  -10.818;33066.301
723.880;28262.182;   -8.908;33399.500
724.453;30724.600;   -9.878;33468.297
725.026;30199.715;  -11.188;33816.637
725.599;27285.236;  -11.678;32797.996
726.172;26918.543;   -9.618;33187.434
726.745;27924.572;   -8.258;35136.613
727.318;29167.084;  -12.978;35751.730
727.891;29952.154;  -12.148;35890.430
728.463;29540.498;   -8.968;34822.090
729.036;28154.010;  -10.188;32895.086
729.609;28583.980;  -11.788;31823.225
730.182;25941.199;  -11.788;31445.283
730.754;23691.262;  -10.268;32373.223
731.327;24175.762;   -9.998;33676.820
731.900;24573.088;  -12.228;33417.000
732.472;24960.094;  -13.848;31978.498
733.045;26220.576;   -8.698;30368.777
733.617;26174.336;  -10.607;30574.215
734.190;26586.977;  -11.507;31280.975
734.762;24608.943;  -13.647;31674.412
735.334;22810.791;   -9.767;31247.291
735.907;23101.307;   -9.897;29876.211
736.479;23520.084;  -11.637;29808.488
737.051;23234.947;   -9.567;30233.547
737.623;23724.879;   -8.187;31469.086
738.195;23884.623;  -11.187;31784.225
738.768;25838.324;  -12.337;32120.523
739.340;26976.197;  -12.227;32094.342
739.912;26268.416;  -11.057;31312.680
740.484;24794.680;  -10.207;31946.238
741.056;22880.666;  -10.047;32984.059
741.628;23644.824;  -13.627;33897.715
742.199;25628.197;   -7.177;33213.016
742.771;24551.387;  -10.797;31369.113
743.343;22785.369;  -11.997;31865.473
743.915;21957.457;  -12.867;32388.631
744.487;21855.887;   -7.617;31079.568
745.058;21902.779;   -9.557;30570.107
745.630;22490.430;   -9.877;29970.127
746.201;23936.578;  -14.177;29186.766
746.773;24944.205;   -9.237;28805.723
747.344;24768.045;   -9.847;29591.223
747.916;22755.828;  -11.657;31412.201
748.487;22585.063;  -10.587;32194.898
749.059;23907.227;   -8.707;32533.719
749.630;24720.686;  -10.537;32158.518
750.201;23778.002;  -11.687;30855.395
750.773;22031.717;  -11.647;28622.555
751.344;21680.705;   -7.147;28405.732
751.915;22513.207;   -9.757;28461.551
752.486;22815.523;  -12.427;27842.850
753.057;21001.609;  -12.227;27845.008
753.628;19704.176;  -10.417;27728.107
754.199;20478.684;  -11.767;27381.086
754.770;21536.711;  -11.187;25882.203
755.341;21875.262;  -10.507;25886.184
755.912;22157.346;   -9.387;26050.861
756.483;21711.043;  -10.647;26798.779
757.054;19909.541;  -11.837;27048.238
757.625;18433.313;  -12.716;26294.838
758.195;18216.299;   -9.666;26142.076
758.766;17909.441;   -8.656;26392.234
759.337;18408.676;  -12.856;26334.594
759.907;19728.357;  -13.366;27579.652
760.478;20660.221;   -8.576;28352.770
761.048;20264.273;  -10.526;27325.088
761.619;19208.596;  -11.116;26460.428
762.189;19212.992;  -12.136;26029.826
762.760;20222.898;   -9.456;26430.145
763.330;21497.848;   -7.136;26670.902
763.900;21196.252;  -11.786;26603.021
764.471;18900.115;  -11.546;25542.740
765.041;17496.816;   -8.096;24358.459
765.611;17206.951;   -8.876;23991.297
766.181;17328.168;  -12.196;24470.236
766.751;18468.225;  -11.636;24845.975
767.321;18430.082;  -10.156;24533.633
767.891;16440.658;  -11.766;24916.492
768.461;15752.150;  -14.936;24776.771
769.031;16214.729;  -12.356;24757.988
769.601;17955.857;   -7.526;24181.088
770.171;18125.904;  -10.766;23670.387
770.741;17067.883;  -13.176;22960.045
771.311;16939.330;  -10.616;22917.523
771.880;17639.418;   -9.576;23562.941
772.450;17708.947;  -10.336;24216.500
773.020;17635.307;  -13.516;24140.398
773.589;16717.313;  -13.466;24414.857
774.159;15936.123;   -8.686;23858.717
774.729;15535.082;   -9.476;22942.135
775.298;15258.011;  -13.666;22324.033
775.867;14830.004;  -11.716;21140.313
776.437;15085.660;   -9.906;20838.092
777.006;14915.438;  -12.166;20599.510
777.576;14453.464;  -12.356;20508.809
778.145;14329.202;  -11.646;20732.947
778.714;14477.185;   -8.226;21062.465
779.283;14057.390;   -9.556;20949.664
779.853;13482.886;  -14.116;20508.623
780.422;13850.921;  -11.506;20649.082
780.991;13454.082;   -9.556;21527.520
781.560;12113.481;   -9.095;22632.658
782.129;11837.864;  -12.135;23048.277
782.698;11832.484;  -10.865;23438.555
783.267;11463.515;   -9.335;23267.734
783.836;11356.877;  -11.045;22415.133
784.404;12329.749;  -13.865;20443.152
784.973;13074.229;  -13.095;19699.150
785.542;13187.573;  -11.575;19763.828
786.111;12968.308;   -9.705;20341.408
786.679;12492.133;  -12.105;20207.967
787.248;12252.269;  -12.455;19516.465
787.817;12081.047;  -11.535;18900.363
788.385;11756.896;   -9.765;17879.121
788.954;11222.164;  -14.005;17658.301
789.522;10547.175;  -11.955;17788.879
790.090;10874.848;  -10.135;18118.277
790.659;11522.314;  -10.975;18338.736
791.227;11202.241;  -13.375;18508.615
791.795;11532.943;  -12.375;17898.254
792.364;11848.754;  -10.725;17295.133
792.932;12248.268;   -9.715;16822.051
793.500;12571.409;  -12.675;17040.148
794.068;12777.335;  -13.495;17179.787
794.636;12954.530;  -10.885;16664.246
795.204;12220.938;  -11.045;16524.545
795.772;12152.140;  -13.175;17274.564
796.340;11655.277;  -12.445;17891.002
796.908;11348.059;   -9.735;17648.561
797.476;11227.255;   -9.815;17064.080
798.044;10862.068;  -13.985;16672.777
798.612;10163.652;  -13.115;17023.996
799.180; 9794.205;  -10.185;16561.615
799.747; 9635.803;   -9.055;15962.773
800.315; 9332.492;  -12.385;15296.992
800.883; 9153.897;  -15.035;14801.771
801.450; 9391.622;  -10.365;14534.430
802.018; 9540.327;   -9.855;14173.248
802.585; 9548.537;  -11.905;14029.547
803.153; 9511.481;  -11.585;13836.846
803.720; 9293.081;   -9.095;13567.324
804.287; 8754.551;   -9.135;13360.622
804.855; 8207.671;  -11.604;13681.981
805.422; 8063.868;  -11.794;13536.560
805.989; 8162.017;  -10.734;13355.958
806.556; 8349.287;  -10.444;13747.896
807.124; 8603.283;  -12.764;13987.376
807.691; 8577.654;  -12.964;14038.674
808.258; 8410.373;  -11.134;14120.152
808.825; 8075.205;   -9.854;13860.111
809.392; 8193.979;  -10.504;13268.790
809.959; 7750.271;  -13.054;12680.389
810.526; 7209.220;   -8.294;12427.308
811.093; 7140.696;   -8.394;12030.105
811.659; 7804.051;  -12.304;11653.664
812.226; 8470.839;  -13.944;11637.183
812.793; 8285.763;  -10.484;11611.521
813.360; 7617.072;  -10.144;11885.181
813.926; 7253.818;  -11.684;12770.539
814.493; 7043.295;  -13.644;12677.638
815.060; 6651.441;   -9.724;11974.336
815.626; 6554.235;   -9.854;11594.715
816.193; 6887.362;  -13.254;11579.474
816.759; 6936.409;  -13.204;11666.972
817.325; 6945.886;   -9.434;11325.530
817.892; 7270.325;  -10.134;11105.369
818.458; 7722.434;  -13.474;10843.928
819.024; 7403.953;  -11.854;10714.406
819.591; 7100.795;  -10.244;10469.165
820.157; 6904.753;  -10.704;10235.523
820.723; 6387.101;  -12.324;10847.563
821.289; 6061.110;   -9.444;11040.980
821.855; 6011.719;   -8.374;10357.100
822.421; 6021.705;  -10.234; 9978.918
822.987; 6006.345;  -13.294; 9754.177
823.553; 5602.475;  -10.884;10065.755
824.119; 5359.155;   -8.884;10036.294
824.685; 5513.303;   -6.784;10029.192
825.251; 5672.782;  -12.004;10199.230
825.816; 5616.962;  -11.474; 9820.189
826.382; 5301.131;   -9.174; 9297.248
826.948; 5396.913;   -9.214; 9381.347
827.513; 5820.241;  -10.774; 9450.726
828.079; 5754.705;  -11.924; 9472.444
828.645; 5148.944;  -10.543; 9292.643
829.210; 4911.592;  -10.533; 9065.341
829.776; 4860.801;  -10.753; 9132.620
830.341; 4741.168;  -10.173; 9092.878
830.906; 4869.168;  -10.743; 9078.557
831.472; 5220.627;  -11.113; 8534.535
832.037; 5076.355;  -10.603; 8677.874
832.602; 4589.651;  -13.323; 8628.692
833.167; 4345.694;  -10.823; 8879.031
833.733; 4296.621;  -10.113; 9189.790
834.298; 4440.756;  -13.583; 9052.608
834.863; 4598.828;  -12.703; 8895.087
835.428; 4615.044;  -10.523; 8824.266
835.993; 4441.235;   -6.963; 8845.385
836.558; 4227.560;  -10.763; 8888.563
837.123; 4272.766;   -9.903; 8966.582
837.688; 4525.166;   -9.913; 8617.860
838.253; 4813.359;  -10.283; 8590.699
838.817; 5006.792;  -12.963; 8443.797
839.382; 4933.696;  -14.243; 8799.356
839.947; 4635.439;  -10.733; 8810.595
840.511; 4340.653;   -9.383; 8796.394
841.076; 3953.351;  -12.563; 8347.231
841.641; 3993.173;  -12.953; 8224.330
842.205; 4112.456;   -7.043; 8223.349
842.770; 4117.325;   -8.163; 8622.107
843.334; 4212.766;  -12.503; 8410.386
843.898; 4166.745;  -11.693; 8337.465
844.463; 4169.978;  -10.203; 8506.283
845.027; 3983.953;   -9.533; 8280.962
845.591; 3806.234;  -13.443; 8231.141
846.156; 3826.390;  -13.143; 7969.179
846.720; 3755.689;   -9.433; 7768.278
847.284; 3661.007;  -11.033; 7630.957
847.848; 3521.647;  -10.403; 7472.395
848.412; 3421.219;  -11.553; 7437.394
848.976; 3449.613;   -8.393; 7674.592
849.540; 3354.492;   -8.713; 7836.011
850.104; 3375.807;  -12.463; 7913.669
850.668; 3734.040;  -12.973; 7694.508
851.232; 3930.173;  -10.793; 7756.887
851.796; 3816.780;  -10.662; 7926.545
852.359; 3493.293;  -13.082; 7827.844
852.923; 3290.032;  -12.192; 7641.163
853.487; 3148.591;  -11.912; 7342.501
854.050; 3135.865;  -10.892; 7042.820
854.614; 3273.133;  -13.992; 7151.338
855.177; 3372.314;  -11.732; 7105.077
855.741; 3408.398;   -8.962; 6989.675
856.304; 3307.739;   -9.442; 6596.634
856.868; 3286.689;  -14.192; 6356.272
857.431; 3416.788;  -12.702; 6468.571
857.995; 3555.688;   -9.942; 6373.210
858.558; 3599.732;   -9.112; 6324.448
859.121; 3342.033;  -12.932; 6408.327
859.684; 3150.634;  -13.442; 6347.886
860.247; 3243.981;  -10.632; 6321.264
860.810; 3286.971;  -11.272; 6301.903
861.374; 3047.821;   -9.832; 6607.881
861.937; 2775.817;  -11.762; 6408.200
862.500; 2768.773;   -9.722; 6572.639
863.062; 2908.647;  -10.512; 6387.297
863.625; 3038.709;  -11.232; 6190.836
864.188; 3202.702;  -14.112; 5807.254
864.751; 3301.238;  -11.302; 5682.413
865.314; 3239.554;  -10.112; 5547.492
865.876; 3008.188;  -12.182; 5500.150
866.439; 2949.999;  -10.722; 5415.909
867.002; 2908.894;   -9.252; 5501.567
867.564; 2734.426;   -9.572; 5413.946
868.127; 2528.605;  -13.142; 5160.325
868.689; 2402.572;  -12.902; 5133.183
869.252; 2297.108;   -9.732; 5252.382
869.814; 2193.776;   -9.432; 5297.141
870.377; 2189.787;  -11.552; 5390.919
870.939; 2253.096;   -9.052; 5599.898
871.501; 2332.241;  -10.982; 5248.336
872.063; 2357.612;  -12.292; 4854.235
872.626; 2299.322;  -14.912; 4817.074
873.188; 2280.068;  -13.112; 4987.732
873.750; 2259.921;  -13.442; 4868.651
874.312; 2183.129;   -9.402; 4779.330
874.874; 2105.862;  -11.062; 4866.348
875.436; 2023.773;  -13.931; 4718.887
875.998; 2016.199;   -9.561; 4660.005
876.560; 2056.207;  -11.321; 4462.964
877.122; 1999.750;  -12.221; 4145.042
877.683; 1883.586;  -12.191; 4056.481
878.245; 1790.514;  -12.101; 3950.740
878.807; 1825.133;   -8.971; 4058.958
879.369; 1854.553;  -12.071; 3954.677
879.930; 1770.370;  -14.621; 3941.495
880.492; 1702.103;  -10.311; 4067.014
881.053; 1682.131;  -10.901; 3859.633
881.615; 1593.870;  -14.411; 3776.071
882.176; 1494.161;  -13.761; 3734.750
882.738; 1437.514;   -9.181; 3678.489
883.299; 1414.014;  -11.791; 3405.407
883.860; 1399.057;  -13.121; 3351.106
884.422; 1389.686;  -11.211; 3394.044
884.983; 1367.798;  -10.091; 3166.443
885.544; 1334.915;   -8.461; 3189.802
886.105; 1300.638;  -12.361; 3160.360
886.666; 1215.933;  -14.141; 3093.059
887.227; 1018.204;  -11.361; 2941.957
887.788;  765.481;  -11.401; 2974.836
888.349;  583.480;  -13.791; 2721.214
888.910;  527.733;  -13.191; 2696.493
889.471;  538.268;   -9.881; 2560.172
890.032;  557.333;   -9.881; 2558.190
890.593;  573.517;  -10.371; 2567.669
891.153;  587.620;  -13.301; 2460.307
891.714;  582.461;  -11.431; 2372.046
892.275;  579.340;  -11.291; 2309.505
892.835;  572.015;  -11.471; 2382.543
893.396;  544.274;  -11.541; 2295.502
893.956;  501.784;  -11.181; 2162.420
894.517;  471.043;  -11.741; 2125.439
895.077;  467.871;  -11.671; 2086.978
895.638;  472.901;  -11.311; 2126.316
896.198;  452.823;   -9.831; 1838.275
896.758;  417.660;   -8.421; 1892.813
897.319;  391.759;  -12.351; 1792.232
897.879;  378.071;  -13.511; 1762.751
898.439;  357.088;  -12.001; 1661.149
898.999;  335.430;  -10.180; 1781.468
899.559;  324.730;  -12.030; 1703.347
900.119;  321.273;  -15.710; 1537.525
900.679;  318.580;   -8.900; 1638.384
901.239;  306.016;   -8.340; 1527.902
901.799;  295.483;  -13.910; 1456.441
902.359;  291.098;  -13.460; 1357.140
902.919;  285.753;  -11.490; 1331.118
903.479;  274.126;  -12.110; 1317.257
904.038;  254.267;  -11.720; 1262.595
904.598;  240.240;  -13.610; 1152.034
905.158;  237.085;  -11.040; 1240.893
905.717;  230.204;  -10.900; 1233.691
906.277;  220.627;  -15.080; 1217.330
906.836;  210.710;  -13.380; 1222.408
907.396;  202.072;  -10.780; 1193.047
907.955;  195.329;   -8.500; 1182.526
908.515;  189.994;  -12.760; 1099.364
909.074;  184.680;  -11.900; 1092.863
909.633;  179.189;   -8.950; 1069.121
910.192;  175.750;   -8.770; 1196.460
910.752;  169.518;  -12.390; 1029.960
911.311;  166.541;  -13.680; 1009.780
911.870;  163.977;  -12.370;  971.460
912.429;  165.265;  -10.900; 1094.080
912.988;  164.754;  -11.690; 1081.060
913.547;  159.508;  -13.240;  940.380
914.106;  155.798;  -11.990;  999.420
914.665;  152.600;   -9.990;  984.020
915.224;  150.887;  -12.880; 1035.760
915.782;  150.923;  -12.350;  922.560
916.341;  151.699;   -9.110; 1049.840
916.900;  147.299;   -9.270;  925.260
917.458;  145.211;  -13.240;  884.220
918.017;  144.363;  -13.550;  942.600
918.576;  144.511;  -12.320;  904.440
919.134;  142.999;  -11.490;  837.980
919.693;  141.060;  -13.670;  893.060
920.251;  139.260;  -15.470;  876.500
920.809;  138.566;  -11.290;  839.580
921.368;  138.984;  -10.210;  885.360
921.926;  138.096;  -12.140;  842.940
922.484;  136.334;  -13.080;  903.360
923.042;  135.377;  -11.720;  880.340
923.601;  139.003;   -7.480;  998.680
924.159;  136.873;  -11.570;  935.560
924.717;  132.815;  -13.840;  841.080
925.275;  133.367;  -10.640;  903.240
925.833;  132.641;  -11.540;  779.320
926.391;  133.327;  -12.960;  938.380
926.949;  131.522;  -14.130;  857.680
927.506;  131.559;  -11.750;  903.500
928.064;  133.385;  -10.250;  877.580
928.622;  131.791;  -13.030;  880.100
929.180;  130.728;  -13.400;  814.180
929.737;  132.100;  -10.700;  808.540
930.295;  136.126;  -10.070;  928.480
930.853;  137.522;  -11.960;  849.100
931.410;  137.840;  -13.120;  821.120
931.968;  137.701;  -10.770;  940.660
932.525;  137.587;  -10.680;  909.380
933.082;  137.455;  -13.130;  811.440
933.640;  138.130;  -13.210;  925.900
934.197;  137.968;  -11.060;  886.360
934.754;  137.910;   -9.580;  897.780
935.312;  140.665;  -14.000;  863.340
935.869;  144.977;  -10.710; 1012.980
936.426;  145.669;   -9.860;  872.800
936.983;  145.966;   -9.710;  889.020
937.540;  146.188;  -13.990;  838.280
938.097;  145.442;  -14.040;  940.120
938.654;  146.152;  -10.310;  898.860
939.211;  148.381;  -10.560;  952.480
939.768;  151.408;  -13.900;  915.420
940.324;  154.350;  -14.760;  904.200
940.881;  156.271;  -10.370;  878.500
941.438;  157.685;   -8.260; 1021.200
941.995;  153.973;  -12.540;  992.560
942.551;  151.247;  -14.670;  875.620
943.108;  150.046;  -10.450;  937.920
943.664;  152.128;  -10.750;  869.340
944.221;  155.963;  -11.550; 1088.140
944.777;  153.497;  -14.770;  869.680
945.334;  153.203;  -12.820;  884.840
945.890;  155.267;  -10.130;  946.480
946.446;  155.469;  -13.470;  947.020
947.003;  157.845;  -12.120;  964.940
947.559;  159.993;   -9.980; 1063.040
948.115;  160.161;   -9.080; 1026.540
948.671;  157.549;  -10.830;  967.300
949.227;  154.761;  -12.440;  859.560
949.783;  152.833;  -12.910;  858.900
950.339;  154.851;  -10.270;  991.000
950.895;  154.976;  -13.630; 1023.840
951.451;  153.783;  -15.100;  925.280
952.007;  152.604;  -11.330;  998.540
952.563;  151.968;  -10.580;  937.780
953.118;  150.404;  -13.440;  904.940
953.674;  150.599;  -12.710;  935.780
954.230;  150.113;  -10.350;  949.640
954.785;  147.706;   -9.190;  936.640
955.341;  146.343;  -11.200;  998.160
955.897;  144.613;  -16.560;  834.660
956.452;  146.506;  -12.570;  953.840
957.008;  146.931;   -7.970; 1083.640
957.563;  143.921;  -11.940; 1009.540
958.118;  138.204;  -13.450;  877.700
958.674;  138.046;  -12.030;  946.780
959.229;  140.418;   -9.410; 1013.980
959.784;  138.196;  -12.000;  832.400
960.339;  137.672;  -14.780; 1001.280
960.894;  134.048;   -9.860;  963.760
961.449;  130.176;   -9.970;  859.960
962.004;  129.426;  -10.900; 1212.840
962.559;  124.598;  -13.150;  860.140
963.114;  121.151;  -13.740;  742.480
963.669;  121.282;   -9.820;  915.500
964.224;  120.389;  -13.890;  874.340
964.779;  118.464;  -12.600;  828.420
965.334;  119.463;  -10.950; 1017.860
965.888;  118.777;  -11.170;  875.360
966.443;  121.859;  -12.540;  972.380
966.998;  121.578;  -15.780;  819.460
967.552;  120.858;   -9.760;  908.380
968.107;  117.210;   -9.060;  868.300
968.661;  118.124;  -11.950;  922.440
969.216;  117.590;  -12.800;  856.280
969.770;  118.268;  -11.210;  917.200
970.324;  117.468;  -11.610;  923.140
970.879;  114.343;  -11.370;  947.180
971.433;  111.075;  -12.540;  952.720
971.987;  105.992;  -11.320;  895.340
972.541;  103.514;  -10.720;  917.100
973.095;  103.346;   -9.680; 1009.460
973.649;  100.450;  -11.440;  809.480
974.203;  100.486;  -11.210;  829.040
974.757;  100.386;  -10.240;  855.220
975.311;  100.597;  -13.720;  872.600
975.865;   99.506;  -13.770;  881.820
976.419;   98.051;  -11.690;  857.400
976.973;   97.939;   -9.510;  849.620
977.526;   99.503;  -12.620;  949.920
978.080;   98.170;  -12.010;  796.780
978.634;   99.875;  -10.170;  921.320
979.187;   97.151;   -9.020;  905.400
979.741;   95.353;   -9.820; 1018.380
980.294;   90.239;  -14.870;  789.160
980.848;   88.138;  -12.380;  717.220
981.401;   91.752;  -10.350;  816.540
981.955;   93.400;  -13.720;  844.300
982.508;   91.080;  -11.490;  746.340
983.061;   92.499;  -10.000;  915.260
983.615;   88.931;  -11.480;  798.800
984.168;   85.114;  -13.220;  770.080
984.721;   84.283;  -13.960;  880.760
985.274;   83.559;  -10.870;  867.500
985.827;   82.418;   -9.790;  834.220
986.380;   79.992;  -13.120;  721.340
986.933;   79.548;  -12.450;  864.800
987.486;   77.463;  -10.210;  861.920
988.039;   77.808;   -8.430;  863.100
988.591;   74.553;  -10.520;  893.260
989.144;   72.562;  -14.860;  737.260
989.697;   71.837;  -13.080;  758.740
990.250;   72.133;  -10.150;  858.100
990.802;   70.462;  -13.430;  755.860
991.355;   71.940;  -12.750;  974.880
991.907;   69.564;  -12.040;  864.320
992.460;   67.188;  -11.330;  753.760
993.012;   66.345;  -13.610;  749.540
993.565;   65.423;  -13.460;  711.360
994.117;   67.237;   -9.360;  950.780
994.669;   63.932;  -11.300;  701.320
995.221;   61.717;  -13.540;  791.920
995.774;   60.041;  -13.430;  787.580
996.326;   59.262;  -12.520;  740.220
996.878;   59.006;  -10.950;  838.420
997.430;   56.790;  -14.300;  699.860
997.982;   55.214;  -13.760;  750.140
998.534;   54.797;  -11.530;  739.060
999.086;   53.631;  -10.310;  738.220
999.638;   52.761;  -12.530;  661.380
1000.190;   51.782;  -11.840;  699.320
1000.741;   51.669;  -10.260;  742.700
1001.293;   51.553;   -8.860;  686.020
1001.845;   49.797;  -13.700;  676.640
1002.396;   49.392;  -12.100;  743.400
1002.948;   49.228;  -12.760;  737.400
1003.500;   48.241;  -10.380;  723.780
1004.051;   48.834;  -11.900;  907.580
1004.603;   46.282;  -12.250;  791.820
1005.154;   42.829;  -13.210;  608.980
1005.705;   42.190;  -10.950;  723.960
1006.257;   41.931;  -13.880;  707.220
1006.808;   40.803;  -12.840;  685.460
1007.359;   39.994;  -10.570;  763.240
1007.910;   39.972;   -9.620;  646.640
1008.461;   40.082;  -13.630;  732.940
1009.013;   38.617;  -17.200;  588.340
1009.564;   39.911;  -10.200;  793.520
1010.115;   37.572;  -12.570;  597.040
1010.665;   36.847;  -15.150;  602.160
1011.216;   37.043;  -14.480;  667.920
1011.767;   36.581;  -11.340;  697.920
1012.318;   37.241;   -9.780;  736.980
1012.869;   36.362;  -12.380;  679.000
1013.419;   35.602;  -15.560;  603.120
1013.970;   35.027;  -11.010;  666.640
1014.521;   34.941;  -11.610;  620.620
1015.071;   34.895;  -13.450;  670.380
1015.622;   34.514;  -13.870;  635.460
1016.172;   34.098;  -11.610;  596.820
1016.723;   33.620;  -12.120;  614.380
1017.273;   33.302;  -13.620;  604.160
1017.823;   33.006;  -14.140;  650.340
1018.374;   33.073;  -12.800;  611.760
1018.924;   33.382;  -12.340;  716.880
1019.474;   33.166;  -11.410;  718.880
1020.024;   31.549;  -14.770;  657.580
1020.574;   32.615;   -9.780;  726.160
1021.124;   32.915;   -8.560;  673.580
1021.674;   31.187;  -15.190;  559.120
1022.224;   32.100;  -13.530;  708.940
1022.774;   32.026;  -13.280;  668.820
1023.324;   33.192;  -10.690;  753.520
1023.874;   32.983;  -10.240;  875.760
1024.423;   30.382;  -12.540;  613.700
1024.973;   30.351;  -10.010;  610.760
1025.523;   29.961;  -10.550;  620.960
1026.072;   29.702;  -13.560;  606.420
1026.622;   29.481;  -15.120;  675.740
1027.172;   30.199;  -11.260;  715.660
1027.721;   29.607;  -11.410;  601.220
1028.270;   29.565;  -13.530;  663.400
1028.820;   29.601;  -13.680;  638.080
1029.369;   28.904;  -13.520;  612.700
1029.918;   29.398;  -10.980;  649.840
1030.468;   27.675;  -13.530;  564.780
1031.017;   28.766;  -13.170;  634.800
1031.566;   28.310;  -12.200;  608.900
1032.115;   28.674;   -9.960;  694.500
1032.664;   27.231;  -13.210;  596.480
1033.213;   27.929;  -12.500;  735.420
1033.762;   27.140;  -11.910;  635.620
1034.311;   27.289;   -9.640;  677.220
1034.860;   26.931;  -13.310;  691.000
1035.408;   26.889;  -11.830;  722.720
1035.957;   27.569;  -12.000;  719.540
1036.506;   26.434;  -11.690;  530.800
1037.055;   27.679;  -10.990;  844.320
1037.603;   26.322;  -15.120;  664.000
1038.152;   24.526;  -12.450;  534.760
1038.700;   25.284;  -10.560;  585.740
1039.249;   24.968;  -11.080;  681.220
1039.797;   24.839;  -12.540;  633.360
1040.345;   25.670;  -11.920;  705.420
1040.894;   25.070;  -11.410;  625.300
1041.442;   24.473;  -14.320;  632.200
1041.990;   23.239;  -16.240;  559.160
1042.538;   23.750;  -11.680;  536.180
1043.087;   23.414;  -10.760;  570.860
1043.635;   24.610;  -11.850;  670.500
1044.183;   23.571;  -15.480;  586.400
1044.731;   23.353;  -11.770;  576.000
1045.279;   23.503;  -13.090;  674.920
1045.827;   25.040;  -12.440;  892.400
1046.374;   22.034;  -13.840;  515.420
1046.922;   22.430;  -13.220;  590.580
1047.470;   23.297;  -10.230;  691.300
1048.018;   23.248;  -14.590;  647.960
1048.565;   23.305;  -12.050;  708.600
1049.113;   21.766;  -11.650;  557.000
1049.660;   22.221;  -10.510;  629.660
1050.208;   22.090;  -13.310;  675.640
1050.755;   20.955;  -15.900;  606.580
1051.303;   22.096;  -11.430;  686.820
1051.850;   21.647;   -8.480;  635.120
1052.397;   19.606;  -15.010;  473.960
1052.945;   20.286;  -13.960;  617.760
1053.492;   22.328;  -13.150;  741.840
1054.039;   22.381;   -9.630;  720.180
1054.586;   20.252;  -13.680;  557.240
1055.133;   20.885;  -14.570;  693.140
1055.680;   21.019;  -13.820;  646.620
1056.227;   19.893;  -11.730;  542.780
1056.774;   21.067;  -12.480;  794.980
1057.321;   19.517;  -13.930;  523.260
1057.868;   19.403;  -11.690;  651.320
1058.415;   19.673;   -9.520;  651.980
1058.961;   20.623;  -13.160;  678.940
1059.508;   19.289;  -12.920;  643.820
1060.055;   18.960;  -11.920;  581.780
1060.601;   19.459;  -11.500;  624.300
1061.148;   19.679;  -14.330;  616.820
1061.694;   18.199;  -16.870;  592.580
1062.241;   18.879;  -10.330;  596.320
1062.787;   19.223;  -10.620;  663.140
1063.334;   20.185;  -10.110;  808.560
1063.880;   19.053;  -13.400;  668.360
1064.426;   18.403;  -10.680;  706.820
1064.972;   18.206;   -9.920;  601.340
1065.518;   16.973;  -10.980;  566.640
1066.065;   17.897;  -14.890;  624.460
1066.611;   16.738;  -12.870;  598.800
1067.157;   18.361;  -12.950;  641.860
1067.703;   18.148;  -13.540;  668.480
1068.249;   17.529;  -13.540;  605.220
1068.794;   17.138;  -12.600;  626.880
1069.340;   16.410;  -10.620;  578.960
1069.886;   16.846;  -12.830;  590.700
1070.432;   15.732;  -14.870;  541.720
1070.977;   15.948;  -11.980;  601.080
1071.523;   16.478;   -8.200;  573.060
1072.068;   16.219;  -12.330;  582.000
1072.614;   16.080;  -16.370;  527.760
1073.160;   17.226;  -11.100;  687.040
1073.705;   15.715;  -10.480;  572.520
1074.250;   16.076;  -14.520;  559.900
1074.796;   16.234;  -11.460;  655.160
1075.341;   16.306;  -11.950;  664.100
1075.886;   15.644;  -11.460;  594.240
1076.431;   15.150;  -13.770;  649.880
1076.976;   14.929;  -12.680;  639.220
1077.521;   14.582;  -13.170;  583.080
1078.067;   14.362;  -10.860;  579.400
1078.612;   15.006;  -13.920;  661.620
1079.156;   14.496;  -13.880;  601.540
1079.701;   15.521;  -13.120;  693.260
1080.246;   15.723;   -9.940;  696.300
1080.791;   15.003;  -14.740;  625.020
1081.336;   14.854;  -13.750;  659.320
1081.880;   14.565;  -13.400;  649.680
1082.425;   13.760;  -12.220;  573.480
1082.970;   15.182;  -11.610;  717.040
1083.514;   13.434;  -13.580;  597.000
1084.059;   13.899;  -12.810;  586.720
1084.603;   14.182;  -12.320;  565.840
1085.147;   13.292;  -13.190;  645.220
1085.692;   14.146;  -12.480;  716.800
1086.236;   11.950;  -13.020;  503.140
1086.780;   14.504;   -9.190;  751.440
1087.325;   13.635;  -12.480;  654.620
1087.869;   12.890;  -12.450;  610.700
1088.413;   13.870;  -12.240;  705.040
1088.957;   11.939;   -9.020;  543.400
1089.501;   13.524;  -10.320;  766.640
1090.045;   12.596;  -12.720;  726.480
1090.589;   10.491;  -13.690;  569.920
1091.133;   12.158;  -10.020;  673.340
1091.676;   12.169;  -12.330;  591.940
1092.220;   11.279;  -14.970;  600.920
1092.764;   13.429;  -12.430;  706.960
1093.307;   12.925;   -9.800;  673.780
1093.851;   10.910;  -14.970;  556.540
1094.395;   11.883;  -15.310;  683.140
1094.938;   10.510;  -10.370;  632.520
1095.482;   10.919;  -11.050;  559.800
1096.025;   11.869;  -11.840;  710.880
1096.568;   12.326;  -12.840;  779.280
1097.112;   10.366;  -14.700;  508.180
1097.655;   11.429;   -8.720;  603.000
1098.198;    9.870;  -13.610;  600.180
1098.741;    9.678;  -13.350;  612.860
1099.285;   11.039;  -11.230;  657.300
1099.828;    8.250;  -11.840;  439.400
1100.371;   10.590;  -10.840;  608.160
1100.914;   10.666;  -14.190;  682.660
1101.457;   10.234;  -11.240;  679.900
1101.999;    9.882;  -11.270;  584.680
1102.542;    9.626;  -11.480;  641.440
1103.085;    9.400;  -11.750;  658.500
1103.628;   10.291;  -11.400;  762.060
1104.170;    9.808;  -10.490;  588.280
1104.713;    9.773;  -10.600;  646.700
1105.256;    9.092;  -14.360;  557.440
1105.798;    7.889;  -13.210;  499.980
1106.341;   10.404;  -10.270;  728.900
1106.883;    9.253;  -12.200;  521.340
1107.425;    9.047;  -13.110;  668.180
1107.968;    9.068;  -12.840;  612.380
1108.510;    9.620;   -6.480;  684.960
1109.052;    7.481;  -13.940;  612.620
1109.594;    8.138;  -13.690;  554.440
1110.136;    8.428;  -11.880;  643.220
1110.679;    8.096;   -9.500;  633.080
1111.221;    8.338;  -14.160;  604.460
1111.763;    7.784;  -13.980;  559.220
1112.304;    7.426;  -13.880;  547.140
1112.846;    7.947;  -12.210;  666.240
1113.388;   10.508;  -11.390;  942.180
1113.930;    7.614;  -14.540;  694.200
1114.472;    6.604;  -12.640;  606.540
1115.013;    6.644;  -11.620;  551.280
1115.555;    6.801;  -13.640;  587.100
1116.097;    6.294;  -15.380;  579.480
1116.638;    7.287;  -12.640;  684.600
1117.180;    7.803;   -9.850;  667.740
1117.721;    7.181;  -13.690;  568.580
1118.262;    7.429;  -12.680;  677.960
1118.804;    7.493;  -12.530;  637.340
1119.345;    6.186;  -11.690;  578.400
1119.886;    7.428;  -13.380;  704.040
1120.427;    5.985;  -14.070;  589.020
1120.969;    5.856;  -13.500;  597.920
1121.510;    5.548;  -11.480;  563.060
1122.051;    6.398;  -12.830;  723.580
1122.592;    5.689;  -14.290;  655.420
1123.133;    4.244;  -12.400;  547.940
1123.673;    6.946;  -10.130;  706.480
1124.214;    5.576;  -12.930;  612.460
1124.755;    6.095;  -14.380;  639.460
1125.296;    5.006;  -14.000;  627.320
1125.836;    5.794;  -10.070;  691.500
1126.377;    5.349;  -12.640;  599.660
1126.918;    5.432;  -12.960;  614.980
1127.458;    4.895;  -13.350;  622.220
1127.999;    5.768;  -10.750;  656.980
1128.539;    5.097;  -12.350;  694.240
1129.079;    4.614;  -14.860;  632.720
1129.620;    3.755;  -13.840;  558.100
1130.160;    4.622;  -12.330;  539.480
1130.700;    5.070;  -14.530;  640.840
1131.240;    5.519;  -12.530;  643.700
1131.781;    4.353;  -14.450;  619.680
1132.321;    5.154;   -9.790;  599.120
1132.861;    2.756;  -14.860;  564.200
1133.401;    2.688;  -14.290;  593.940
1133.941;    4.031;  -11.750;  626.280
1134.481;    3.651;   -9.920;  597.580
1135.020;    3.568;  -12.290;  609.160
1135.560;    3.714;  -11.650;  674.940
1136.100;    2.779;  -16.270;  501.160
1136.640;    2.833;  -10.890;  510.480
1137.179;    3.382;  -14.180;  537.960
1137.719;    3.386;  -16.250;  605.400
1138.258;    4.120;  -14.230;  587.360
1138.798;    3.762;   -9.090;  663.780
1139.337;    2.335;  -15.130;  482.840
1139.877;    2.899;  -13.680;  642.360
1140.416;    5.865;  -11.320;  878.060
1140.955;    2.161;  -10.860;  535.380
1141.494;    2.843;  -12.920;  669.280
1142.034;    3.039;  -13.930;  583.520
1142.573;    3.316;  -11.440;  646.280
1143.112;    2.136;  -12.000;  553.480
1143.651;    2.485;  -13.670;  536.480
1144.190;    2.978;  -12.730;  691.640
1144.729;    2.337;  -14.560;  607.420
1145.267;    2.817;  -11.830;  584.900
1145.806;    3.215;  -12.230;  637.040
1146.345;    1.427;  -14.130;  635.020
1146.884;    1.858;  -11.590;  622.500
1147.422;    1.143;  -12.550;  533.060
1147.961;    3.296;  -11.180;  708.460
1148.500;    2.781;  -11.510;  669.720
1149.038;    2.448;  -11.640;  632.500
1149.577;    2.647;  -10.130;  698.640
1150.115;   -0.209;  -13.970;  452.280
1150.653;    1.588;  -14.520;  607.340
1151.192;    1.231;  -12.810;  552.920
1151.730;    1.581;   -9.100;  652.560
1152.268;    1.739;  -12.220;  589.520
1152.806;    1.328;  -14.140;  571.180
1153.344;   -0.324;  -12.350;  577.640
1153.882;    1.278;   -8.980;  600.060
1154.421;    0.411;  -15.190;  470.620
1154.958;    0.001;  -15.210;  595.240
1155.496;    1.510;  -12.850;  645.280
1156.034;    1.124;   -9.940;  721.880
1156.572;    2.549;  -13.570;  667.060
1157.110;   -0.300;  -14.590;  473.940
1157.647;    1.743;  -13.030;  676.960
1158.185;    0.128;  -12.140;  564.320
1158.723;   -1.145;  -14.390;  509.200
1159.260;    0.334;  -14.090;  701.700
1159.798;    1.129;  -11.920;  658.160
1160.335;    0.217;  -11.110;  631.820

