
Integration time [ms]:   3.276
Averaging Nr. [scans]: 1000
Smoothing Nr. [pixels]: 0
Data measured with spectrometer [name]: 7414430SP
Wave   ;Sample   ;Dark     ;Reference
[nm]   ;[counts] ;[counts] ;[counts] 

288.544;  151.618;    7.793;  793.890
289.143;  156.090;    7.462;  681.602
289.742;  155.792;    8.602;  828.814
290.341;  140.638;    1.321;  789.841
290.940;  129.413;   -0.709;  730.702
291.538;  130.031;    0.881;  881.108
292.137;  130.784;    0.122;  792.581
292.736;  135.750;   -1.929;  975.101
293.335;  131.697;   -8.229;  735.086
293.934;  132.068;   -5.279;  781.677
294.532;  130.894;   -1.369; 1031.958
295.131;  116.493;   -7.641;  834.394
295.730;  116.723;   -8.420;  809.588
296.328;  114.865;   -5.611;  783.442
296.927;  117.358;   -5.781;  779.652
297.525;  117.463;   -6.361;  781.236
298.124;  106.949;  -11.382;  654.009
298.722;  110.626;   -7.641;  761.933
299.321;  109.174;   -6.811;  708.597
299.919;  107.681;   -6.991;  751.918
300.518;  104.356;  -10.362;  689.338
301.116;  105.340;   -9.581;  691.381
301.715;  105.800;   -4.891;  730.222
302.313;  105.168;   -8.801;  704.943
302.911;  100.243;   -8.522;  733.830
303.509;  105.359;   -6.171;  925.627
304.108;  103.184;   -7.311;  760.383
304.706;  101.961;   -8.321;  801.664
305.304;   96.429;  -10.222;  796.707
305.902;  101.958;   -6.021;  784.484
306.500;   98.942;   -4.971;  728.200
307.098;   96.488;   -7.061;  746.560
307.696;   94.543;   -8.801;  780.432
308.294;   94.742;   -6.411;  731.359
308.892;   97.803;   -2.901;  759.769
309.490;   94.169;   -5.041;  712.161
310.088;   91.048;   -5.002;  788.444
310.686;   95.176;   -2.041;  821.749
311.284;   91.871;   -2.351;  766.040
311.882;   89.196;   -4.422;  731.225
312.480;   84.605;   -4.192;  697.167
313.078;   87.026;   -1.172;  808.331
313.675;   88.011;   -2.601;  691.600
314.273;   83.394;   -1.312;  797.837
314.871;   82.895;   -3.942;  589.829
315.468;   80.530;   -2.802;  652.090
316.066;   83.288;   -0.701;  694.427
316.664;   75.547;   -4.362;  656.351
317.261;   80.696;   -2.872;  910.128
317.859;   75.116;   -2.022;  768.735
318.456;   76.135;   -0.531;  830.096
319.054;   72.049;   -3.912;  787.828
319.651;   70.227;   -4.752;  759.928
320.249;   69.411;   -2.602;  810.188
320.846;   68.616;   -0.821;  714.286
321.443;   64.842;   -4.642;  832.135
322.041;   62.263;   -5.002;  812.315
322.638;   59.101;   -3.982;  701.456
323.235;   61.532;   -3.411;  665.683
323.833;   58.979;   -7.361;  740.354
324.430;   53.640;   -8.611;  615.900
325.027;   53.675;   -4.061;  876.855
325.624;   54.593;   -4.031;  644.532
326.221;   51.322;   -7.481;  689.717
326.818;   50.761;   -5.281;  818.332
327.415;   54.670;   -7.460;  748.828
328.012;   53.612;   -5.510;  690.585
328.609;   52.535;   -7.880;  731.389
329.206;   50.318;   -8.331;  778.621
329.803;   50.483;   -5.121;  737.841
330.400;   53.886;   -4.510;  704.260
330.997;   54.808;   -6.441;  817.147
331.594;   53.081;   -8.831;  788.185
332.191;   58.057;   -7.621;  728.722
332.787;   62.130;   -4.591;  844.463
333.384;   59.829;   -7.412;  763.093
333.981;   59.142;   -8.293;  815.687
334.578;   60.808;   -7.052;  708.378
335.174;   63.956;   -3.102;  731.469
335.771;   64.379;   -5.943;  836.456
336.367;   61.080;   -7.393;  710.631
336.964;   63.956;   -4.063;  793.266
337.561;   61.516;   -3.813;  731.112
338.157;   57.461;   -4.654;  911.916
338.754;   55.068;   -7.934;  796.589
339.350;   53.457;   -4.414;  722.493
339.946;   54.758;   -4.664;  773.135
340.543;   47.537;   -6.375;  846.136
341.139;   41.298;   -9.815;  720.836
341.735;   39.429;   -4.526;  772.593
342.332;   38.847;   -4.895;  691.472
342.928;   38.956;   -4.295;  795.394
343.524;   33.021;   -5.476;  761.684
344.120;   28.625;   -5.856;  738.562
344.716;   32.257;   -2.155;  723.717
345.313;   30.236;   -6.275;  795.342
345.909;   24.750;   -8.815;  627.336
346.505;   27.248;   -5.305;  740.247
347.101;   27.361;   -2.674;  827.864
347.697;   28.011;   -4.344;  785.398
348.293;   22.412;   -9.975;  627.244
348.889;   22.898;   -5.774;  745.914
349.485;   23.171;   -5.004;  688.205
350.081;   22.360;   -4.704;  772.592
350.676;   18.435;   -6.635;  691.606
351.272;   22.305;   -4.504;  809.530
351.868;   22.567;   -3.914;  780.497
352.464;   19.677;   -9.044;  723.932
353.059;   15.653;   -8.314;  646.017
353.655;   19.048;   -7.024;  777.063
354.251;   19.970;   -5.343;  759.845
354.846;   14.587;   -8.604;  740.646
355.442;   12.711;   -6.945;  753.071
356.038;   13.758;   -7.564;  751.708
356.633;   14.142;   -5.814;  728.594
357.229;   12.372;   -7.364;  724.757
357.824;   10.300;   -8.024;  703.600
358.420;    9.509;   -9.384;  679.726
359.015;   10.399;   -5.104;  695.357
359.610;   11.051;   -6.854;  763.920
360.206;    4.939;  -10.185;  603.240
360.801;    8.122;   -7.054;  646.503
361.396;   10.745;   -5.034;  725.975
361.992;    5.562;   -8.284;  668.220
362.587;    2.957;   -8.625;  670.160
363.182;    5.217;   -7.674;  689.631
363.777;    5.384;   -5.164;  738.242
364.372;    5.564;   -8.604;  737.314
364.967;    1.075;   -9.055;  680.744
365.563;    5.817;   -6.114;  815.567
366.158;    2.726;   -5.814;  685.161
366.753;    4.122;   -7.854;  649.263
367.348;    1.502;   -7.804;  746.056
367.942;    2.285;   -7.954;  697.298
368.537;    1.331;   -4.984;  754.245
369.132;    0.708;   -8.564;  703.428
369.727;   -2.839;   -8.855;  638.079
370.322;   -1.768;   -6.245;  580.186
370.917;   -1.458;   -6.425;  710.646
371.511;    1.016;   -6.294;  861.834
372.106;   -2.812;   -7.685;  776.964
372.701;   -5.556;   -7.335;  585.988
373.296;   -0.330;   -4.564;  863.135
373.890;   -5.300;  -10.235;  647.840
374.485;   -7.826;   -7.885;  691.199
375.079;   -3.601;   -7.324;  738.685
375.674;   -1.784;   -3.494;  812.970
376.268;   -6.495;   -8.525;  691.759
376.863;  -12.302;  -10.086;  580.327
377.457;   -6.025;   -7.025;  662.490
378.052;   -7.789;   -3.585;  764.884
378.646;   -8.488;   -7.595;  741.167
379.240;   -8.864;   -8.335;  721.176
379.835;   -8.170;   -5.785;  636.978
380.429;  -10.621;   -4.335;  562.557
381.023;   -9.544;   -6.805;  779.205
381.617;  -12.076;   -9.195;  680.106
382.212;   -9.201;   -6.905;  685.303
382.806;   -7.697;   -3.745;  760.690
383.400;  -12.460;   -7.745;  672.281
383.994;  -12.625;   -9.765;  664.870
384.588;   -9.556;   -6.564;  697.701
385.182;   -7.935;   -5.344;  726.624
385.776;   -9.934;   -8.514;  706.875
386.370;  -12.858;   -9.555;  681.968
386.964;  -12.329;   -8.715;  684.155
387.558;   -9.744;   -6.174;  598.360
388.152;  -13.707;   -8.725;  681.959
388.745;  -12.048;   -7.965;  814.707
389.339;   -9.063;   -5.924;  747.642
389.933;   -8.921;   -5.524;  695.370
390.527;   -9.937;   -7.114;  859.029
391.120;  -16.110;  -10.725;  595.318
391.714;  -12.822;   -8.035;  711.633
392.308;  -10.085;   -3.574;  780.253
392.901;  -14.214;   -7.245;  642.460
393.495;  -15.482;   -9.285;  595.414
394.089;  -14.044;   -5.895;  760.452
394.682;  -13.899;   -4.295;  697.188
395.275;  -14.390;   -9.875;  719.927
395.869;  -16.324;   -8.485;  667.314
396.462;  -14.206;   -7.455;  616.609
397.056;  -10.244;   -5.424;  776.621
397.649;  -15.199;   -6.605;  731.575
398.242;  -13.184;   -8.224;  712.645
398.836;  -12.132;   -7.474;  766.408
399.429;  -12.850;   -7.094;  631.041
400.022;  -16.106;   -9.475;  665.902
400.615;  -13.542;   -7.145;  805.609
401.208;  -12.554;   -7.174;  691.451
401.802;  -13.997;   -5.515;  699.329
402.395;  -15.800;   -9.875;  683.502
402.988;  -17.027;   -8.845;  696.627
403.581;  -13.139;   -8.874;  646.878
404.174;  -10.894;   -5.324;  686.568
404.767;  -13.746;   -9.575;  638.583
405.360;  -16.406;  -10.965;  621.445
405.953;  -10.420;   -8.764;  759.034
406.545;  -10.112;   -7.514;  725.342
407.138;  -14.125;  -10.025;  618.350
407.731;  -13.748;  -10.034;  613.303
408.324;   -8.996;   -9.374;  660.554
408.917;  -10.524;   -6.534;  681.864
409.509;  -12.137;   -8.004;  740.396
410.102;  -14.547;   -9.875;  643.948
410.695;   -8.731;   -8.604;  665.758
411.287;   -8.158;   -6.794;  599.821
411.880;  -10.425;   -9.334;  585.421
412.472;  -12.739;  -10.254;  613.092
413.065;  -10.720;   -6.714;  629.408
413.657;   -8.515;   -7.234;  576.678
414.250;   -8.361;  -10.544;  646.681
414.842;  -10.379;   -9.744;  676.353
415.434;   -8.263;   -6.994;  570.463
416.027;   -3.586;   -5.893;  652.196
416.619;   -5.826;   -7.264;  713.400
417.211;   -5.752;  -10.374;  599.352
417.804;   -2.984;   -7.993;  628.499
418.396;   -6.298;   -7.234;  607.643
418.988;   -4.384;   -9.443;  659.238
419.580;   -8.047;  -10.724;  568.276
420.172;   -5.711;  -10.323;  536.196
420.764;   -1.237;   -8.793;  672.482
421.356;   -2.115;  -11.143;  636.898
421.948;   -3.208;   -8.293;  677.661
422.540;    1.178;   -7.893;  680.027
423.132;    0.989;   -7.082;  600.641
423.724;   -2.879;   -8.653;  561.267
424.316;   -0.924;  -10.213;  621.345
424.908;    2.859;   -9.762;  591.517
425.500;    3.841;   -5.572;  647.978
426.092;    3.799;   -8.422;  648.268
426.683;    2.968;   -9.283;  684.836
427.275;    5.441;   -7.852;  641.471
427.867;    7.385;   -5.272;  668.948
428.458;    8.309;   -7.682;  732.344
429.050;    6.590;  -10.612;  680.749
429.642;    8.531;   -9.882;  743.124
430.233;    9.731;   -6.962;  569.356
430.825;   10.218;   -6.842;  724.809
431.416;    7.336;   -9.672;  698.241
432.008;   11.647;   -6.552;  651.723
432.599;   11.757;   -6.891;  656.073
433.190;    9.567;  -10.912;  637.670
433.782;    7.792;  -11.172;  590.395
434.373;   15.864;   -6.061;  884.765
434.964;   14.275;   -8.251;  602.920
435.556;   11.710;   -9.722;  634.537
436.147;   15.023;   -9.082;  758.490
436.738;   14.309;   -8.041;  701.099
437.329;   21.212;   -7.341;  721.723
437.920;   13.104;   -8.162;  666.688
438.511;   12.637;  -11.802;  564.526
439.103;   19.319;  -10.191;  623.998
439.694;   21.656;   -7.601;  681.583
440.285;   21.598;   -8.541;  764.432
440.876;   19.400;   -9.751;  845.738
441.466;   19.901;   -9.401;  575.162
442.057;   25.280;   -7.760;  665.814
442.648;   24.803;   -9.971;  746.255
443.239;   21.634;  -11.001;  620.477
443.830;   26.424;   -7.990;  704.958
444.421;   29.458;   -7.910;  655.474
445.011;   25.256;   -8.131;  693.619
445.602;   24.744;   -7.111;  743.126
446.193;   26.721;  -10.920;  488.117
446.783;   31.105;   -6.500;  640.397
447.374;   27.271;   -8.671;  692.759
447.964;   27.137;  -10.781;  713.770
448.555;   35.865;   -9.650;  822.742
449.145;   32.867;   -8.660;  662.853
449.736;   32.867;   -8.990;  803.179
450.326;   33.180;   -9.500;  713.626
450.917;   37.882;   -8.680;  675.324
451.507;   37.064;   -7.520;  600.661
452.097;   37.933;   -8.590;  746.267
452.688;   39.537;  -11.340;  742.160
453.278;   38.290;  -10.100;  566.840
453.868;   43.483;   -6.019;  793.550
454.458;   41.339;   -9.440;  651.141
455.048;   41.295;  -10.560;  711.783
455.639;   42.927;  -11.799;  567.096
456.229;   46.617;   -6.899;  710.694
456.819;   47.880;   -7.389;  751.158
457.409;   48.232;  -11.119;  773.993
457.999;   51.858;   -9.289;  737.505
458.589;   51.054;   -6.139;  686.606
459.179;   51.038;   -8.729;  717.658
459.769;   49.575;   -9.789;  627.099
460.358;   53.627;  -10.259;  797.262
460.948;   53.771;   -7.299;  689.503
461.538;   55.163;  -10.289;  660.677
462.128;   53.606;  -11.269;  664.934
462.717;   59.575;   -9.368;  710.326
463.307;   63.218;   -7.908;  705.846
463.897;   58.715;   -9.599;  656.942
464.486;   57.985;   -9.769;  837.128
465.076;   62.126;   -8.048;  733.776
465.666;   67.112;   -9.358;  652.900
466.255;   64.015;   -7.919;  785.651
466.845;   62.877;  -11.689;  666.749
467.434;   66.654;   -7.818;  725.873
468.023;   67.637;   -7.678;  658.357
468.613;   65.571;  -10.939;  713.946
469.202;   68.949;  -10.118;  646.507
469.791;   73.660;   -9.108;  737.811
470.381;   74.845;   -6.058;  742.813
470.970;   75.147;  -10.428;  711.099
471.559;   74.912;  -10.268;  733.291
472.148;   77.963;   -8.448;  675.737
472.738;   80.896;   -6.917;  765.466
473.327;   79.513;  -11.978;  637.529
473.916;   79.482;  -11.888;  737.446
474.505;   83.006;   -9.437;  751.703
475.094;   87.143;   -6.747;  806.570
475.683;   87.020;   -9.367;  797.699
476.272;   87.686;  -12.637;  730.632
476.861;   90.028;  -10.027;  706.754
477.449;   97.168;   -8.716;  728.487
478.038;   90.518;   -9.577;  692.513
478.627;   91.433;   -9.718;  714.852
479.216;   98.103;   -8.947;  769.441
479.805;  102.064;   -6.256;  783.375
480.393;  101.537;   -7.937; 1008.945
480.982;  100.220;   -7.717;  874.501
481.571;  105.878;   -9.266;  858.333
482.159;  107.466;   -7.636;  705.386
482.748;  106.374;   -9.667;  821.385
483.336;  111.738;  -10.376;  858.209
483.925;  111.976;   -7.147;  774.373
484.513;  119.342;   -7.996;  758.962
485.102;  115.026;  -10.027;  810.965
485.690;  124.106;  -10.446; 1011.050
486.278;  126.295;   -8.446;  979.329
486.867;  126.797;   -6.356;  809.662
487.455;  128.616;   -9.136;  898.229
488.043;  130.079;  -10.646;  748.361
488.631;  139.116;   -7.456; 1005.079
489.220;  142.598;   -6.636;  908.626
489.808;  142.615;  -11.036;  741.415
490.396;  150.315;  -10.246;  914.645
490.984;  155.660;   -8.556;  830.161
491.572;  166.748;   -5.886;  940.315
492.160;  171.722;   -9.486;  919.081
492.748;  183.517;  -10.976;  884.341
493.336;  205.203;   -8.776; 1019.693
493.924;  231.770;   -5.465;  958.077
494.512;  258.764;   -9.986; 1066.638
495.100;  294.274;  -10.636; 1103.280
495.687;  350.070;  -10.885; 1206.373
496.275;  412.136;   -8.126; 1150.796
496.863;  481.113;  -10.586; 1281.171
497.451;  578.572;  -11.926; 1386.805
498.038;  710.781;  -10.885; 1556.729
498.626;  819.546;   -6.315; 1741.407
499.214;  970.603;   -7.326; 2016.609
499.801; 1167.581;  -11.906; 2220.633
500.389; 1402.611;  -10.466; 2312.494
500.976; 1694.479;   -5.236; 2744.849
501.564; 2127.706;   -8.936; 3148.565
502.151; 2477.747;  -13.176; 3515.999
502.738; 2882.403;  -10.646; 3971.274
503.326; 3291.103;   -9.525; 4403.796
503.913; 3711.460;  -10.856; 5161.749
504.500; 4099.295;  -11.586; 5986.420
505.088; 4480.095;  -10.336; 6381.201
505.675; 5007.568;   -6.355; 6925.547
506.262; 5671.214;   -9.046; 7619.060
506.849; 6399.119;  -10.416; 8733.969
507.436; 6950.522;  -10.305; 9790.121
508.023; 7503.717;   -5.496; 9985.472
508.610; 7735.506;   -7.856;10434.618
509.197; 8357.292;  -10.097;11198.435
509.784; 9669.622;  -10.886;12391.194
510.371;10897.503;   -9.315;13603.713
510.958;11695.419;   -9.936;14426.586
511.545;12415.737;   -9.326;15243.775
512.132;13165.743;  -10.075;15945.876
512.719;13636.372;   -7.796;16340.369
513.305;14817.936;  -10.606;18011.766
513.892;15506.775;  -11.486;19754.971
514.479;16658.213;   -9.126;20967.805
515.066;18191.000;   -6.026;22299.793
515.652;19859.299;   -8.466;22908.660
516.239;21059.832;  -10.886;23798.875
516.825;21774.123;  -11.496;25567.275
517.412;22746.303;   -5.796;28154.959
517.998;23519.318;  -10.506;28344.111
518.585;23557.373;  -10.076;27134.219
519.171;24116.162;   -8.315;27268.576
519.758;25922.885;   -8.596;28964.129
520.344;27872.367;   -8.466;30664.494
520.930;27594.531;  -11.006;32550.605
521.516;28509.254;  -10.495;35422.895
522.103;30196.600;   -5.526;38280.004
522.689;30681.580;   -8.746;37835.117
523.275;30333.588;  -11.376;37288.613
523.861;32189.650;  -11.156;37281.395
524.447;34022.617;   -8.135;37846.949
525.033;33868.512;   -7.896;38321.949
525.619;33976.980;  -12.476;38579.285
526.205;35059.438;   -9.516;40622.875
526.791;37676.164;   -6.926;42258.836
527.377;37576.344;   -8.346;42966.902
527.963;38090.953;   -8.717;42018.949
528.549;37153.422;  -11.016;42476.828
529.135;35449.867;   -8.536;41854.852
529.721;32913.703;   -9.666;41237.711
530.306;30422.795;  -10.066;41259.445
530.892;30104.438;  -11.356;41506.047
531.478;33030.121;   -6.596;43559.613
532.063;38250.746;   -8.836;47695.563
532.649;40549.754;  -10.047;50808.324
533.235;41076.129;   -9.746;51787.500
533.820;40641.223;   -6.566;52145.035
534.406;41220.383;  -10.817;51133.488
534.991;39932.293;   -9.416;49996.805
535.576;36426.555;   -9.036;48882.852
536.162;34221.754;   -6.156;46942.285
536.747;32658.299;  -11.607;45711.746
537.333;36035.816;  -11.787;48510.180
537.918;42989.773;  -12.437;50439.891
538.503;47180.883;   -7.196;50863.711
539.088;46334.805;  -10.556;50906.922
539.673;47044.816;   -8.767;52621.965
540.259;47928.984;  -10.026;52368.094
540.844;45442.383;   -7.416;50879.109
541.429;47236.391;   -9.467;52077.777
542.014;48966.664;   -9.527;52716.695
542.599;47669.398;   -9.946;52363.281
543.184;44576.023;   -7.927;53187.137
543.769;45806.680;   -9.297;54697.605
544.354;46245.902;  -10.127;53913.914
544.938;44710.129;   -9.267;49680.164
545.523;46462.285;   -6.506;47386.277
546.108;49523.656;   -9.787;49151.949
546.693;51065.098;  -11.587;51384.637
547.278;51223.223;  -10.986;51853.254
547.862;48481.898;   -8.206;51173.750
548.447;44021.207;  -10.067;51691.395
549.031;42872.398;   -9.637;52456.703
549.616;47444.148;   -9.926;52714.516
550.201;47629.949;   -6.347;52414.598
550.785;49088.648;   -7.917;52355.059
551.370;48064.547;  -10.867;54589.453
551.954;47227.457;   -9.047;58267.348
552.538;48043.059;   -7.827;59062.176
553.123;46377.465;  -10.287;58115.285
553.707;43796.563;  -12.178;56556.285
554.291;45324.023;   -8.717;56201.668
554.876;48751.723;   -7.457;55335.762
555.460;48872.793;  -10.387;54155.703
556.044;48789.352;   -9.618;53721.484
556.628;46807.020;  -11.567;53731.016
557.212;45757.941;   -8.097;54312.531
557.796;44572.527;  -11.077;53797.773
558.380;44872.395;  -11.108;56145.984
558.964;45135.828;   -9.057;57277.930
559.548;46048.207;   -6.977;56459.641
560.132;43935.910;  -11.457;54434.543
560.716;42199.598;  -11.378;54800.617
561.300;43326.477;   -9.577;57606.945
561.884;44625.086;   -7.127;58972.445
562.467;42556.871;   -7.118;57327.570
563.051;41725.125;  -13.358;54962.434
563.635;43237.473;  -10.178;52594.473
564.219;44009.289;   -7.837;50610.410
564.802;44792.484;  -11.398;49551.180
565.386;44208.898;  -12.788;48370.953
565.969;43448.391;   -9.077;48178.871
566.553;42063.566;   -6.207;49957.305
567.136;43088.359;   -8.568;50369.594
567.720;40127.531;  -11.868;49492.004
568.303;37914.508;   -8.268;50616.352
568.887;37738.672;   -8.698;50727.148
569.470;38417.480;   -6.808;51698.379
570.053;37632.781;  -13.188;52122.078
570.637;35154.820;  -12.037;52536.438
571.220;34997.496;   -8.577;51186.098
571.803;36115.301;   -8.498;51032.762
572.386;38163.813;  -10.498;49609.887
572.969;40730.820;   -9.388;48285.926
573.552;39125.996;   -8.338;47624.285
574.135;37548.270;   -8.518;45498.641
574.718;35077.680;  -13.628;41970.434
575.301;34478.992;  -10.893;41447.137
575.884;33880.305;   -8.158;40923.836
576.467;34914.391;  -10.328;45267.723
577.050;36283.297;  -13.058;48175.543
577.633;37505.965;   -9.458;47729.328
578.216;36874.465;   -8.928;47579.793
578.799;36128.648;   -9.358;47820.996
579.381;35224.598;  -11.388;48115.551
579.964;32917.891;  -11.718;47333.766
580.547;34822.316;   -8.588;46668.969
581.129;35559.457;   -8.859;44466.141
581.712;36418.367;  -10.729;44164.922
582.294;36852.750;  -11.118;46477.855
582.877;36956.711;   -5.218;48244.254
583.459;35296.242;   -8.679;47437.895
584.042;33122.219;  -10.709;46943.219
584.624;32891.973;  -11.669;46792.227
585.206;32792.824;   -8.218;46557.250
585.789;33123.777;  -10.569;45793.773
586.371;35399.465;  -11.859;43836.391
586.953;35962.941;  -10.719;42972.492
587.536;36950.293;   -7.198;42487.211
588.118;37762.055;   -8.720;42086.414
588.700;33727.500;  -10.439;43389.930
589.282;32670.561;   -9.198;43646.039
589.864;33618.004;   -9.199;43438.109
590.446;34854.836;  -11.319;43151.926
591.028;34758.227;  -11.159;42781.867
591.610;33427.648;  -11.779;42839.098
592.192;30739.842;   -7.668;42820.402
592.774;29343.406;  -11.949;40724.277
593.356;28383.523;  -12.129;39874.789
593.937;27420.672;  -10.669;39980.648
594.519;29674.131;   -6.509;42069.633
595.101;31686.441;  -10.849;42976.031
595.683;31696.803;  -11.679;44084.441
596.264;32417.416;   -9.049;43478.797
596.846;32297.553;   -8.849;43803.672
597.427;32309.480;   -9.570;42986.934
598.009;33517.402;  -12.620;42832.219
598.591;33968.074;  -10.039;42580.086
599.172;33824.676;  -10.369;43061.805
599.753;34062.969;   -9.140;41691.469
600.335;35180.664;  -11.430;40692.520
600.916;33220.195;   -9.939;39982.422
601.498;31159.984;   -8.479;40318.617
602.079;29667.141;  -10.920;40670.609
602.660;29209.891;  -11.480;41450.898
603.241;30961.260;  -11.699;41137.738
603.823;29617.010;   -9.579;38868.797
604.404;28582.396;  -10.620;38182.785
604.985;30439.500;  -10.450;38078.047
605.566;30806.033;   -9.129;38056.633
606.147;30875.432;   -7.510;37020.418
606.728;32225.143;  -10.660;37883.359
607.309;30805.234;  -11.740;38748.273
607.890;30638.605;   -9.759;38850.230
608.471;30111.361;   -8.250;37457.918
609.051;29392.533;   -9.240;36066.457
609.632;28131.512;  -12.120;35991.074
610.213;28249.729;   -9.110;37402.641
610.794;29242.643;   -8.030;38383.363
611.374;29206.857;   -8.110;40562.387
611.955;30144.936;  -13.560;38533.727
612.536;31624.887;  -11.400;36951.789
613.116;31219.721;   -8.070;37197.891
613.697;31533.588;  -10.830;38411.125
614.277;29661.693;  -11.641;38673.938
614.858;30280.730;  -13.310;37075.863
615.438;29967.732;   -7.460;35092.906
616.019;27930.002;   -7.601;33666.301
616.599;28122.119;  -12.020;34189.023
617.179;29638.029;  -11.780;36952.047
617.760;30827.654;   -8.570;39582.574
618.340;31684.930;  -11.471;38943.977
618.920;32507.473;  -11.170;37594.156
619.500;32502.529;  -11.071;37866.938
620.080;31475.707;   -7.750;37869.043
620.660;32534.256;  -12.711;36868.617
621.241;34373.230;  -10.211;36352.309
621.821;34927.195;  -10.961;35459.520
622.401;33620.023;   -7.720;35207.414
622.980;32387.705;   -8.981;35980.422
623.560;30998.625;   -9.331;37351.328
624.140;29776.586;   -9.850;34388.582
624.720;25180.773;   -7.451;32368.764
625.300;21796.768;   -9.070;32638.629
625.880;25071.855;  -12.601;34599.035
626.459;29124.258;  -11.751;36831.738
627.039;31833.281;   -9.281;38299.098
627.619;31670.607;   -8.801;38289.574
628.198;30131.793;  -12.071;37220.695
628.778;29200.529;   -9.461;37632.563
629.357;29914.639;   -8.491;38003.012
629.937;30096.734;   -9.721;38402.039
630.516;29632.123;   -9.951;37868.801
631.096;29460.578;  -11.731;35760.410
631.675;31507.055;   -8.572;35225.219
632.254;36594.555;  -11.282;35130.289
632.834;36153.563;  -13.322;35794.570
633.413;34621.938;  -10.301;35788.922
633.992;32433.617;   -8.582;34532.863
634.571;32840.934;   -8.352;33590.113
635.151;35350.852;  -11.912;34943.863
635.730;33949.949;  -10.511;35352.523
636.309;30606.830;   -7.731;35366.605
636.888;27980.154;   -9.952;36165.637
637.467;28256.352;  -11.672;37515.902
638.046;29625.984;   -8.901;39288.695
638.625;32533.043;   -7.912;38279.699
639.204;32628.379;  -10.022;37741.598
639.782;31691.992;  -12.252;38364.551
640.361;27920.014;  -10.041;36740.621
640.940;25324.014;  -11.161;34950.082
641.519;26037.426;   -9.701;34137.398
642.097;28794.225;  -11.271;35654.258
642.676;31567.707;   -8.651;35637.957
643.255;32836.461;   -8.711;36567.074
643.833;32224.070;   -9.581;37809.434
644.412;32137.199;  -13.711;37337.293
644.990;30936.826;  -11.811;37018.531
645.569;30692.406;   -9.411;36518.469
646.147;30534.180;  -10.291;36186.430
646.726;30776.855;  -12.401;36267.688
647.304;31857.826;  -10.411;36647.625
647.882;33114.699;   -9.651;39286.742
648.461;34671.035;   -9.631;39157.703
649.039;33157.805;  -11.881;35412.883
649.617;32102.863;   -9.661;34744.918
650.195;31241.982;   -9.301;35403.098
650.773;29941.072;  -10.511;35053.797
651.352;27618.186;  -11.521;33756.816
651.930;25188.574;  -12.211;31868.773
652.508;23504.025;   -9.171;33121.551
653.086;27384.064;   -9.371;33564.793
653.663;30620.295;  -13.161;34054.668
654.241;29299.422;  -13.031;35693.309
654.819;30688.168;   -9.371;36422.906
655.397;30471.324;  -10.511;38213.484
655.975;29792.023;  -10.371;39507.625
656.553;29566.664;  -10.051;39498.223
657.130;28419.078;  -10.061;40395.480
657.708;27627.125;   -9.561;39242.020
658.286;27700.104;  -11.511;38920.020
658.863;28881.184;  -10.261;40202.898
659.441;32165.344;   -7.531;39677.938
660.018;32220.318;   -9.501;40413.355
660.596;30772.035;  -13.301;39931.414
661.173;32301.174;  -11.211;39604.531
661.750;32811.645;   -9.951;39700.070
662.328;31703.402;   -9.390;39292.809
662.905;30742.574;  -11.330;38235.648
663.482;26590.959;   -9.050;36212.305
664.060;24502.592;   -8.240;35944.945
664.637;27273.764;  -10.050;35170.785
665.214;28726.279;  -11.760;34197.523
665.791;30471.744;  -10.530;34549.520
666.368;29888.725;   -9.690;35118.578
666.945;30182.453;   -9.320;36019.418
667.522;31648.018;  -11.860;36048.438
668.099;31386.758;  -10.770;36243.914
668.676;29937.215;   -6.260;35958.875
669.253;28666.074;   -7.000;37384.730
669.830;28944.588;  -10.190;36779.629
670.407;28914.947;   -9.550;35231.289
670.984;28760.756;   -9.260;35544.270
671.560;29687.941;   -9.280;35466.867
672.137;29164.301;  -11.810;34280.863
672.714;30229.176;  -11.490;34632.863
673.290;31628.229;   -7.740;35135.422
673.867;31451.855;  -10.660;36114.480
674.443;31321.955;  -12.230;36152.859
675.020;29295.654;  -10.450;35327.238
675.596;30248.551;   -9.260;35795.176
676.173;31041.141;  -10.780;35430.355
676.749;30585.648;  -13.690;33549.516
677.326;30116.238;  -11.980;32210.012
677.902;29863.816;   -8.630;32068.871
678.478;29219.652;  -10.730;32583.891
679.054;28196.512;  -10.520;32088.928
679.631;28731.922;  -11.920;30978.848
680.207;30318.164;   -7.490;33160.887
680.783;31771.662;   -9.860;35570.363
681.359;30867.688;  -13.380;36125.184
681.935;30632.180;  -12.480;35240.922
682.511;30613.004;   -7.900;34429.961
683.087;30912.080;   -7.710;34463.680
683.663;30064.744;  -11.480;34648.898
684.239;28638.717;  -14.090;34546.457
684.815;27947.092;   -7.560;35586.375
685.390;28015.826;   -9.910;35821.895
685.966;28644.061;  -11.159;35085.871
686.542;31180.648;  -11.169;34198.230
687.118;33667.777;   -5.959;32847.707
687.693;34123.988;  -10.329;32794.027
688.269;33795.711;  -12.059;33072.367
688.844;32005.762;  -10.909;33141.664
689.420;30093.574;   -8.019;33965.742
689.995;28397.293;   -8.399;34655.523
690.571;27124.867;  -10.949;33576.742
691.146;27041.584;   -9.619;32657.219
691.722;26860.814;   -8.999;32526.979
692.297;26368.428;  -11.589;33014.617
692.872;27474.529;  -11.739;34012.254
693.448;27345.023;  -11.059;34237.434
694.023;26348.676;  -10.139;34142.672
694.598;28299.594;   -9.029;34132.031
695.173;29172.643;  -13.319;34205.250
695.748;28212.119;  -10.169;32882.488
696.323;28188.576;   -8.339;32864.906
696.898;28352.238;   -8.169;33170.004
697.473;28464.656;  -12.309;32432.984
698.048;27658.717;  -10.989;31649.303
698.623;27176.760;   -9.329;30778.141
699.198;28532.752;   -9.849;31140.119
699.773;30050.672;  -12.329;31764.299
700.348;29004.652;  -10.389;31780.816
700.922;29057.313;   -9.269;32046.375
701.497;30151.699;   -9.329;32603.574
702.072;30288.004;  -10.789;34799.871
702.646;28825.678;  -10.839;35793.172
703.221;26658.166;   -9.099;35201.590
703.795;28451.393;  -10.939;34764.527
704.370;28932.586;  -12.859;34307.367
704.944;29112.316;  -11.559;33509.887
705.519;29709.201;   -7.939;31388.584
706.093;30852.303;  -10.499;31340.104
706.668;31519.000;  -11.289;32630.281
707.242;30470.930;  -11.509;32728.779
707.816;29249.180;   -9.639;32947.238
708.390;27869.502;  -11.429;33277.855
708.965;28185.305;  -11.869;33834.336
709.539;27930.707;  -11.689;33709.273
710.113;27956.578;  -10.478;33044.313
710.687;27547.352;  -10.228;31953.992
711.261;26191.000;  -13.698;30505.949
711.835;26131.389;  -13.378;30262.369
712.409;26412.268;   -9.698;31254.447
712.983;28406.107;  -11.898;32754.986
713.557;29784.969;  -15.138;34018.824
714.131;29667.230;  -14.098;34579.625
714.704;28485.355;   -9.958;33890.262
715.278;25896.373;  -10.028;33531.102
715.852;24641.367;  -11.148;33601.660
716.425;25732.924;   -9.068;33515.117
716.999;26960.639;  -10.038;33185.555
717.573;27840.721;   -9.798;33905.996
718.146;28810.279;  -12.378;35199.293
718.720;29000.227;  -11.918;35060.551
719.293;29012.951;   -8.088;34973.230
719.867;31969.289;  -10.888;36394.449
720.440;31783.676;  -11.938;36663.008
721.013;29973.350;  -12.818;35102.426
721.587;28289.375;  -10.298;33985.266
722.160;26992.973;  -10.048;33524.965
722.733;26019.135;  -12.108;32987.043
723.306;26311.531;  -10.818;33066.301
723.880;28451.926;   -8.908;33399.500
724.453;30880.418;   -9.878;33468.297
725.026;30206.135;  -11.188;33816.637
725.599;27238.568;  -11.678;32797.996
726.172;26941.668;   -9.618;33187.434
726.745;27862.938;   -8.258;35136.613
727.318;29075.715;  -12.978;35751.730
727.891;29944.104;  -12.148;35890.430
728.463;29630.707;   -8.968;34822.090
729.036;28219.068;  -10.188;32895.086
729.609;28564.115;  -11.788;31823.225
730.182;25725.551;  -11.788;31445.283
730.754;23380.422;  -10.268;32373.223
731.327;23789.949;   -9.998;33676.820
731.900;24221.398;  -12.228;33417.000
732.472;24982.811;  -13.848;31978.498
733.045;26638.395;   -8.698;30368.777
733.617;26635.807;  -10.607;30574.215
734.190;26900.621;  -11.507;31280.975
734.762;24742.199;  -13.647;31674.412
735.334;22737.559;   -9.767;31247.291
735.907;22981.721;   -9.897;29876.211
736.479;23366.338;  -11.637;29808.488
737.051;23230.043;   -9.567;30233.547
737.623;23793.059;   -8.187;31469.086
738.195;23982.939;  -11.187;31784.225
738.768;25967.824;  -12.337;32120.523
739.340;27068.416;  -12.227;32094.342
739.912;26341.166;  -11.057;31312.680
740.484;24857.816;  -10.207;31946.238
741.056;23130.826;  -10.047;32984.059
741.628;24253.574;  -13.627;33897.715
742.199;26412.438;   -7.177;33213.016
742.771;25123.877;  -10.797;31369.113
743.343;23126.027;  -11.997;31865.473
743.915;22093.068;  -12.867;32388.631
744.487;21876.766;   -7.617;31079.568
745.058;21792.482;   -9.557;30570.107
745.630;22365.246;   -9.877;29970.127
746.201;23875.889;  -14.177;29186.766
746.773;25084.545;   -9.237;28805.723
747.344;24943.584;   -9.847;29591.223
747.916;22892.527;  -11.657;31412.201
748.487;22610.189;  -10.587;32194.898
749.059;23863.559;   -8.707;32533.719
749.630;24659.979;  -10.537;32158.518
750.201;23734.068;  -11.687;30855.395
750.773;22042.512;  -11.647;28622.555
751.344;21709.252;   -7.147;28405.732
751.915;22603.086;   -9.757;28461.551
752.486;22857.852;  -12.427;27842.850
753.057;20911.504;  -12.227;27845.008
753.628;19684.867;  -10.417;27728.107
754.199;20550.150;  -11.767;27381.086
754.770;21552.182;  -11.187;25882.203
755.341;21731.184;  -10.507;25886.184
755.912;22042.031;   -9.387;26050.861
756.483;21798.498;  -10.647;26798.779
757.054;20016.750;  -11.837;27048.238
757.625;18511.973;  -12.716;26294.838
758.195;18193.723;   -9.666;26142.076
758.766;17869.637;   -8.656;26392.234
759.337;18425.207;  -12.856;26334.594
759.907;19753.000;  -13.366;27579.652
760.478;20668.102;   -8.576;28352.770
761.048;20316.063;  -10.526;27325.088
761.619;19321.549;  -11.116;26460.428
762.189;19333.598;  -12.136;26029.826
762.760;20237.670;   -9.456;26430.145
763.330;21415.061;   -7.136;26670.902
763.900;21108.225;  -11.786;26603.021
764.471;18803.949;  -11.546;25542.740
765.041;17380.234;   -8.096;24358.459
765.611;17102.496;   -8.876;23991.297
766.181;17362.174;  -12.196;24470.236
766.751;18568.150;  -11.636;24845.975
767.321;18439.504;  -10.156;24533.633
767.891;16367.909;  -11.766;24916.492
768.461;15694.170;  -14.936;24776.771
769.031;16215.834;  -12.356;24757.988
769.601;17995.533;   -7.526;24181.088
770.171;18201.121;  -10.766;23670.387
770.741;17235.355;  -13.176;22960.045
771.311;17170.652;  -10.616;22917.523
771.880;17794.656;   -9.576;23562.941
772.450;17824.424;  -10.336;24216.500
773.020;17733.035;  -13.516;24140.398
773.589;16789.049;  -13.466;24414.857
774.159;16043.534;   -8.686;23858.717
774.729;15701.211;   -9.476;22942.135
775.298;15432.564;  -13.666;22324.033
775.867;15012.635;  -11.716;21140.313
776.437;15194.435;   -9.906;20838.092
777.006;14994.381;  -12.166;20599.510
777.576;14563.870;  -12.356;20508.809
778.145;14390.779;  -11.646;20732.947
778.714;14436.221;   -8.226;21062.465
779.283;14015.843;   -9.556;20949.664
779.853;13461.127;  -14.116;20508.623
780.422;13852.837;  -11.506;20649.082
780.991;13428.084;   -9.556;21527.520
781.560;12107.888;   -9.095;22632.658
782.129;11870.400;  -12.135;23048.277
782.698;11898.721;  -10.865;23438.555
783.267;11504.523;   -9.335;23267.734
783.836;11401.218;  -11.045;22415.133
784.404;12405.700;  -13.865;20443.152
784.973;13111.131;  -13.095;19699.150
785.542;13155.259;  -11.575;19763.828
786.111;12953.877;   -9.705;20341.408
786.679;12502.492;  -12.105;20207.967
787.248;12270.960;  -12.455;19516.465
787.817;12085.722;  -11.535;18900.363
788.385;11716.547;   -9.765;17879.121
788.954;11168.976;  -14.005;17658.301
789.522;10580.046;  -11.955;17788.879
790.090;10999.342;  -10.135;18118.277
790.659;11624.337;  -10.975;18338.736
791.227;11220.173;  -13.375;18508.615
791.795;11536.175;  -12.375;17898.254
792.364;11857.884;  -10.725;17295.133
792.932;12283.067;   -9.715;16822.051
793.500;12607.180;  -12.675;17040.148
794.068;12856.759;  -13.495;17179.787
794.636;13053.639;  -10.885;16664.246
795.204;12299.480;  -11.045;16524.545
795.772;12246.587;  -13.175;17274.564
796.340;11765.695;  -12.445;17891.002
796.908;11482.172;   -9.735;17648.561
797.476;11329.959;   -9.815;17064.080
798.044;10903.219;  -13.985;16672.777
798.612;10184.276;  -13.115;17023.996
799.180; 9810.266;  -10.185;16561.615
799.747; 9655.752;   -9.055;15962.773
800.315; 9368.989;  -12.385;15296.992
800.883; 9181.313;  -15.035;14801.771
801.450; 9404.591;  -10.365;14534.430
802.018; 9551.951;   -9.855;14173.248
802.585; 9550.769;  -11.905;14029.547
803.153; 9510.028;  -11.585;13836.846
803.720; 9290.554;   -9.095;13567.324
804.287; 8746.711;   -9.135;13360.622
804.855; 8211.667;  -11.604;13681.981
805.422; 8099.917;  -11.794;13536.560
805.989; 8210.696;  -10.734;13355.958
806.556; 8420.040;  -10.444;13747.896
807.124; 8677.050;  -12.764;13987.376
807.691; 8646.453;  -12.964;14038.674
808.258; 8456.670;  -11.134;14120.152
808.825; 8103.397;   -9.854;13860.111
809.392; 8217.854;  -10.504;13268.790
809.959; 7781.541;  -13.054;12680.389
810.526; 7245.141;   -8.294;12427.308
811.093; 7196.951;   -8.394;12030.105
811.659; 7840.456;  -12.304;11653.664
812.226; 8430.988;  -13.944;11637.183
812.793; 8189.336;  -10.484;11611.521
813.360; 7549.272;  -10.144;11885.181
813.926; 7226.925;  -11.684;12770.539
814.493; 7031.074;  -13.644;12677.638
815.060; 6630.544;   -9.724;11974.336
815.626; 6531.095;   -9.854;11594.715
816.193; 6883.263;  -13.254;11579.474
816.759; 6929.490;  -13.204;11666.972
817.325; 6961.096;   -9.434;11325.530
817.892; 7303.453;  -10.134;11105.369
818.458; 7738.439;  -13.474;10843.928
819.024; 7395.917;  -11.854;10714.406
819.591; 7134.014;  -10.244;10469.165
820.157; 6956.902;  -10.704;10235.523
820.723; 6427.420;  -12.324;10847.563
821.289; 6113.980;   -9.444;11040.980
821.855; 6077.333;   -8.374;10357.100
822.421; 6083.730;  -10.234; 9978.918
822.987; 6037.840;  -13.294; 9754.177
823.553; 5617.394;  -10.884;10065.755
824.119; 5398.035;   -8.884;10036.294
824.685; 5562.522;   -6.784;10029.192
825.251; 5700.313;  -12.004;10199.230
825.816; 5648.335;  -11.474; 9820.189
826.382; 5342.182;   -9.174; 9297.248
826.948; 5449.522;   -9.214; 9381.347
827.513; 5875.876;  -10.774; 9450.726
828.079; 5779.670;  -11.924; 9472.444
828.645; 5166.193;  -10.543; 9292.643
829.210; 4936.095;  -10.533; 9065.341
829.776; 4877.046;  -10.753; 9132.620
830.341; 4772.752;  -10.173; 9092.878
830.906; 4924.553;  -10.743; 9078.557
831.472; 5281.850;  -11.113; 8534.535
832.037; 5126.563;  -10.603; 8677.874
832.602; 4627.846;  -13.323; 8628.692
833.167; 4358.111;  -10.823; 8879.031
833.733; 4292.393;  -10.113; 9189.790
834.298; 4437.619;  -13.583; 9052.608
834.863; 4597.198;  -12.703; 8895.087
835.428; 4637.026;  -10.523; 8824.266
835.993; 4474.238;   -6.963; 8845.385
836.558; 4263.158;  -10.763; 8888.563
837.123; 4307.403;   -9.903; 8966.582
837.688; 4564.837;   -9.913; 8617.860
838.253; 4841.354;  -10.283; 8590.699
838.817; 5027.864;  -12.963; 8443.797
839.382; 4960.399;  -14.243; 8799.356
839.947; 4660.902;  -10.733; 8810.595
840.511; 4356.937;   -9.383; 8796.394
841.076; 3968.358;  -12.563; 8347.231
841.641; 4004.723;  -12.953; 8224.330
842.205; 4096.045;   -7.043; 8223.349
842.770; 4104.475;   -8.163; 8622.107
843.334; 4222.771;  -12.503; 8410.386
843.898; 4172.871;  -11.693; 8337.465
844.463; 4167.950;  -10.203; 8506.283
845.027; 3976.869;   -9.533; 8280.962
845.591; 3805.719;  -13.443; 8231.141
846.156; 3819.493;  -13.143; 7969.179
846.720; 3743.080;   -9.433; 7768.278
847.284; 3641.320;  -11.033; 7630.957
847.848; 3506.137;  -10.403; 7472.395
848.412; 3404.823;  -11.553; 7437.394
848.976; 3441.177;   -8.393; 7674.592
849.540; 3358.148;   -8.713; 7836.011
850.104; 3394.448;  -12.463; 7913.669
850.668; 3757.079;  -12.973; 7694.508
851.232; 3942.315;  -10.793; 7756.887
851.796; 3817.554;  -10.662; 7926.545
852.359; 3492.364;  -13.082; 7827.844
852.923; 3300.690;  -12.192; 7641.163
853.487; 3156.106;  -11.912; 7342.501
854.050; 3152.790;  -10.892; 7042.820
854.614; 3308.099;  -13.992; 7151.338
855.177; 3413.987;  -11.732; 7105.077
855.741; 3445.452;   -8.962; 6989.675
856.304; 3341.092;   -9.442; 6596.634
856.868; 3322.840;  -14.192; 6356.272
857.431; 3439.483;  -12.702; 6468.571
857.995; 3566.094;   -9.942; 6373.210
858.558; 3601.863;   -9.112; 6324.448
859.121; 3342.035;  -12.932; 6408.327
859.684; 3155.398;  -13.442; 6347.886
860.247; 3249.379;  -10.632; 6321.264
860.810; 3296.510;  -11.272; 6301.903
861.374; 3058.406;   -9.832; 6607.881
861.937; 2783.681;  -11.762; 6408.200
862.500; 2778.151;   -9.722; 6572.639
863.062; 2933.808;  -10.512; 6387.297
863.625; 3077.696;  -11.232; 6190.836
864.188; 3236.029;  -14.112; 5807.254
864.751; 3319.401;  -11.302; 5682.413
865.314; 3243.677;  -10.112; 5547.492
865.876; 3012.674;  -12.182; 5500.150
866.439; 2963.523;  -10.722; 5415.909
867.002; 2931.940;   -9.252; 5501.567
867.564; 2748.181;   -9.572; 5413.946
868.127; 2537.048;  -13.142; 5160.325
868.689; 2412.313;  -12.902; 5133.183
869.252; 2305.170;   -9.732; 5252.382
869.814; 2200.958;   -9.432; 5297.141
870.377; 2204.045;  -11.552; 5390.919
870.939; 2271.874;   -9.052; 5599.898
871.501; 2354.272;  -10.982; 5248.336
872.063; 2372.544;  -12.292; 4854.235
872.626; 2303.592;  -14.912; 4817.074
873.188; 2286.410;  -13.112; 4987.732
873.750; 2264.205;  -13.442; 4868.651
874.312; 2179.794;   -9.402; 4779.330
874.874; 2093.561;  -11.062; 4866.348
875.436; 2011.626;  -13.931; 4718.887
875.998; 2011.912;   -9.561; 4660.005
876.560; 2049.553;  -11.321; 4462.964
877.122; 1991.820;  -12.221; 4145.042
877.683; 1880.341;  -12.191; 4056.481
878.245; 1800.197;  -12.101; 3950.740
878.807; 1843.496;   -8.971; 4058.958
879.369; 1875.982;  -12.071; 3954.677
879.930; 1794.381;  -14.621; 3941.495
880.492; 1733.126;  -10.311; 4067.014
881.053; 1706.101;  -10.901; 3859.633
881.615; 1601.239;  -14.411; 3776.071
882.176; 1494.362;  -13.761; 3734.750
882.738; 1438.542;   -9.181; 3678.489
883.299; 1437.958;  -11.791; 3405.407
883.860; 1486.997;  -13.121; 3351.106
884.422; 1556.099;  -11.211; 3394.044
884.983; 1555.846;  -10.091; 3166.443
885.544; 1383.862;   -8.461; 3189.802
886.105; 1072.200;  -12.361; 3160.360
886.666;  782.844;  -14.141; 3093.059
887.227;  620.524;  -11.361; 2941.957
887.788;  569.949;  -11.401; 2974.836
888.349;  567.088;  -13.791; 2721.214
888.910;  600.732;  -13.191; 2696.493
889.471;  637.669;   -9.881; 2560.172
890.032;  654.748;   -9.881; 2558.190
890.593;  657.357;  -10.371; 2567.669
891.153;  655.360;  -13.301; 2460.307
891.714;  636.393;  -11.431; 2372.046
892.275;  622.102;  -11.291; 2309.505
892.835;  603.427;  -11.471; 2382.543
893.396;  566.670;  -11.541; 2295.502
893.956;  519.793;  -11.181; 2162.420
894.517;  485.664;  -11.741; 2125.439
895.077;  480.612;  -11.671; 2086.978
895.638;  483.551;  -11.311; 2126.316
896.198;  460.904;   -9.831; 1838.275
896.758;  423.933;   -8.421; 1892.813
897.319;  396.365;  -12.351; 1792.232
897.879;  383.285;  -13.511; 1762.751
898.439;  362.657;  -12.001; 1661.149
898.999;  339.282;  -10.180; 1781.468
899.559;  329.335;  -12.030; 1703.347
900.119;  326.444;  -15.710; 1537.525
900.679;  322.753;   -8.900; 1638.384
901.239;  309.546;   -8.340; 1527.902
901.799;  299.972;  -13.910; 1456.441
902.359;  293.690;  -13.460; 1357.140
902.919;  288.116;  -11.490; 1331.118
903.479;  276.884;  -12.110; 1317.257
904.038;  256.840;  -11.720; 1262.595
904.598;  241.475;  -13.610; 1152.034
905.158;  238.955;  -11.040; 1240.893
905.717;  233.973;  -10.900; 1233.691
906.277;  222.916;  -15.080; 1217.330
906.836;  212.600;  -13.380; 1222.408
907.396;  203.263;  -10.780; 1193.047
907.955;  193.918;   -8.500; 1182.526
908.515;  186.738;  -12.760; 1099.364
909.074;  182.219;  -11.900; 1092.863
909.633;  177.987;   -8.950; 1069.121
910.192;  175.032;   -8.770; 1196.460
910.752;  169.199;  -12.390; 1029.960
911.311;  166.280;  -13.680; 1009.780
911.870;  163.709;  -12.370;  971.460
912.429;  165.212;  -10.900; 1094.080
912.988;  164.912;  -11.690; 1081.060
913.547;  160.066;  -13.240;  940.380
914.106;  156.031;  -11.990;  999.420
914.665;  152.182;   -9.990;  984.020
915.224;  151.265;  -12.880; 1035.760
915.782;  150.939;  -12.350;  922.560
916.341;  150.975;   -9.110; 1049.840
916.900;  146.980;   -9.270;  925.260
917.458;  144.996;  -13.240;  884.220
918.017;  144.292;  -13.550;  942.600
918.576;  144.996;  -12.320;  904.440
919.134;  142.766;  -11.490;  837.980
919.693;  141.515;  -13.670;  893.060
920.251;  139.733;  -15.470;  876.500
920.809;  138.481;  -11.290;  839.580
921.368;  139.015;  -10.210;  885.360
921.926;  138.138;  -12.140;  842.940
922.484;  135.935;  -13.080;  903.360
923.042;  135.851;  -11.720;  880.340
923.601;  139.205;   -7.480;  998.680
924.159;  136.355;  -11.570;  935.560
924.717;  133.889;  -13.840;  841.080
925.275;  132.894;  -10.640;  903.240
925.833;  132.531;  -11.540;  779.320
926.391;  134.131;  -12.960;  938.380
926.949;  132.026;  -14.130;  857.680
927.506;  133.115;  -11.750;  903.500
928.064;  133.256;  -10.250;  877.580
928.622;  132.435;  -13.030;  880.100
929.180;  131.293;  -13.400;  814.180
929.737;  132.491;  -10.700;  808.540
930.295;  135.627;  -10.070;  928.480
930.853;  137.430;  -11.960;  849.100
931.410;  138.498;  -13.120;  821.120
931.968;  137.963;  -10.770;  940.660
932.525;  136.999;  -10.680;  909.380
933.082;  137.781;  -13.130;  811.440
933.640;  138.518;  -13.210;  925.900
934.197;  137.283;  -11.060;  886.360
934.754;  138.390;   -9.580;  897.780
935.312;  141.352;  -14.000;  863.340
935.869;  144.759;  -10.710; 1012.980
936.426;  145.294;   -9.860;  872.800
936.983;  146.126;   -9.710;  889.020
937.540;  145.951;  -13.990;  838.280
938.097;  144.814;  -14.040;  940.120
938.654;  146.352;  -10.310;  898.860
939.211;  148.402;  -10.560;  952.480
939.768;  151.420;  -13.900;  915.420
940.324;  154.205;  -14.760;  904.200
940.881;  157.443;  -10.370;  878.500
941.438;  158.456;   -8.260; 1021.200
941.995;  154.197;  -12.540;  992.560
942.551;  151.514;  -14.670;  875.620
943.108;  150.543;  -10.450;  937.920
943.664;  153.061;  -10.750;  869.340
944.221;  156.120;  -11.550; 1088.140
944.777;  153.655;  -14.770;  869.680
945.334;  154.015;  -12.820;  884.840
945.890;  156.061;  -10.130;  946.480
946.446;  155.950;  -13.470;  947.020
947.003;  157.485;  -12.120;  964.940
947.559;  160.030;   -9.980; 1063.040
948.115;  159.438;   -9.080; 1026.540
948.671;  157.302;  -10.830;  967.300
949.227;  155.280;  -12.440;  859.560
949.783;  152.668;  -12.910;  858.900
950.339;  154.296;  -10.270;  991.000
950.895;  154.314;  -13.630; 1023.840
951.451;  153.293;  -15.100;  925.280
952.007;  152.272;  -11.330;  998.540
952.563;  153.025;  -10.580;  937.780
953.118;  151.461;  -13.440;  904.940
953.674;  150.784;  -12.710;  935.780
954.230;  150.254;  -10.350;  949.640
954.785;  148.701;   -9.190;  936.640
955.341;  146.193;  -11.200;  998.160
955.897;  144.938;  -16.560;  834.660
956.452;  147.006;  -12.570;  953.840
957.008;  146.378;   -7.970; 1083.640
957.563;  143.324;  -11.940; 1009.540
958.118;  137.531;  -13.450;  877.700
958.674;  138.599;  -12.030;  946.780
959.229;  139.228;   -9.410; 1013.980
959.784;  138.265;  -12.000;  832.400
960.339;  137.062;  -14.780; 1001.280
960.894;  134.273;   -9.860;  963.760
961.449;  130.256;   -9.970;  859.960
962.004;  129.180;  -10.900; 1212.840
962.559;  124.182;  -13.150;  860.140
963.114;  121.356;  -13.740;  742.480
963.669;  121.561;   -9.820;  915.500
964.224;  119.668;  -13.890;  874.340
964.779;  118.093;  -12.600;  828.420
965.334;  119.834;  -10.950; 1017.860
965.888;  118.514;  -11.170;  875.360
966.443;  122.445;  -12.540;  972.380
966.998;  121.472;  -15.780;  819.460
967.552;  120.343;   -9.760;  908.380
968.107;  117.462;   -9.060;  868.300
968.661;  118.165;  -11.950;  922.440
969.216;  118.201;  -12.800;  856.280
969.770;  118.082;  -11.210;  917.200
970.324;  117.441;  -11.610;  923.140
970.879;  115.145;  -11.370;  947.180
971.433;  111.534;  -12.540;  952.720
971.987;  106.010;  -11.320;  895.340
972.541;  104.017;  -10.720;  917.100
973.095;  102.143;   -9.680; 1009.460
973.649;  101.549;  -11.440;  809.480
974.203;   99.872;  -11.210;  829.040
974.757;  100.195;  -10.240;  855.220
975.311;  101.066;  -13.720;  872.600
975.865;   99.743;  -13.770;  881.820
976.419;   98.606;  -11.690;  857.400
976.973;   99.081;   -9.510;  849.620
977.526;   99.451;  -12.620;  949.920
978.080;   99.274;  -12.010;  796.780
978.634;   99.790;  -10.170;  921.320
979.187;   98.242;   -9.020;  905.400
979.741;   95.813;   -9.820; 1018.380
980.294;   91.527;  -14.870;  789.160
980.848;   88.831;  -12.380;  717.220
981.401;   90.630;  -10.350;  816.540
981.955;   93.316;  -13.720;  844.300
982.508;   92.244;  -11.490;  746.340
983.061;   92.368;  -10.000;  915.260
983.615;   88.376;  -11.480;  798.800
984.168;   85.311;  -13.220;  770.080
984.721;   84.278;  -13.960;  880.760
985.274;   84.061;  -10.870;  867.500
985.827;   83.019;   -9.790;  834.220
986.380;   81.137;  -13.120;  721.340
986.933;   80.184;  -12.450;  864.800
987.486;   77.573;  -10.210;  861.920
988.039;   76.827;   -8.430;  863.100
988.591;   74.989;  -10.520;  893.260
989.144;   72.907;  -14.860;  737.260
989.697;   71.674;  -13.080;  758.740
990.250;   71.916;  -10.150;  858.100
990.802;   70.679;  -13.430;  755.860
991.355;   72.371;  -12.750;  974.880
991.907;   69.861;  -12.040;  864.320
992.460;   67.351;  -11.330;  753.760
993.012;   66.467;  -13.610;  749.540
993.565;   64.805;  -13.460;  711.360
994.117;   67.591;   -9.360;  950.780
994.669;   64.529;  -11.300;  701.320
995.221;   62.422;  -13.540;  791.920
995.774;   59.804;  -13.430;  787.580
996.326;   59.367;  -12.520;  740.220
996.878;   58.716;  -10.950;  838.420
997.430;   57.407;  -14.300;  699.860
997.982;   55.706;  -13.760;  750.140
998.534;   55.107;  -11.530;  739.060
999.086;   54.879;  -10.310;  738.220
999.638;   52.536;  -12.530;  661.380
1000.190;   51.732;  -11.840;  699.320
1000.741;   52.081;  -10.260;  742.700
1001.293;   51.174;   -8.860;  686.020
1001.845;   49.985;  -13.700;  676.640
1002.396;   49.487;  -12.100;  743.400
1002.948;   49.970;  -12.760;  737.400
1003.500;   48.559;  -10.380;  723.780
1004.051;   48.769;  -11.900;  907.580
1004.603;   46.862;  -12.250;  791.820
1005.154;   43.596;  -13.210;  608.980
1005.705;   42.510;  -10.950;  723.960
1006.257;   41.918;  -13.880;  707.220
1006.808;   41.088;  -12.840;  685.460
1007.359;   40.693;  -10.570;  763.240
1007.910;   39.783;   -9.620;  646.640
1008.461;   39.584;  -13.630;  732.940
1009.013;   38.538;  -17.200;  588.340
1009.564;   39.345;  -10.200;  793.520
1010.115;   38.081;  -12.570;  597.040
1010.665;   37.173;  -15.150;  602.160
1011.216;   37.454;  -14.480;  667.920
1011.767;   36.376;  -11.340;  697.920
1012.318;   36.823;   -9.780;  736.980
1012.869;   35.472;  -12.380;  679.000
1013.419;   34.798;  -15.560;  603.120
1013.970;   35.613;  -11.010;  666.640
1014.521;   34.632;  -11.610;  620.620
1015.071;   36.018;  -13.450;  670.380
1015.622;   34.284;  -13.870;  635.460
1016.172;   33.914;  -11.610;  596.820
1016.723;   34.252;  -12.120;  614.380
1017.273;   33.153;  -13.620;  604.160
1017.823;   33.273;  -14.140;  650.340
1018.374;   32.948;  -12.800;  611.760
1018.924;   33.236;  -12.340;  716.880
1019.474;   33.077;  -11.410;  718.880
1020.024;   31.071;  -14.770;  657.580
1020.574;   32.684;   -9.780;  726.160
1021.124;   32.329;   -8.560;  673.580
1021.674;   31.020;  -15.190;  559.120
1022.224;   31.937;  -13.530;  708.940
1022.774;   32.241;  -13.280;  668.820
1023.324;   32.491;  -10.690;  753.520
1023.874;   33.803;  -10.240;  875.760
1024.423;   30.576;  -12.540;  613.700
1024.973;   30.378;  -10.010;  610.760
1025.523;   29.886;  -10.550;  620.960
1026.072;   29.758;  -13.560;  606.420
1026.622;   28.982;  -15.120;  675.740
1027.172;   30.628;  -11.260;  715.660
1027.721;   30.231;  -11.410;  601.220
1028.270;   29.520;  -13.530;  663.400
1028.820;   29.470;  -13.680;  638.080
1029.369;   28.855;  -13.520;  612.700
1029.918;   29.023;  -10.980;  649.840
1030.468;   28.044;  -13.530;  564.780
1031.017;   29.235;  -13.170;  634.800
1031.566;   27.902;  -12.200;  608.900
1032.115;   28.361;   -9.960;  694.500
1032.664;   26.822;  -13.210;  596.480
1033.213;   27.440;  -12.500;  735.420
1033.762;   27.005;  -11.910;  635.620
1034.311;   27.281;   -9.640;  677.220
1034.860;   27.618;  -13.310;  691.000
1035.408;   27.405;  -11.830;  722.720
1035.957;   27.244;  -12.000;  719.540
1036.506;   26.105;  -11.690;  530.800
1037.055;   28.025;  -10.990;  844.320
1037.603;   25.925;  -15.120;  664.000
1038.152;   25.038;  -12.450;  534.760
1038.700;   25.210;  -10.560;  585.740
1039.249;   24.788;  -11.080;  681.220
1039.797;   25.413;  -12.540;  633.360
1040.345;   25.586;  -11.920;  705.420
1040.894;   24.804;  -11.410;  625.300
1041.442;   24.912;  -14.320;  632.200
1041.990;   23.703;  -16.240;  559.160
1042.538;   23.880;  -11.680;  536.180
1043.087;   23.596;  -10.760;  570.860
1043.635;   24.495;  -11.850;  670.500
1044.183;   23.021;  -15.480;  586.400
1044.731;   22.601;  -11.770;  576.000
1045.279;   23.402;  -13.090;  674.920
1045.827;   24.972;  -12.440;  892.400
1046.374;   22.067;  -13.840;  515.420
1046.922;   21.478;  -13.220;  590.580
1047.470;   23.680;  -10.230;  691.300
1048.018;   22.693;  -14.590;  647.960
1048.565;   22.939;  -12.050;  708.600
1049.113;   21.626;  -11.650;  557.000
1049.660;   22.157;  -10.510;  629.660
1050.208;   21.879;  -13.310;  675.640
1050.755;   21.845;  -15.900;  606.580
1051.303;   22.281;  -11.430;  686.820
1051.850;   21.271;   -8.480;  635.120
1052.397;   19.984;  -15.010;  473.960
1052.945;   20.686;  -13.960;  617.760
1053.492;   22.327;  -13.150;  741.840
1054.039;   21.939;   -9.630;  720.180
1054.586;   20.660;  -13.680;  557.240
1055.133;   20.932;  -14.570;  693.140
1055.680;   20.958;  -13.820;  646.620
1056.227;   19.827;  -11.730;  542.780
1056.774;   21.459;  -12.480;  794.980
1057.321;   19.129;  -13.930;  523.260
1057.868;   19.869;  -11.690;  651.320
1058.415;   19.854;   -9.520;  651.980
1058.961;   20.380;  -13.160;  678.940
1059.508;   19.068;  -12.920;  643.820
1060.055;   19.426;  -11.920;  581.780
1060.601;   19.963;  -11.500;  624.300
1061.148;   19.548;  -14.330;  616.820
1061.694;   18.508;  -16.870;  592.580
1062.241;   19.184;  -10.330;  596.320
1062.787;   19.287;  -10.620;  663.140
1063.334;   21.352;  -10.110;  808.560
1063.880;   18.434;  -13.400;  668.360
1064.426;   18.845;  -10.680;  706.820
1064.972;   17.731;   -9.920;  601.340
1065.518;   16.420;  -10.980;  566.640
1066.065;   18.033;  -14.890;  624.460
1066.611;   17.088;  -12.870;  598.800
1067.157;   18.243;  -12.950;  641.860
1067.703;   17.439;  -13.540;  668.480
1068.249;   17.563;  -13.540;  605.220
1068.794;   16.917;  -12.600;  626.880
1069.340;   17.019;  -10.620;  578.960
1069.886;   16.344;  -12.830;  590.700
1070.432;   15.459;  -14.870;  541.720
1070.977;   15.689;  -11.980;  601.080
1071.523;   16.273;   -8.200;  573.060
1072.068;   16.830;  -12.330;  582.000
1072.614;   15.947;  -16.370;  527.760
1073.160;   16.940;  -11.100;  687.040
1073.705;   15.870;  -10.480;  572.520
1074.250;   15.805;  -14.520;  559.900
1074.796;   15.945;  -11.460;  655.160
1075.341;   15.804;  -11.950;  664.100
1075.886;   15.480;  -11.460;  594.240
1076.431;   15.320;  -13.770;  649.880
1076.976;   15.077;  -12.680;  639.220
1077.521;   14.690;  -13.170;  583.080
1078.067;   14.666;  -10.860;  579.400
1078.612;   15.201;  -13.920;  661.620
1079.156;   14.399;  -13.880;  601.540
1079.701;   15.368;  -13.120;  693.260
1080.246;   15.645;   -9.940;  696.300
1080.791;   14.666;  -14.740;  625.020
1081.336;   14.394;  -13.750;  659.320
1081.880;   14.945;  -13.400;  649.680
1082.425;   14.214;  -12.220;  573.480
1082.970;   15.018;  -11.610;  717.040
1083.514;   14.037;  -13.580;  597.000
1084.059;   12.967;  -12.810;  586.720
1084.603;   13.132;  -12.320;  565.840
1085.147;   13.257;  -13.190;  645.220
1085.692;   14.368;  -12.480;  716.800
1086.236;   12.052;  -13.020;  503.140
1086.780;   14.505;   -9.190;  751.440
1087.325;   13.768;  -12.480;  654.620
1087.869;   12.497;  -12.450;  610.700
1088.413;   13.435;  -12.240;  705.040
1088.957;   11.557;   -9.020;  543.400
1089.501;   13.740;  -10.320;  766.640
1090.045;   12.612;  -12.720;  726.480
1090.589;   11.422;  -13.690;  569.920
1091.133;   12.545;  -10.020;  673.340
1091.676;   12.592;  -12.330;  591.940
1092.220;   11.224;  -14.970;  600.920
1092.764;   12.855;  -12.430;  706.960
1093.307;   12.260;   -9.800;  673.780
1093.851;   10.528;  -14.970;  556.540
1094.395;   11.544;  -15.310;  683.140
1094.938;   11.328;  -10.370;  632.520
1095.482;   11.406;  -11.050;  559.800
1096.025;   11.917;  -11.840;  710.880
1096.568;   12.224;  -12.840;  779.280
1097.112;    9.922;  -14.700;  508.180
1097.655;   11.587;   -8.720;  603.000
1098.198;   10.384;  -13.610;  600.180
1098.741;   10.038;  -13.350;  612.860
1099.285;   10.874;  -11.230;  657.300
1099.828;    8.993;  -11.840;  439.400
1100.371;   10.324;  -10.840;  608.160
1100.914;   10.667;  -14.190;  682.660
1101.457;   10.447;  -11.240;  679.900
1101.999;    9.137;  -11.270;  584.680
1102.542;    9.733;  -11.480;  641.440
1103.085;   10.045;  -11.750;  658.500
1103.628;   10.110;  -11.400;  762.060
1104.170;    9.218;  -10.490;  588.280
1104.713;    9.662;  -10.600;  646.700
1105.256;    9.086;  -14.360;  557.440
1105.798;    7.776;  -13.210;  499.980
1106.341;   10.731;  -10.270;  728.900
1106.883;    8.642;  -12.200;  521.340
1107.425;    8.896;  -13.110;  668.180
1107.968;    8.509;  -12.840;  612.380
1108.510;    9.528;   -6.480;  684.960
1109.052;    8.088;  -13.940;  612.620
1109.594;    7.336;  -13.690;  554.440
1110.136;    8.740;  -11.880;  643.220
1110.679;    7.826;   -9.500;  633.080
1111.221;    8.579;  -14.160;  604.460
1111.763;    7.785;  -13.980;  559.220
1112.304;    7.744;  -13.880;  547.140
1112.846;    8.429;  -12.210;  666.240
1113.388;   11.492;  -11.390;  942.180
1113.930;    7.841;  -14.540;  694.200
1114.472;    7.618;  -12.640;  606.540
1115.013;    6.190;  -11.620;  551.280
1115.555;    6.169;  -13.640;  587.100
1116.097;    5.657;  -15.380;  579.480
1116.638;    7.495;  -12.640;  684.600
1117.180;    7.608;   -9.850;  667.740
1117.721;    6.470;  -13.690;  568.580
1118.262;    7.643;  -12.680;  677.960
1118.804;    7.342;  -12.530;  637.340
1119.345;    6.520;  -11.690;  578.400
1119.886;    7.322;  -13.380;  704.040
1120.427;    5.836;  -14.070;  589.020
1120.969;    5.608;  -13.500;  597.920
1121.510;    4.747;  -11.480;  563.060
1122.051;    5.502;  -12.830;  723.580
1122.592;    5.506;  -14.290;  655.420
1123.133;    4.589;  -12.400;  547.940
1123.673;    6.813;  -10.130;  706.480
1124.214;    5.856;  -12.930;  612.460
1124.755;    6.260;  -14.380;  639.460
1125.296;    5.047;  -14.000;  627.320
1125.836;    6.415;  -10.070;  691.500
1126.377;    4.847;  -12.640;  599.660
1126.918;    5.336;  -12.960;  614.980
1127.458;    4.674;  -13.350;  622.220
1127.999;    5.649;  -10.750;  656.980
1128.539;    5.445;  -12.350;  694.240
1129.079;    4.135;  -14.860;  632.720
1129.620;    3.957;  -13.840;  558.100
1130.160;    4.608;  -12.330;  539.480
1130.700;    5.300;  -14.530;  640.840
1131.240;    5.236;  -12.530;  643.700
1131.781;    4.209;  -14.450;  619.680
1132.321;    4.654;   -9.790;  599.120
1132.861;    3.108;  -14.860;  564.200
1133.401;    2.529;  -14.290;  593.940
1133.941;    4.284;  -11.750;  626.280
1134.481;    3.332;   -9.920;  597.580
1135.020;    3.348;  -12.290;  609.160
1135.560;    3.863;  -11.650;  674.940
1136.100;    3.934;  -16.270;  501.160
1136.640;    2.909;  -10.890;  510.480
1137.179;    3.010;  -14.180;  537.960
1137.719;    2.851;  -16.250;  605.400
1138.258;    2.573;  -14.230;  587.360
1138.798;    3.987;   -9.090;  663.780
1139.337;    1.963;  -15.130;  482.840
1139.877;    3.170;  -13.680;  642.360
1140.416;    5.179;  -11.320;  878.060
1140.955;    2.717;  -10.860;  535.380
1141.494;    2.944;  -12.920;  669.280
1142.034;    2.021;  -13.930;  583.520
1142.573;    2.511;  -11.440;  646.280
1143.112;    1.807;  -12.000;  553.480
1143.651;    1.893;  -13.670;  536.480
1144.190;    2.908;  -12.730;  691.640
1144.729;    1.864;  -14.560;  607.420
1145.267;    2.370;  -11.830;  584.900
1145.806;    2.922;  -12.230;  637.040
1146.345;    1.498;  -14.130;  635.020
1146.884;    1.625;  -11.590;  622.500
1147.422;    1.517;  -12.550;  533.060
1147.961;    3.474;  -11.180;  708.460
1148.500;    2.303;  -11.510;  669.720
1149.038;    2.779;  -11.640;  632.500
1149.577;    2.819;  -10.130;  698.640
1150.115;   -0.124;  -13.970;  452.280
1150.653;    2.043;  -14.520;  607.340
1151.192;    1.886;  -12.810;  552.920
1151.730;    1.697;   -9.100;  652.560
1152.268;    1.438;  -12.220;  589.520
1152.806;    0.626;  -14.140;  571.180
1153.344;    0.202;  -12.350;  577.640
1153.882;    1.096;   -8.980;  600.060
1154.421;    0.056;  -15.190;  470.620
1154.958;    0.089;  -15.210;  595.240
1155.496;    2.096;  -12.850;  645.280
1156.034;    1.143;   -9.940;  721.880
1156.572;    1.483;  -13.570;  667.060
1157.110;    0.189;  -14.590;  473.940
1157.647;    1.322;  -13.030;  676.960
1158.185;   -0.068;  -12.140;  564.320
1158.723;   -1.159;  -14.390;  509.200
1159.260;    0.735;  -14.090;  701.700
1159.798;    0.734;  -11.920;  658.160
1160.335;    0.124;  -11.110;  631.820

