
Integration time [ms]:   3.276
Averaging Nr. [scans]: 1000
Smoothing Nr. [pixels]: 0
Data measured with spectrometer [name]: 7414430SP
Wave   ;Sample   ;Dark     ;Reference
[nm]   ;[counts] ;[counts] ;[counts] 

288.544;  150.375;    7.793;  793.890
289.143;  155.113;    7.462;  681.602
289.742;  154.661;    8.602;  828.814
290.341;  140.320;    1.321;  789.841
290.940;  128.262;   -0.709;  730.702
291.538;  129.484;    0.881;  881.108
292.137;  129.269;    0.122;  792.581
292.736;  133.813;   -1.929;  975.101
293.335;  130.561;   -8.229;  735.086
293.934;  131.270;   -5.279;  781.677
294.532;  129.199;   -1.369; 1031.958
295.131;  114.406;   -7.641;  834.394
295.730;  115.314;   -8.420;  809.588
296.328;  114.755;   -5.611;  783.442
296.927;  115.487;   -5.781;  779.652
297.525;  116.256;   -6.361;  781.236
298.124;  106.991;  -11.382;  654.009
298.722;  110.711;   -7.641;  761.933
299.321;  108.754;   -6.811;  708.597
299.919;  106.408;   -6.991;  751.918
300.518;  103.070;  -10.362;  689.338
301.116;  105.706;   -9.581;  691.381
301.715;  105.618;   -4.891;  730.222
302.313;  103.136;   -8.801;  704.943
302.911;   98.847;   -8.522;  733.830
303.509;  104.917;   -6.171;  925.627
304.108;  102.191;   -7.311;  760.383
304.706;  101.606;   -8.321;  801.664
305.304;   95.129;  -10.222;  796.707
305.902;  101.402;   -6.021;  784.484
306.500;   97.286;   -4.971;  728.200
307.098;   95.803;   -7.061;  746.560
307.696;   94.269;   -8.801;  780.432
308.294;   93.991;   -6.411;  731.359
308.892;   95.951;   -2.901;  759.769
309.490;   92.234;   -5.041;  712.161
310.088;   90.567;   -5.002;  788.444
310.686;   94.414;   -2.041;  821.749
311.284;   90.698;   -2.351;  766.040
311.882;   87.285;   -4.422;  731.225
312.480;   84.182;   -4.192;  697.167
313.078;   86.299;   -1.172;  808.331
313.675;   86.558;   -2.601;  691.600
314.273;   82.951;   -1.312;  797.837
314.871;   82.207;   -3.942;  589.829
315.468;   79.583;   -2.802;  652.090
316.066;   82.563;   -0.701;  694.427
316.664;   74.768;   -4.362;  656.351
317.261;   79.211;   -2.872;  910.128
317.859;   75.177;   -2.022;  768.735
318.456;   76.150;   -0.531;  830.096
319.054;   71.314;   -3.912;  787.828
319.651;   70.770;   -4.752;  759.928
320.249;   69.266;   -2.602;  810.188
320.846;   66.748;   -0.821;  714.286
321.443;   64.317;   -4.642;  832.135
322.041;   62.477;   -5.002;  812.315
322.638;   59.423;   -3.982;  701.456
323.235;   60.269;   -3.411;  665.683
323.833;   56.944;   -7.361;  740.354
324.430;   53.359;   -8.611;  615.900
325.027;   53.753;   -4.061;  876.855
325.624;   53.830;   -4.031;  644.532
326.221;   51.292;   -7.481;  689.717
326.818;   50.372;   -5.281;  818.332
327.415;   54.001;   -7.460;  748.828
328.012;   53.278;   -5.510;  690.585
328.609;   52.816;   -7.880;  731.389
329.206;   49.430;   -8.331;  778.621
329.803;   49.317;   -5.121;  737.841
330.400;   52.589;   -4.510;  704.260
330.997;   53.977;   -6.441;  817.147
331.594;   52.791;   -8.831;  788.185
332.191;   58.463;   -7.621;  728.722
332.787;   60.635;   -4.591;  844.463
333.384;   60.000;   -7.412;  763.093
333.981;   58.389;   -8.293;  815.687
334.578;   60.999;   -7.052;  708.378
335.174;   63.728;   -3.102;  731.469
335.771;   62.713;   -5.943;  836.456
336.367;   59.669;   -7.393;  710.631
336.964;   63.258;   -4.063;  793.266
337.561;   60.916;   -3.813;  731.112
338.157;   57.352;   -4.654;  911.916
338.754;   54.860;   -7.934;  796.589
339.350;   52.822;   -4.414;  722.493
339.946;   55.614;   -4.664;  773.135
340.543;   46.483;   -6.375;  846.136
341.139;   41.342;   -9.815;  720.836
341.735;   39.495;   -4.526;  772.593
342.332;   38.049;   -4.895;  691.472
342.928;   38.560;   -4.295;  795.394
343.524;   32.693;   -5.476;  761.684
344.120;   29.854;   -5.856;  738.562
344.716;   32.084;   -2.155;  723.717
345.313;   29.922;   -6.275;  795.342
345.909;   24.775;   -8.815;  627.336
346.505;   26.634;   -5.305;  740.247
347.101;   26.648;   -2.674;  827.864
347.697;   27.203;   -4.344;  785.398
348.293;   22.158;   -9.975;  627.244
348.889;   22.163;   -5.774;  745.914
349.485;   22.297;   -5.004;  688.205
350.081;   22.090;   -4.704;  772.592
350.676;   17.594;   -6.635;  691.606
351.272;   22.029;   -4.504;  809.530
351.868;   21.930;   -3.914;  780.497
352.464;   18.974;   -9.044;  723.932
353.059;   15.356;   -8.314;  646.017
353.655;   18.780;   -7.024;  777.063
354.251;   19.867;   -5.343;  759.845
354.846;   14.352;   -8.604;  740.646
355.442;   12.261;   -6.945;  753.071
356.038;   13.883;   -7.564;  751.708
356.633;   14.461;   -5.814;  728.594
357.229;   12.186;   -7.364;  724.757
357.824;   11.334;   -8.024;  703.600
358.420;    9.808;   -9.384;  679.726
359.015;   10.296;   -5.104;  695.357
359.610;   10.749;   -6.854;  763.920
360.206;    4.996;  -10.185;  603.240
360.801;    7.536;   -7.054;  646.503
361.396;   10.403;   -5.034;  725.975
361.992;    5.253;   -8.284;  668.220
362.587;    2.990;   -8.625;  670.160
363.182;    5.729;   -7.674;  689.631
363.777;    6.135;   -5.164;  738.242
364.372;    5.311;   -8.604;  737.314
364.967;    1.394;   -9.055;  680.744
365.563;    5.702;   -6.114;  815.567
366.158;    3.116;   -5.814;  685.161
366.753;    3.580;   -7.854;  649.263
367.348;    1.367;   -7.804;  746.056
367.942;    1.292;   -7.954;  697.298
368.537;    1.211;   -4.984;  754.245
369.132;    1.104;   -8.564;  703.428
369.727;   -2.394;   -8.855;  638.079
370.322;   -2.065;   -6.245;  580.186
370.917;   -1.622;   -6.425;  710.646
371.511;    0.022;   -6.294;  861.834
372.106;   -3.342;   -7.685;  776.964
372.701;   -6.333;   -7.335;  585.988
373.296;   -0.323;   -4.564;  863.135
373.890;   -5.090;  -10.235;  647.840
374.485;   -7.040;   -7.885;  691.199
375.079;   -3.473;   -7.324;  738.685
375.674;   -2.108;   -3.494;  812.970
376.268;   -6.734;   -8.525;  691.759
376.863;  -11.994;  -10.086;  580.327
377.457;   -5.726;   -7.025;  662.490
378.052;   -7.382;   -3.585;  764.884
378.646;   -8.649;   -7.595;  741.167
379.240;   -9.077;   -8.335;  721.176
379.835;   -7.713;   -5.785;  636.978
380.429;   -9.240;   -4.335;  562.557
381.023;   -9.456;   -6.805;  779.205
381.617;  -11.984;   -9.195;  680.106
382.212;   -8.702;   -6.905;  685.303
382.806;   -7.692;   -3.745;  760.690
383.400;  -12.394;   -7.745;  672.281
383.994;  -12.907;   -9.765;  664.870
384.588;   -9.349;   -6.564;  697.701
385.182;   -8.034;   -5.344;  726.624
385.776;   -9.699;   -8.514;  706.875
386.370;  -13.062;   -9.555;  681.968
386.964;  -11.647;   -8.715;  684.155
387.558;   -9.609;   -6.174;  598.360
388.152;  -13.395;   -8.725;  681.959
388.745;  -11.651;   -7.965;  814.707
389.339;   -9.641;   -5.924;  747.642
389.933;   -8.518;   -5.524;  695.370
390.527;  -10.237;   -7.114;  859.029
391.120;  -16.890;  -10.725;  595.318
391.714;  -13.116;   -8.035;  711.633
392.308;  -10.417;   -3.574;  780.253
392.901;  -14.214;   -7.245;  642.460
393.495;  -15.734;   -9.285;  595.414
394.089;  -13.916;   -5.895;  760.452
394.682;  -14.062;   -4.295;  697.188
395.275;  -14.870;   -9.875;  719.927
395.869;  -15.275;   -8.485;  667.314
396.462;  -14.183;   -7.455;  616.609
397.056;  -10.308;   -5.424;  776.621
397.649;  -15.574;   -6.605;  731.575
398.242;  -12.498;   -8.224;  712.645
398.836;  -11.760;   -7.474;  766.408
399.429;  -12.618;   -7.094;  631.041
400.022;  -16.204;   -9.475;  665.902
400.615;  -13.493;   -7.145;  805.609
401.208;  -12.464;   -7.174;  691.451
401.802;  -14.914;   -5.515;  699.329
402.395;  -15.446;   -9.875;  683.502
402.988;  -16.987;   -8.845;  696.627
403.581;  -13.727;   -8.874;  646.878
404.174;  -11.183;   -5.324;  686.568
404.767;  -14.345;   -9.575;  638.583
405.360;  -17.282;  -10.965;  621.445
405.953;  -10.873;   -8.764;  759.034
406.545;  -10.074;   -7.514;  725.342
407.138;  -14.643;  -10.025;  618.350
407.731;  -13.382;  -10.034;  613.303
408.324;   -9.574;   -9.374;  660.554
408.917;  -10.131;   -6.534;  681.864
409.509;  -12.415;   -8.004;  740.396
410.102;  -14.380;   -9.875;  643.948
410.695;   -8.070;   -8.604;  665.758
411.287;   -9.867;   -6.794;  599.821
411.880;  -10.843;   -9.334;  585.421
412.472;  -13.645;  -10.254;  613.092
413.065;  -10.265;   -6.714;  629.408
413.657;   -8.370;   -7.234;  576.678
414.250;   -8.863;  -10.544;  646.681
414.842;  -10.943;   -9.744;  676.353
415.434;   -8.145;   -6.994;  570.463
416.027;   -3.482;   -5.893;  652.196
416.619;   -6.325;   -7.264;  713.400
417.211;   -6.387;  -10.374;  599.352
417.804;   -3.314;   -7.993;  628.499
418.396;   -6.179;   -7.234;  607.643
418.988;   -4.946;   -9.443;  659.238
419.580;   -7.638;  -10.724;  568.276
420.172;   -6.095;  -10.323;  536.196
420.764;   -1.540;   -8.793;  672.482
421.356;   -3.489;  -11.143;  636.898
421.948;   -3.591;   -8.293;  677.661
422.540;    1.316;   -7.893;  680.027
423.132;    0.405;   -7.082;  600.641
423.724;   -2.644;   -8.653;  561.267
424.316;   -0.930;  -10.213;  621.345
424.908;    2.569;   -9.762;  591.517
425.500;    4.120;   -5.572;  647.978
426.092;    3.801;   -8.422;  648.268
426.683;    3.494;   -9.283;  684.836
427.275;    5.298;   -7.852;  641.471
427.867;    7.670;   -5.272;  668.948
428.458;    7.301;   -7.682;  732.344
429.050;    5.975;  -10.612;  680.749
429.642;    8.304;   -9.882;  743.124
430.233;    8.940;   -6.962;  569.356
430.825;   10.244;   -6.842;  724.809
431.416;    7.426;   -9.672;  698.241
432.008;   11.529;   -6.552;  651.723
432.599;   11.627;   -6.891;  656.073
433.190;    8.603;  -10.912;  637.670
433.782;    8.359;  -11.172;  590.395
434.373;   15.098;   -6.061;  884.765
434.964;   14.249;   -8.251;  602.920
435.556;   12.035;   -9.722;  634.537
436.147;   15.113;   -9.082;  758.490
436.738;   14.840;   -8.041;  701.099
437.329;   20.188;   -7.341;  721.723
437.920;   12.559;   -8.162;  666.688
438.511;   12.490;  -11.802;  564.526
439.103;   19.542;  -10.191;  623.998
439.694;   20.977;   -7.601;  681.583
440.285;   21.542;   -8.541;  764.432
440.876;   19.810;   -9.751;  845.738
441.466;   19.509;   -9.401;  575.162
442.057;   24.639;   -7.760;  665.814
442.648;   23.093;   -9.971;  746.255
443.239;   21.918;  -11.001;  620.477
443.830;   26.527;   -7.990;  704.958
444.421;   28.721;   -7.910;  655.474
445.011;   24.783;   -8.131;  693.619
445.602;   24.620;   -7.111;  743.126
446.193;   26.204;  -10.920;  488.117
446.783;   31.212;   -6.500;  640.397
447.374;   25.975;   -8.671;  692.759
447.964;   26.939;  -10.781;  713.770
448.555;   35.169;   -9.650;  822.742
449.145;   32.392;   -8.660;  662.853
449.736;   32.644;   -8.990;  803.179
450.326;   33.089;   -9.500;  713.626
450.917;   37.179;   -8.680;  675.324
451.507;   36.669;   -7.520;  600.661
452.097;   37.337;   -8.590;  746.267
452.688;   38.800;  -11.340;  742.160
453.278;   38.186;  -10.100;  566.840
453.868;   43.379;   -6.019;  793.550
454.458;   40.505;   -9.440;  651.141
455.048;   40.913;  -10.560;  711.783
455.639;   42.428;  -11.799;  567.096
456.229;   45.983;   -6.899;  710.694
456.819;   47.429;   -7.389;  751.158
457.409;   48.114;  -11.119;  773.993
457.999;   50.827;   -9.289;  737.505
458.589;   50.963;   -6.139;  686.606
459.179;   50.454;   -8.729;  717.658
459.769;   48.464;   -9.789;  627.099
460.358;   54.208;  -10.259;  797.262
460.948;   53.235;   -7.299;  689.503
461.538;   55.299;  -10.289;  660.677
462.128;   52.333;  -11.269;  664.934
462.717;   59.645;   -9.368;  710.326
463.307;   63.034;   -7.908;  705.846
463.897;   58.189;   -9.599;  656.942
464.486;   57.882;   -9.769;  837.128
465.076;   61.871;   -8.048;  733.776
465.666;   66.590;   -9.358;  652.900
466.255;   62.824;   -7.919;  785.651
466.845;   62.647;  -11.689;  666.749
467.434;   66.092;   -7.818;  725.873
468.023;   67.078;   -7.678;  658.357
468.613;   64.491;  -10.939;  713.946
469.202;   68.326;  -10.118;  646.507
469.791;   73.119;   -9.108;  737.811
470.381;   74.540;   -6.058;  742.813
470.970;   73.676;  -10.428;  711.099
471.559;   73.457;  -10.268;  733.291
472.148;   77.361;   -8.448;  675.737
472.738;   79.168;   -6.917;  765.466
473.327;   79.189;  -11.978;  637.529
473.916;   79.121;  -11.888;  737.446
474.505;   83.014;   -9.437;  751.703
475.094;   86.444;   -6.747;  806.570
475.683;   86.212;   -9.367;  797.699
476.272;   86.215;  -12.637;  730.632
476.861;   88.891;  -10.027;  706.754
477.449;   95.391;   -8.716;  728.487
478.038;   90.371;   -9.577;  692.513
478.627;   90.811;   -9.718;  714.852
479.216;   98.718;   -8.947;  769.441
479.805;  101.131;   -6.256;  783.375
480.393;  100.292;   -7.937; 1008.945
480.982;   99.228;   -7.717;  874.501
481.571;  105.600;   -9.266;  858.333
482.159;  106.390;   -7.636;  705.386
482.748;  106.159;   -9.667;  821.385
483.336;  110.952;  -10.376;  858.209
483.925;  111.796;   -7.147;  774.373
484.513;  117.911;   -7.996;  758.962
485.102;  115.146;  -10.027;  810.965
485.690;  124.026;  -10.446; 1011.050
486.278;  126.404;   -8.446;  979.329
486.867;  126.373;   -6.356;  809.662
487.455;  128.931;   -9.136;  898.229
488.043;  130.159;  -10.646;  748.361
488.631;  139.191;   -7.456; 1005.079
489.220;  142.989;   -6.636;  908.626
489.808;  143.318;  -11.036;  741.415
490.396;  151.229;  -10.246;  914.645
490.984;  156.919;   -8.556;  830.161
491.572;  166.248;   -5.886;  940.315
492.160;  172.378;   -9.486;  919.081
492.748;  186.297;  -10.976;  884.341
493.336;  209.027;   -8.776; 1019.693
493.924;  236.865;   -5.465;  958.077
494.512;  265.542;   -9.986; 1066.638
495.100;  305.524;  -10.636; 1103.280
495.687;  361.638;  -10.885; 1206.373
496.275;  427.904;   -8.126; 1150.796
496.863;  503.155;  -10.586; 1281.171
497.451;  610.191;  -11.926; 1386.805
498.038;  744.397;  -10.885; 1556.729
498.626;  855.805;   -6.315; 1741.407
499.214; 1006.225;   -7.326; 2016.609
499.801; 1215.250;  -11.906; 2220.633
500.389; 1472.186;  -10.466; 2312.494
500.976; 1795.467;   -5.236; 2744.849
501.564; 2239.503;   -8.936; 3148.565
502.151; 2630.971;  -13.176; 3515.999
502.738; 3106.312;  -10.646; 3971.274
503.326; 3507.059;   -9.525; 4403.796
503.913; 3900.664;  -10.856; 5161.749
504.500; 4277.152;  -11.586; 5986.420
505.088; 4727.553;  -10.336; 6381.201
505.675; 5268.484;   -6.355; 6925.547
506.262; 6002.714;   -9.046; 7619.060
506.849; 6722.548;  -10.416; 8733.969
507.436; 7191.764;  -10.305; 9790.121
508.023; 7786.838;   -5.496; 9985.472
508.610; 8026.215;   -7.856;10434.618
509.197; 8643.651;  -10.097;11198.435
509.784;10044.082;  -10.886;12391.194
510.371;11048.938;   -9.315;13603.713
510.958;11737.577;   -9.936;14426.586
511.545;12522.869;   -9.326;15243.775
512.132;13423.266;  -10.075;15945.876
512.719;14030.373;   -7.796;16340.369
513.305;14943.039;  -10.606;18011.766
513.892;15802.657;  -11.486;19754.971
514.479;17145.086;   -9.126;20967.805
515.066;18476.139;   -6.026;22299.793
515.652;19688.982;   -8.466;22908.660
516.239;20917.520;  -10.886;23798.875
516.825;21915.742;  -11.496;25567.275
517.412;23008.068;   -5.796;28154.959
517.998;23637.963;  -10.506;28344.111
518.585;23564.611;  -10.076;27134.219
519.171;23923.375;   -8.315;27268.576
519.758;25485.621;   -8.596;28964.129
520.344;27213.600;   -8.466;30664.494
520.930;27027.346;  -11.006;32550.605
521.516;28382.088;  -10.495;35422.895
522.103;30663.926;   -5.526;38280.004
522.689;31150.176;   -8.746;37835.117
523.275;30431.936;  -11.376;37288.613
523.861;31427.029;  -11.156;37281.395
524.447;32743.334;   -8.135;37846.949
525.033;32430.914;   -7.896;38321.949
525.619;32449.049;  -12.476;38579.285
526.205;33667.652;   -9.516;40622.875
526.791;35342.078;   -6.926;42258.836
527.377;34437.305;   -8.346;42966.902
527.963;33804.895;   -8.717;42018.949
528.549;30691.307;  -11.016;42476.828
529.135;29979.387;   -8.536;41854.852
529.721;32195.350;   -9.666;41237.711
530.306;33892.254;  -10.066;41259.445
530.892;34638.676;  -11.356;41506.047
531.478;36265.754;   -6.596;43559.613
532.063;39042.977;   -8.836;47695.563
532.649;39205.969;  -10.047;50808.324
533.235;39936.801;   -9.746;51787.500
533.820;40572.652;   -6.566;52145.035
534.406;41665.633;  -10.817;51133.488
534.991;41203.402;   -9.416;49996.805
535.576;39434.316;   -9.036;48882.852
536.162;39325.848;   -6.156;46942.285
536.747;39481.457;  -11.607;45711.746
537.333;41064.906;  -11.787;48510.180
537.918;40814.938;  -12.437;50439.891
538.503;37431.340;   -7.196;50863.711
539.088;34829.063;  -10.556;50906.922
539.673;37860.078;   -8.767;52621.965
540.259;41730.621;  -10.026;52368.094
540.844;41664.105;   -7.416;50879.109
541.429;43867.070;   -9.467;52077.777
542.014;47193.102;   -9.527;52716.695
542.599;46432.254;   -9.946;52363.281
543.184;43907.848;   -7.927;53187.137
543.769;45442.418;   -9.297;54697.605
544.354;44849.469;  -10.127;53913.914
544.938;43603.926;   -9.267;49680.164
545.523;45344.227;   -6.506;47386.277
546.108;47780.727;   -9.787;49151.949
546.693;49910.172;  -11.587;51384.637
547.278;49925.629;  -10.986;51853.254
547.862;46874.973;   -8.206;51173.750
548.447;42305.176;  -10.067;51691.395
549.031;42110.930;   -9.637;52456.703
549.616;47173.449;   -9.926;52714.516
550.201;46179.906;   -6.347;52414.598
550.785;47204.359;   -7.917;52355.059
551.370;46409.070;  -10.867;54589.453
551.954;46495.496;   -9.047;58267.348
552.538;47184.410;   -7.827;59062.176
553.123;45425.621;  -10.287;58115.285
553.707;43507.094;  -12.178;56556.285
554.291;44962.859;   -8.717;56201.668
554.876;47251.305;   -7.457;55335.762
555.460;47625.980;  -10.387;54155.703
556.044;48531.715;   -9.618;53721.484
556.628;47132.031;  -11.567;53731.016
557.212;45860.023;   -8.097;54312.531
557.796;44197.422;  -11.077;53797.773
558.380;44189.301;  -11.108;56145.984
558.964;44766.965;   -9.057;57277.930
559.548;45840.945;   -6.977;56459.641
560.132;44315.504;  -11.457;54434.543
560.716;43044.801;  -11.378;54800.617
561.300;44198.797;   -9.577;57606.945
561.884;45376.523;   -7.127;58972.445
562.467;43763.855;   -7.118;57327.570
563.051;42886.664;  -13.358;54962.434
563.635;43741.805;  -10.178;52594.473
564.219;44376.543;   -7.837;50610.410
564.802;45253.742;  -11.398;49551.180
565.386;45163.387;  -12.788;48370.953
565.969;44457.703;   -9.077;48178.871
566.553;44041.750;   -6.207;49957.305
567.136;44550.031;   -8.568;50369.594
567.720;40706.320;  -11.868;49492.004
568.303;38815.699;   -8.268;50616.352
568.887;38932.668;   -8.698;50727.148
569.470;39091.133;   -6.808;51698.379
570.053;37674.305;  -13.188;52122.078
570.637;36129.523;  -12.037;52536.438
571.220;35956.891;   -8.577;51186.098
571.803;36365.211;   -8.498;51032.762
572.386;38676.598;  -10.498;49609.887
572.969;41228.629;   -9.388;48285.926
573.552;39407.949;   -8.338;47624.285
574.135;38107.117;   -8.518;45498.641
574.718;35736.754;  -13.628;41970.434
575.301;34558.918;  -10.893;41447.137
575.884;33381.078;   -8.158;40923.836
576.467;34685.785;  -10.328;45267.723
577.050;36965.887;  -13.058;48175.543
577.633;38259.727;   -9.458;47729.328
578.216;37240.438;   -8.928;47579.793
578.799;36239.547;   -9.358;47820.996
579.381;34807.020;  -11.388;48115.551
579.964;33150.602;  -11.718;47333.766
580.547;34881.895;   -8.588;46668.969
581.129;36265.035;   -8.859;44466.141
581.712;37133.383;  -10.729;44164.922
582.294;37767.227;  -11.118;46477.855
582.877;37431.391;   -5.218;48244.254
583.459;34953.555;   -8.679;47437.895
584.042;33091.465;  -10.709;46943.219
584.624;33765.652;  -11.669;46792.227
585.206;33328.684;   -8.218;46557.250
585.789;33507.277;  -10.569;45793.773
586.371;36375.082;  -11.859;43836.391
586.953;36920.879;  -10.719;42972.492
587.536;38249.727;   -7.198;42487.211
588.118;37973.645;   -8.720;42086.414
588.700;34335.609;  -10.439;43389.930
589.282;33526.598;   -9.198;43646.039
589.864;34571.785;   -9.199;43438.109
590.446;35470.137;  -11.319;43151.926
591.028;35187.684;  -11.159;42781.867
591.610;34171.637;  -11.779;42839.098
592.192;31701.570;   -7.668;42820.402
592.774;30256.941;  -11.949;40724.277
593.356;29031.850;  -12.129;39874.789
593.937;28092.328;  -10.669;39980.648
594.519;30335.320;   -6.509;42069.633
595.101;32400.023;  -10.849;42976.031
595.683;32564.557;  -11.679;44084.441
596.264;33749.430;   -9.049;43478.797
596.846;32958.820;   -8.849;43803.672
597.427;32713.828;   -9.570;42986.934
598.009;34306.766;  -12.620;42832.219
598.591;34515.234;  -10.039;42580.086
599.172;33586.516;  -10.369;43061.805
599.753;33660.242;   -9.140;41691.469
600.335;35373.395;  -11.430;40692.520
600.916;33774.754;   -9.939;39982.422
601.498;31250.854;   -8.479;40318.617
602.079;29816.570;  -10.920;40670.609
602.660;29916.447;  -11.480;41450.898
603.241;31499.797;  -11.699;41137.738
603.823;30220.463;   -9.579;38868.797
604.404;29920.203;  -10.620;38182.785
604.985;31333.076;  -10.450;38078.047
605.566;30910.148;   -9.129;38056.633
606.147;31116.686;   -7.510;37020.418
606.728;32762.408;  -10.660;37883.359
607.309;31315.221;  -11.740;38748.273
607.890;30799.625;   -9.759;38850.230
608.471;30360.582;   -8.250;37457.918
609.051;29519.770;   -9.240;36066.457
609.632;28535.328;  -12.120;35991.074
610.213;29455.855;   -9.110;37402.641
610.794;30111.344;   -8.030;38383.363
611.374;29652.137;   -8.110;40562.387
611.955;30099.029;  -13.560;38533.727
612.536;31278.719;  -11.400;36951.789
613.116;31218.898;   -8.070;37197.891
613.697;31528.375;  -10.830;38411.125
614.277;30166.982;  -11.641;38673.938
614.858;31134.588;  -13.310;37075.863
615.438;30092.787;   -7.460;35092.906
616.019;27188.215;   -7.601;33666.301
616.599;27835.904;  -12.020;34189.023
617.179;29840.318;  -11.780;36952.047
617.760;30841.693;   -8.570;39582.574
618.340;31814.826;  -11.471;38943.977
618.920;33023.664;  -11.170;37594.156
619.500;32921.133;  -11.071;37866.938
620.080;32047.068;   -7.750;37869.043
620.660;33248.984;  -12.711;36868.617
621.241;34614.219;  -10.211;36352.309
621.821;34827.656;  -10.961;35459.520
622.401;33790.594;   -7.720;35207.414
622.980;33006.930;   -8.981;35980.422
623.560;31558.525;   -9.331;37351.328
624.140;30546.389;   -9.850;34388.582
624.720;25271.168;   -7.451;32368.764
625.300;21748.965;   -9.070;32638.629
625.880;25061.346;  -12.601;34599.035
626.459;29026.775;  -11.751;36831.738
627.039;32219.982;   -9.281;38299.098
627.619;32070.229;   -8.801;38289.574
628.198;30462.256;  -12.071;37220.695
628.778;29575.660;   -9.461;37632.563
629.357;30180.348;   -8.491;38003.012
629.937;30190.352;   -9.721;38402.039
630.516;29834.975;   -9.951;37868.801
631.096;29541.195;  -11.731;35760.410
631.675;32429.887;   -8.572;35225.219
632.254;37550.535;  -11.282;35130.289
632.834;36870.105;  -13.322;35794.570
633.413;34768.219;  -10.301;35788.922
633.992;31711.561;   -8.582;34532.863
634.571;32748.676;   -8.352;33590.113
635.151;35656.816;  -11.912;34943.863
635.730;33889.316;  -10.511;35352.523
636.309;30488.049;   -7.731;35366.605
636.888;28224.645;   -9.952;36165.637
637.467;29136.951;  -11.672;37515.902
638.046;30819.902;   -8.901;39288.695
638.625;33905.809;   -7.912;38279.699
639.204;33509.133;  -10.022;37741.598
639.782;31970.674;  -12.252;38364.551
640.361;28251.441;  -10.041;36740.621
640.940;25381.199;  -11.161;34950.082
641.519;26044.004;   -9.701;34137.398
642.097;28869.670;  -11.271;35654.258
642.676;31543.955;   -8.651;35637.957
643.255;32211.674;   -8.711;36567.074
643.833;31398.982;   -9.581;37809.434
644.412;31516.207;  -13.711;37337.293
644.990;30620.311;  -11.811;37018.531
645.569;30749.438;   -9.411;36518.469
646.147;29653.230;  -10.291;36186.430
646.726;29248.258;  -12.401;36267.688
647.304;30344.670;  -10.411;36647.625
647.882;32227.248;   -9.651;39286.742
648.461;33811.133;   -9.631;39157.703
649.039;31920.674;  -11.881;35412.883
649.617;31207.518;   -9.661;34744.918
650.195;30944.803;   -9.301;35403.098
650.773;29509.883;  -10.511;35053.797
651.352;27102.133;  -11.521;33756.816
651.930;24994.557;  -12.211;31868.773
652.508;23636.002;   -9.171;33121.551
653.086;27593.945;   -9.371;33564.793
653.663;30140.518;  -13.161;34054.668
654.241;29150.223;  -13.031;35693.309
654.819;30924.199;   -9.371;36422.906
655.397;30920.506;  -10.511;38213.484
655.975;30615.555;  -10.371;39507.625
656.553;30273.496;  -10.051;39498.223
657.130;28537.322;  -10.061;40395.480
657.708;27930.490;   -9.561;39242.020
658.286;27925.207;  -11.511;38920.020
658.863;29137.568;  -10.261;40202.898
659.441;32287.807;   -7.531;39677.938
660.018;31717.896;   -9.501;40413.355
660.596;30529.061;  -13.301;39931.414
661.173;32441.031;  -11.211;39604.531
661.750;32467.059;   -9.951;39700.070
662.328;31444.127;   -9.390;39292.809
662.905;30723.480;  -11.330;38235.648
663.482;26266.768;   -9.050;36212.305
664.060;24541.748;   -8.240;35944.945
664.637;27479.234;  -10.050;35170.785
665.214;29316.688;  -11.760;34197.523
665.791;30767.082;  -10.530;34549.520
666.368;29382.678;   -9.690;35118.578
666.945;30106.031;   -9.320;36019.418
667.522;31606.926;  -11.860;36048.438
668.099;31489.432;  -10.770;36243.914
668.676;30376.332;   -6.260;35958.875
669.253;28981.838;   -7.000;37384.730
669.830;29643.736;  -10.190;36779.629
670.407;29300.115;   -9.550;35231.289
670.984;29268.037;   -9.260;35544.270
671.560;29672.588;   -9.280;35466.867
672.137;28951.008;  -11.810;34280.863
672.714;29816.863;  -11.490;34632.863
673.290;30160.891;   -7.740;35135.422
673.867;30599.170;  -10.660;36114.480
674.443;30296.584;  -12.230;36152.859
675.020;28447.631;  -10.450;35327.238
675.596;29635.426;   -9.260;35795.176
676.173;30115.184;  -10.780;35430.355
676.749;30032.650;  -13.690;33549.516
677.326;30206.955;  -11.980;32210.012
677.902;30212.760;   -8.630;32068.871
678.478;29490.963;  -10.730;32583.891
679.054;28971.768;  -10.520;32088.928
679.631;29206.586;  -11.920;30978.848
680.207;30694.412;   -7.490;33160.887
680.783;32162.863;   -9.860;35570.363
681.359;31243.277;  -13.380;36125.184
681.935;30646.217;  -12.480;35240.922
682.511;29847.484;   -7.900;34429.961
683.087;30088.775;   -7.710;34463.680
683.663;29771.709;  -11.480;34648.898
684.239;28441.750;  -14.090;34546.457
684.815;27973.773;   -7.560;35586.375
685.390;28375.117;   -9.910;35821.895
685.966;28823.010;  -11.159;35085.871
686.542;31266.320;  -11.169;34198.230
687.118;33535.867;   -5.959;32847.707
687.693;33753.438;  -10.329;32794.027
688.269;33275.078;  -12.059;33072.367
688.844;31127.055;  -10.909;33141.664
689.420;28826.088;   -8.019;33965.742
689.995;26651.004;   -8.399;34655.523
690.571;25443.896;  -10.949;33576.742
691.146;26003.637;   -9.619;32657.219
691.722;25545.307;   -8.999;32526.979
692.297;25677.010;  -11.589;33014.617
692.872;27606.477;  -11.739;34012.254
693.448;27120.250;  -11.059;34237.434
694.023;26359.951;  -10.139;34142.672
694.598;28310.795;   -9.029;34132.031
695.173;28501.672;  -13.319;34205.250
695.748;27690.406;  -10.169;32882.488
696.323;27603.939;   -8.339;32864.906
696.898;27880.799;   -8.169;33170.004
697.473;27917.256;  -12.309;32432.984
698.048;27459.521;  -10.989;31649.303
698.623;27471.969;   -9.329;30778.141
699.198;29514.209;   -9.849;31140.119
699.773;30396.813;  -12.329;31764.299
700.348;28710.061;  -10.389;31780.816
700.922;28656.852;   -9.269;32046.375
701.497;29393.756;   -9.329;32603.574
702.072;29515.580;  -10.789;34799.871
702.646;28182.521;  -10.839;35793.172
703.221;26316.543;   -9.099;35201.590
703.795;28315.660;  -10.939;34764.527
704.370;28645.645;  -12.859;34307.367
704.944;29202.541;  -11.559;33509.887
705.519;30155.078;   -7.939;31388.584
706.093;31632.660;  -10.499;31340.104
706.668;31733.645;  -11.289;32630.281
707.242;30577.318;  -11.509;32728.779
707.816;29048.248;   -9.639;32947.238
708.390;27547.365;  -11.429;33277.855
708.965;28247.781;  -11.869;33834.336
709.539;28603.553;  -11.689;33709.273
710.113;29017.340;  -10.478;33044.313
710.687;28290.713;  -10.228;31953.992
711.261;26559.586;  -13.698;30505.949
711.835;26391.109;  -13.378;30262.369
712.409;27314.441;   -9.698;31254.447
712.983;29247.844;  -11.898;32754.986
713.557;30055.355;  -15.138;34018.824
714.131;29659.010;  -14.098;34579.625
714.704;28738.314;   -9.958;33890.262
715.278;26478.268;  -10.028;33531.102
715.852;25503.477;  -11.148;33601.660
716.425;26281.295;   -9.068;33515.117
716.999;27059.055;  -10.038;33185.555
717.573;28237.252;   -9.798;33905.996
718.146;29290.301;  -12.378;35199.293
718.720;29232.342;  -11.918;35060.551
719.293;28707.352;   -8.088;34973.230
719.867;31580.088;  -10.888;36394.449
720.440;31014.549;  -11.938;36663.008
721.013;29263.400;  -12.818;35102.426
721.587;27909.850;  -10.298;33985.266
722.160;26925.738;  -10.048;33524.965
722.733;25954.836;  -12.108;32987.043
723.306;26317.559;  -10.818;33066.301
723.880;28732.586;   -8.908;33399.500
724.453;30462.293;   -9.878;33468.297
725.026;29219.543;  -11.188;33816.637
725.599;26454.957;  -11.678;32797.996
726.172;26923.635;   -9.618;33187.434
726.745;28090.479;   -8.258;35136.613
727.318;29693.727;  -12.978;35751.730
727.891;30236.645;  -12.148;35890.430
728.463;29886.717;   -8.968;34822.090
729.036;28934.816;  -10.188;32895.086
729.609;29390.207;  -11.788;31823.225
730.182;26237.410;  -11.788;31445.283
730.754;23743.086;  -10.268;32373.223
731.327;23853.455;   -9.998;33676.820
731.900;24252.863;  -12.228;33417.000
732.472;25627.283;  -13.848;31978.498
733.045;27421.449;   -8.698;30368.777
733.617;27461.883;  -10.607;30574.215
734.190;26969.049;  -11.507;31280.975
734.762;23886.207;  -13.647;31674.412
735.334;22272.273;   -9.767;31247.291
735.907;23108.328;   -9.897;29876.211
736.479;23184.975;  -11.637;29808.488
737.051;22899.914;   -9.567;30233.547
737.623;23916.592;   -8.187;31469.086
738.195;24807.064;  -11.187;31784.225
738.768;26682.111;  -12.337;32120.523
739.340;26642.123;  -12.227;32094.342
739.912;25382.109;  -11.057;31312.680
740.484;24038.975;  -10.207;31946.238
741.056;23077.303;  -10.047;32984.059
741.628;24882.961;  -13.627;33897.715
742.199;27155.721;   -7.177;33213.016
742.771;25465.811;  -10.797;31369.113
743.343;23001.754;  -11.997;31865.473
743.915;22000.416;  -12.867;32388.631
744.487;22177.432;   -7.617;31079.568
745.058;22384.785;   -9.557;30570.107
745.630;22764.613;   -9.877;29970.127
746.201;23472.824;  -14.177;29186.766
746.773;23862.012;   -9.237;28805.723
747.344;23773.102;   -9.847;29591.223
747.916;22492.197;  -11.657;31412.201
748.487;22816.697;  -10.587;32194.898
749.059;23912.354;   -8.707;32533.719
749.630;24477.256;  -10.537;32158.518
750.201;23501.816;  -11.687;30855.395
750.773;21798.859;  -11.647;28622.555
751.344;21846.553;   -7.147;28405.732
751.915;23120.760;   -9.757;28461.551
752.486;22852.182;  -12.427;27842.850
753.057;20612.729;  -12.227;27845.008
753.628;19474.674;  -10.417;27728.107
754.199;20628.076;  -11.767;27381.086
754.770;21590.732;  -11.187;25882.203
755.341;21584.326;  -10.507;25886.184
755.912;21565.141;   -9.387;26050.861
756.483;21082.623;  -10.647;26798.779
757.054;19267.961;  -11.837;27048.238
757.625;17989.244;  -12.716;26294.838
758.195;17767.742;   -9.666;26142.076
758.766;17511.992;   -8.656;26392.234
759.337;18309.580;  -12.856;26334.594
759.907;20058.143;  -13.366;27579.652
760.478;20967.404;   -8.576;28352.770
761.048;20206.486;  -10.526;27325.088
761.619;19328.846;  -11.116;26460.428
762.189;19423.299;  -12.136;26029.826
762.760;20620.535;   -9.456;26430.145
763.330;21637.709;   -7.136;26670.902
763.900;20958.990;  -11.786;26603.021
764.471;18319.961;  -11.546;25542.740
765.041;17018.762;   -8.096;24358.459
765.611;17118.977;   -8.876;23991.297
766.181;17608.393;  -12.196;24470.236
766.751;18555.516;  -11.636;24845.975
767.321;18188.545;  -10.156;24533.633
767.891;16203.918;  -11.766;24916.492
768.461;15733.049;  -14.936;24776.771
769.031;16307.136;  -12.356;24757.988
769.601;17812.732;   -7.526;24181.088
770.171;17642.203;  -10.766;23670.387
770.741;17063.668;  -13.176;22960.045
771.311;17319.672;  -10.616;22917.523
771.880;17599.588;   -9.576;23562.941
772.450;17231.609;  -10.336;24216.500
773.020;17225.719;  -13.516;24140.398
773.589;16520.994;  -13.466;24414.857
774.159;15866.067;   -8.686;23858.717
774.729;15545.486;   -9.476;22942.135
775.298;15091.391;  -13.666;22324.033
775.867;14686.279;  -11.716;21140.313
776.437;14662.516;   -9.906;20838.092
777.006;14427.552;  -12.166;20599.510
777.576;14357.773;  -12.356;20508.809
778.145;14534.135;  -11.646;20732.947
778.714;14407.399;   -8.226;21062.465
779.283;13673.073;   -9.556;20949.664
779.853;13241.438;  -14.116;20508.623
780.422;13727.793;  -11.506;20649.082
780.991;13273.462;   -9.556;21527.520
781.560;12121.549;   -9.095;22632.658
782.129;11956.958;  -12.135;23048.277
782.698;12006.617;  -10.865;23438.555
783.267;11623.757;   -9.335;23267.734
783.836;11609.335;  -11.045;22415.133
784.404;12586.428;  -13.865;20443.152
784.973;13098.615;  -13.095;19699.150
785.542;13026.409;  -11.575;19763.828
786.111;12921.705;   -9.705;20341.408
786.679;12398.301;  -12.105;20207.967
787.248;12116.921;  -12.455;19516.465
787.817;11878.859;  -11.535;18900.363
788.385;11403.652;   -9.765;17879.121
788.954;10808.281;  -14.005;17658.301
789.522;10340.426;  -11.955;17788.879
790.090;10934.081;  -10.135;18118.277
790.659;11318.615;  -10.975;18338.736
791.227;10819.199;  -13.375;18508.615
791.795;11273.613;  -12.375;17898.254
792.364;11602.819;  -10.725;17295.133
792.932;11848.919;   -9.715;16822.051
793.500;12014.743;  -12.675;17040.148
794.068;12250.845;  -13.495;17179.787
794.636;12336.225;  -10.885;16664.246
795.204;11793.178;  -11.045;16524.545
795.772;11831.660;  -13.175;17274.564
796.340;11346.135;  -12.445;17891.002
796.908;11209.529;   -9.735;17648.561
797.476;11104.845;   -9.815;17064.080
798.044;10678.448;  -13.985;16672.777
798.612; 9859.188;  -13.115;17023.996
799.180; 9478.373;  -10.185;16561.615
799.747; 9414.769;   -9.055;15962.773
800.315; 9134.238;  -12.385;15296.992
800.883; 8782.512;  -15.035;14801.771
801.450; 8778.533;  -10.365;14534.430
802.018; 8821.642;   -9.855;14173.248
802.585; 8955.659;  -11.905;14029.547
803.153; 9030.422;  -11.585;13836.846
803.720; 8880.473;   -9.095;13567.324
804.287; 8438.969;   -9.135;13360.622
804.855; 8037.438;  -11.604;13681.981
805.422; 7909.498;  -11.794;13536.560
805.989; 7893.149;  -10.734;13355.958
806.556; 8068.478;  -10.444;13747.896
807.124; 8333.275;  -12.764;13987.376
807.691; 8313.598;  -12.964;14038.674
808.258; 8107.576;  -11.134;14120.152
808.825; 7787.377;   -9.854;13860.111
809.392; 7852.461;  -10.504;13268.790
809.959; 7400.544;  -13.054;12680.389
810.526; 7002.466;   -8.294;12427.308
811.093; 7074.378;   -8.394;12030.105
811.659; 7671.773;  -12.304;11653.664
812.226; 8125.544;  -13.944;11637.183
812.793; 7799.306;  -10.484;11611.521
813.360; 7183.869;  -10.144;11885.181
813.926; 6897.552;  -11.684;12770.539
814.493; 6690.168;  -13.644;12677.638
815.060; 6309.631;   -9.724;11974.336
815.626; 6357.102;   -9.854;11594.715
816.193; 6773.250;  -13.254;11579.474
816.759; 6784.398;  -13.204;11666.972
817.325; 6896.762;   -9.434;11325.530
817.892; 7324.241;  -10.134;11105.369
818.458; 7732.957;  -13.474;10843.928
819.024; 7320.764;  -11.854;10714.406
819.591; 7039.432;  -10.244;10469.165
820.157; 6833.534;  -10.704;10235.523
820.723; 6329.508;  -12.324;10847.563
821.289; 6034.670;   -9.444;11040.980
821.855; 5926.637;   -8.374;10357.100
822.421; 5879.743;  -10.234; 9978.918
822.987; 5884.860;  -13.294; 9754.177
823.553; 5603.312;  -10.884;10065.755
824.119; 5453.185;   -8.884;10036.294
824.685; 5543.111;   -6.784;10029.192
825.251; 5642.837;  -12.004;10199.230
825.816; 5612.334;  -11.474; 9820.189
826.382; 5399.798;   -9.174; 9297.248
826.948; 5641.250;   -9.214; 9381.347
827.513; 6015.213;  -10.774; 9450.726
828.079; 5799.406;  -11.924; 9472.444
828.645; 5232.374;  -10.543; 9292.643
829.210; 5183.731;  -10.533; 9065.341
829.776; 5170.641;  -10.753; 9132.620
830.341; 5061.759;  -10.173; 9092.878
830.906; 5290.546;  -10.743; 9078.557
831.472; 5655.369;  -11.113; 8534.535
832.037; 5365.077;  -10.603; 8677.874
832.602; 4767.532;  -13.323; 8628.692
833.167; 4486.650;  -10.823; 8879.031
833.733; 4427.704;  -10.113; 9189.790
834.298; 4570.747;  -13.583; 9052.608
834.863; 4640.678;  -12.703; 8895.087
835.428; 4626.460;  -10.523; 8824.266
835.993; 4499.345;   -6.963; 8845.385
836.558; 4353.881;  -10.763; 8888.563
837.123; 4506.521;   -9.903; 8966.582
837.688; 4744.183;   -9.913; 8617.860
838.253; 4981.886;  -10.283; 8590.699
838.817; 5192.746;  -12.963; 8443.797
839.382; 5098.911;  -14.243; 8799.356
839.947; 4791.106;  -10.733; 8810.595
840.511; 4480.999;   -9.383; 8796.394
841.076; 4097.896;  -12.563; 8347.231
841.641; 4165.209;  -12.953; 8224.330
842.205; 4260.825;   -7.043; 8223.349
842.770; 4387.043;   -8.163; 8622.107
843.334; 4570.817;  -12.503; 8410.386
843.898; 4504.630;  -11.693; 8337.465
844.463; 4508.417;  -10.203; 8506.283
845.027; 4256.030;   -9.533; 8280.962
845.591; 4059.791;  -13.443; 8231.141
846.156; 4028.037;  -13.143; 7969.179
846.720; 3921.956;   -9.433; 7768.278
847.284; 3799.504;  -11.033; 7630.957
847.848; 3666.542;  -10.403; 7472.395
848.412; 3567.131;  -11.553; 7437.394
848.976; 3603.393;   -8.393; 7674.592
849.540; 3535.510;   -8.713; 7836.011
850.104; 3664.646;  -12.463; 7913.669
850.668; 4016.582;  -12.973; 7694.508
851.232; 4100.445;  -10.793; 7756.887
851.796; 3932.836;  -10.662; 7926.545
852.359; 3634.365;  -13.082; 7827.844
852.923; 3462.223;  -12.192; 7641.163
853.487; 3266.429;  -11.912; 7342.501
854.050; 3214.542;  -10.892; 7042.820
854.614; 3341.708;  -13.992; 7151.338
855.177; 3461.068;  -11.732; 7105.077
855.741; 3481.509;   -8.962; 6989.675
856.304; 3357.220;   -9.442; 6596.634
856.868; 3310.150;  -14.192; 6356.272
857.431; 3411.272;  -12.702; 6468.571
857.995; 3519.018;   -9.942; 6373.210
858.558; 3516.636;   -9.112; 6324.448
859.121; 3240.780;  -12.932; 6408.327
859.684; 3123.019;  -13.442; 6347.886
860.247; 3225.530;  -10.632; 6321.264
860.810; 3207.659;  -11.272; 6301.903
861.374; 2935.600;   -9.832; 6607.881
861.937; 2673.112;  -11.762; 6408.200
862.500; 2671.634;   -9.722; 6572.639
863.062; 2859.027;  -10.512; 6387.297
863.625; 3035.432;  -11.232; 6190.836
864.188; 3196.197;  -14.112; 5807.254
864.751; 3253.075;  -11.302; 5682.413
865.314; 3133.457;  -10.112; 5547.492
865.876; 2922.997;  -12.182; 5500.150
866.439; 2919.205;  -10.722; 5415.909
867.002; 2857.802;   -9.252; 5501.567
867.564; 2648.728;   -9.572; 5413.946
868.127; 2426.868;  -13.142; 5160.325
868.689; 2328.629;  -12.902; 5133.183
869.252; 2222.983;   -9.732; 5252.382
869.814; 2123.601;   -9.432; 5297.141
870.377; 2132.587;  -11.552; 5390.919
870.939; 2201.264;   -9.052; 5599.898
871.501; 2264.465;  -10.982; 5248.336
872.063; 2265.457;  -12.292; 4854.235
872.626; 2229.007;  -14.912; 4817.074
873.188; 2267.288;  -13.112; 4987.732
873.750; 2230.915;  -13.442; 4868.651
874.312; 2138.347;   -9.402; 4779.330
874.874; 2049.022;  -11.062; 4866.348
875.436; 1957.936;  -13.931; 4718.887
875.998; 1949.150;   -9.561; 4660.005
876.560; 1978.631;  -11.321; 4462.964
877.122; 1929.747;  -12.221; 4145.042
877.683; 1850.317;  -12.191; 4056.481
878.245; 1784.503;  -12.101; 3950.740
878.807; 1824.602;   -8.971; 4058.958
879.369; 1844.248;  -12.071; 3954.677
879.930; 1741.489;  -14.621; 3941.495
880.492; 1707.678;  -10.311; 4067.014
881.053; 1740.554;  -10.901; 3859.633
881.615; 1717.159;  -14.411; 3776.071
882.176; 1661.724;  -13.761; 3734.750
882.738; 1520.486;   -9.181; 3678.489
883.299; 1266.074;  -11.791; 3405.407
883.860; 1000.912;  -13.121; 3351.106
884.422;  819.443;  -11.211; 3394.044
884.983;  741.565;  -10.091; 3166.443
885.544;  737.139;   -8.461; 3189.802
886.105;  745.103;  -12.361; 3160.360
886.666;  756.532;  -14.141; 3093.059
887.227;  764.785;  -11.361; 2941.957
887.788;  754.485;  -11.401; 2974.836
888.349;  735.264;  -13.791; 2721.214
888.910;  755.453;  -13.191; 2696.493
889.471;  775.223;   -9.881; 2560.172
890.032;  767.596;   -9.881; 2558.190
890.593;  755.628;  -10.371; 2567.669
891.153;  740.238;  -13.301; 2460.307
891.714;  697.907;  -11.431; 2372.046
892.275;  666.449;  -11.291; 2309.505
892.835;  630.026;  -11.471; 2382.543
893.396;  584.462;  -11.541; 2295.502
893.956;  533.467;  -11.181; 2162.420
894.517;  502.094;  -11.741; 2125.439
895.077;  498.113;  -11.671; 2086.978
895.638;  501.445;  -11.311; 2126.316
896.198;  475.619;   -9.831; 1838.275
896.758;  434.137;   -8.421; 1892.813
897.319;  406.846;  -12.351; 1792.232
897.879;  391.608;  -13.511; 1762.751
898.439;  367.208;  -12.001; 1661.149
898.999;  344.638;  -10.180; 1781.468
899.559;  337.978;  -12.030; 1703.347
900.119;  332.835;  -15.710; 1537.525
900.679;  329.314;   -8.900; 1638.384
901.239;  315.195;   -8.340; 1527.902
901.799;  306.105;  -13.910; 1456.441
902.359;  300.308;  -13.460; 1357.140
902.919;  295.080;  -11.490; 1331.118
903.479;  281.219;  -12.110; 1317.257
904.038;  260.691;  -11.720; 1262.595
904.598;  246.079;  -13.610; 1152.034
905.158;  243.449;  -11.040; 1240.893
905.717;  235.484;  -10.900; 1233.691
906.277;  224.522;  -15.080; 1217.330
906.836;  214.657;  -13.380; 1222.408
907.396;  207.105;  -10.780; 1193.047
907.955;  200.323;   -8.500; 1182.526
908.515;  193.459;  -12.760; 1099.364
909.074;  187.311;  -11.900; 1092.863
909.633;  179.957;   -8.950; 1069.121
910.192;  173.729;   -8.770; 1196.460
910.752;  166.401;  -12.390; 1029.960
911.311;  162.740;  -13.680; 1009.780
911.870;  160.486;  -12.370;  971.460
912.429;  162.536;  -10.900; 1094.080
912.988;  162.489;  -11.690; 1081.060
913.547;  157.954;  -13.240;  940.380
914.106;  153.168;  -11.990;  999.420
914.665;  151.094;   -9.990;  984.020
915.224;  150.783;  -12.880; 1035.760
915.782;  151.576;  -12.350;  922.560
916.341;  150.169;   -9.110; 1049.840
916.900;  146.528;   -9.270;  925.260
917.458;  145.079;  -13.240;  884.220
918.017;  144.486;  -13.550;  942.600
918.576;  144.539;  -12.320;  904.440
919.134;  142.426;  -11.490;  837.980
919.693;  140.301;  -13.670;  893.060
920.251;  139.077;  -15.470;  876.500
920.809;  137.719;  -11.290;  839.580
921.368;  137.413;  -10.210;  885.360
921.926;  135.731;  -12.140;  842.940
922.484;  135.060;  -13.080;  903.360
923.042;  134.849;  -11.720;  880.340
923.601;  138.635;   -7.480;  998.680
924.159;  136.202;  -11.570;  935.560
924.717;  132.450;  -13.840;  841.080
925.275;  133.330;  -10.640;  903.240
925.833;  132.399;  -11.540;  779.320
926.391;  133.255;  -12.960;  938.380
926.949;  131.268;  -14.130;  857.680
927.506;  132.030;  -11.750;  903.500
928.064;  132.237;  -10.250;  877.580
928.622;  130.922;  -13.030;  880.100
929.180;  130.586;  -13.400;  814.180
929.737;  132.574;  -10.700;  808.540
930.295;  136.176;  -10.070;  928.480
930.853;  136.942;  -11.960;  849.100
931.410;  137.208;  -13.120;  821.120
931.968;  137.194;  -10.770;  940.660
932.525;  137.467;  -10.680;  909.380
933.082;  137.310;  -13.130;  811.440
933.640;  137.891;  -13.210;  925.900
934.197;  135.345;  -11.060;  886.360
934.754;  137.180;   -9.580;  897.780
935.312;  140.249;  -14.000;  863.340
935.869;  143.781;  -10.710; 1012.980
936.426;  144.555;   -9.860;  872.800
936.983;  145.840;   -9.710;  889.020
937.540;  144.822;  -13.990;  838.280
938.097;  142.880;  -14.040;  940.120
938.654;  144.094;  -10.310;  898.860
939.211;  146.777;  -10.560;  952.480
939.768;  149.246;  -13.900;  915.420
940.324;  152.253;  -14.760;  904.200
940.881;  153.857;  -10.370;  878.500
941.438;  154.313;   -8.260; 1021.200
941.995;  150.054;  -12.540;  992.560
942.551;  147.831;  -14.670;  875.620
943.108;  148.045;  -10.450;  937.920
943.664;  151.297;  -10.750;  869.340
944.221;  154.479;  -11.550; 1088.140
944.777;  151.808;  -14.770;  869.680
945.334;  152.673;  -12.820;  884.840
945.890;  154.134;  -10.130;  946.480
946.446;  154.305;  -13.470;  947.020
947.003;  155.927;  -12.120;  964.940
947.559;  158.909;   -9.980; 1063.040
948.115;  158.311;   -9.080; 1026.540
948.671;  156.166;  -10.830;  967.300
949.227;  154.274;  -12.440;  859.560
949.783;  150.828;  -12.910;  858.900
950.339;  152.884;  -10.270;  991.000
950.895;  153.413;  -13.630; 1023.840
951.451;  152.500;  -15.100;  925.280
952.007;  152.565;  -11.330;  998.540
952.563;  153.420;  -10.580;  937.780
953.118;  152.123;  -13.440;  904.940
953.674;  151.848;  -12.710;  935.780
954.230;  151.216;  -10.350;  949.640
954.785;  148.289;   -9.190;  936.640
955.341;  146.261;  -11.200;  998.160
955.897;  144.148;  -16.560;  834.660
956.452;  146.491;  -12.570;  953.840
957.008;  145.618;   -7.970; 1083.640
957.563;  143.157;  -11.940; 1009.540
958.118;  137.708;  -13.450;  877.700
958.674;  138.160;  -12.030;  946.780
959.229;  139.563;   -9.410; 1013.980
959.784;  137.100;  -12.000;  832.400
960.339;  137.067;  -14.780; 1001.280
960.894;  132.680;   -9.860;  963.760
961.449;  129.330;   -9.970;  859.960
962.004;  128.862;  -10.900; 1212.840
962.559;  123.725;  -13.150;  860.140
963.114;  121.602;  -13.740;  742.480
963.669;  121.565;   -9.820;  915.500
964.224;  119.854;  -13.890;  874.340
964.779;  119.054;  -12.600;  828.420
965.334;  119.578;  -10.950; 1017.860
965.888;  119.076;  -11.170;  875.360
966.443;  122.371;  -12.540;  972.380
966.998;  120.385;  -15.780;  819.460
967.552;  120.366;   -9.760;  908.380
968.107;  116.451;   -9.060;  868.300
968.661;  117.407;  -11.950;  922.440
969.216;  118.554;  -12.800;  856.280
969.770;  118.246;  -11.210;  917.200
970.324;  117.368;  -11.610;  923.140
970.879;  114.265;  -11.370;  947.180
971.433;  110.815;  -12.540;  952.720
971.987;  106.315;  -11.320;  895.340
972.541;  102.948;  -10.720;  917.100
973.095;  103.112;   -9.680; 1009.460
973.649;  101.235;  -11.440;  809.480
974.203;  100.580;  -11.210;  829.040
974.757;  100.300;  -10.240;  855.220
975.311;  101.007;  -13.720;  872.600
975.865;   98.708;  -13.770;  881.820
976.419;   97.916;  -11.690;  857.400
976.973;   97.857;   -9.510;  849.620
977.526;  100.294;  -12.620;  949.920
978.080;   99.041;  -12.010;  796.780
978.634;   99.650;  -10.170;  921.320
979.187;   97.146;   -9.020;  905.400
979.741;   94.651;   -9.820; 1018.380
980.294;   90.057;  -14.870;  789.160
980.848;   88.303;  -12.380;  717.220
981.401;   90.517;  -10.350;  816.540
981.955;   92.046;  -13.720;  844.300
982.508;   91.230;  -11.490;  746.340
983.061;   91.498;  -10.000;  915.260
983.615;   87.324;  -11.480;  798.800
984.168;   84.802;  -13.220;  770.080
984.721;   84.044;  -13.960;  880.760
985.274;   83.140;  -10.870;  867.500
985.827;   82.297;   -9.790;  834.220
986.380;   80.161;  -13.120;  721.340
986.933;   79.289;  -12.450;  864.800
987.486;   77.785;  -10.210;  861.920
988.039;   76.195;   -8.430;  863.100
988.591;   73.915;  -10.520;  893.260
989.144;   72.095;  -14.860;  737.260
989.697;   71.319;  -13.080;  758.740
990.250;   71.894;  -10.150;  858.100
990.802;   71.570;  -13.430;  755.860
991.355;   72.091;  -12.750;  974.880
991.907;   69.661;  -12.040;  864.320
992.460;   67.232;  -11.330;  753.760
993.012;   66.344;  -13.610;  749.540
993.565;   65.141;  -13.460;  711.360
994.117;   66.534;   -9.360;  950.780
994.669;   63.440;  -11.300;  701.320
995.221;   61.702;  -13.540;  791.920
995.774;   59.673;  -13.430;  787.580
996.326;   57.985;  -12.520;  740.220
996.878;   57.721;  -10.950;  838.420
997.430;   55.773;  -14.300;  699.860
997.982;   55.326;  -13.760;  750.140
998.534;   55.534;  -11.530;  739.060
999.086;   53.530;  -10.310;  738.220
999.638;   51.797;  -12.530;  661.380
1000.190;   51.515;  -11.840;  699.320
1000.741;   50.891;  -10.260;  742.700
1001.293;   51.883;   -8.860;  686.020
1001.845;   49.627;  -13.700;  676.640
1002.396;   49.754;  -12.100;  743.400
1002.948;   49.406;  -12.760;  737.400
1003.500;   47.917;  -10.380;  723.780
1004.051;   47.422;  -11.900;  907.580
1004.603;   45.799;  -12.250;  791.820
1005.154;   42.404;  -13.210;  608.980
1005.705;   42.207;  -10.950;  723.960
1006.257;   42.267;  -13.880;  707.220
1006.808;   40.233;  -12.840;  685.460
1007.359;   40.152;  -10.570;  763.240
1007.910;   38.864;   -9.620;  646.640
1008.461;   39.066;  -13.630;  732.940
1009.013;   38.254;  -17.200;  588.340
1009.564;   39.317;  -10.200;  793.520
1010.115;   37.224;  -12.570;  597.040
1010.665;   36.390;  -15.150;  602.160
1011.216;   37.126;  -14.480;  667.920
1011.767;   35.988;  -11.340;  697.920
1012.318;   36.660;   -9.780;  736.980
1012.869;   35.798;  -12.380;  679.000
1013.419;   35.039;  -15.560;  603.120
1013.970;   35.623;  -11.010;  666.640
1014.521;   34.194;  -11.610;  620.620
1015.071;   34.254;  -13.450;  670.380
1015.622;   34.445;  -13.870;  635.460
1016.172;   33.339;  -11.610;  596.820
1016.723;   34.096;  -12.120;  614.380
1017.273;   32.560;  -13.620;  604.160
1017.823;   33.172;  -14.140;  650.340
1018.374;   33.251;  -12.800;  611.760
1018.924;   32.504;  -12.340;  716.880
1019.474;   32.970;  -11.410;  718.880
1020.024;   31.434;  -14.770;  657.580
1020.574;   32.716;   -9.780;  726.160
1021.124;   32.623;   -8.560;  673.580
1021.674;   30.884;  -15.190;  559.120
1022.224;   32.133;  -13.530;  708.940
1022.774;   31.197;  -13.280;  668.820
1023.324;   31.792;  -10.690;  753.520
1023.874;   33.427;  -10.240;  875.760
1024.423;   30.703;  -12.540;  613.700
1024.973;   29.743;  -10.010;  610.760
1025.523;   29.654;  -10.550;  620.960
1026.072;   29.140;  -13.560;  606.420
1026.622;   29.319;  -15.120;  675.740
1027.172;   29.788;  -11.260;  715.660
1027.721;   28.917;  -11.410;  601.220
1028.270;   29.398;  -13.530;  663.400
1028.820;   29.229;  -13.680;  638.080
1029.369;   28.962;  -13.520;  612.700
1029.918;   28.922;  -10.980;  649.840
1030.468;   28.012;  -13.530;  564.780
1031.017;   28.045;  -13.170;  634.800
1031.566;   27.063;  -12.200;  608.900
1032.115;   27.820;   -9.960;  694.500
1032.664;   26.697;  -13.210;  596.480
1033.213;   27.938;  -12.500;  735.420
1033.762;   27.071;  -11.910;  635.620
1034.311;   27.280;   -9.640;  677.220
1034.860;   26.985;  -13.310;  691.000
1035.408;   27.539;  -11.830;  722.720
1035.957;   27.033;  -12.000;  719.540
1036.506;   24.995;  -11.690;  530.800
1037.055;   27.298;  -10.990;  844.320
1037.603;   26.070;  -15.120;  664.000
1038.152;   23.574;  -12.450;  534.760
1038.700;   24.711;  -10.560;  585.740
1039.249;   25.293;  -11.080;  681.220
1039.797;   25.132;  -12.540;  633.360
1040.345;   25.112;  -11.920;  705.420
1040.894;   24.036;  -11.410;  625.300
1041.442;   23.950;  -14.320;  632.200
1041.990;   23.999;  -16.240;  559.160
1042.538;   23.340;  -11.680;  536.180
1043.087;   23.298;  -10.760;  570.860
1043.635;   24.030;  -11.850;  670.500
1044.183;   23.309;  -15.480;  586.400
1044.731;   22.537;  -11.770;  576.000
1045.279;   23.150;  -13.090;  674.920
1045.827;   24.902;  -12.440;  892.400
1046.374;   22.002;  -13.840;  515.420
1046.922;   21.332;  -13.220;  590.580
1047.470;   23.063;  -10.230;  691.300
1048.018;   22.558;  -14.590;  647.960
1048.565;   23.435;  -12.050;  708.600
1049.113;   21.768;  -11.650;  557.000
1049.660;   21.544;  -10.510;  629.660
1050.208;   22.096;  -13.310;  675.640
1050.755;   20.678;  -15.900;  606.580
1051.303;   21.986;  -11.430;  686.820
1051.850;   21.371;   -8.480;  635.120
1052.397;   19.560;  -15.010;  473.960
1052.945;   20.494;  -13.960;  617.760
1053.492;   21.877;  -13.150;  741.840
1054.039;   21.972;   -9.630;  720.180
1054.586;   20.287;  -13.680;  557.240
1055.133;   20.825;  -14.570;  693.140
1055.680;   21.186;  -13.820;  646.620
1056.227;   19.518;  -11.730;  542.780
1056.774;   20.944;  -12.480;  794.980
1057.321;   19.141;  -13.930;  523.260
1057.868;   19.852;  -11.690;  651.320
1058.415;   19.388;   -9.520;  651.980
1058.961;   19.725;  -13.160;  678.940
1059.508;   19.232;  -12.920;  643.820
1060.055;   19.621;  -11.920;  581.780
1060.601;   19.942;  -11.500;  624.300
1061.148;   18.632;  -14.330;  616.820
1061.694;   17.937;  -16.870;  592.580
1062.241;   18.272;  -10.330;  596.320
1062.787;   18.761;  -10.620;  663.140
1063.334;   19.853;  -10.110;  808.560
1063.880;   18.482;  -13.400;  668.360
1064.426;   17.997;  -10.680;  706.820
1064.972;   17.789;   -9.920;  601.340
1065.518;   16.183;  -10.980;  566.640
1066.065;   18.029;  -14.890;  624.460
1066.611;   16.844;  -12.870;  598.800
1067.157;   17.833;  -12.950;  641.860
1067.703;   17.577;  -13.540;  668.480
1068.249;   16.994;  -13.540;  605.220
1068.794;   17.104;  -12.600;  626.880
1069.340;   16.714;  -10.620;  578.960
1069.886;   16.953;  -12.830;  590.700
1070.432;   16.237;  -14.870;  541.720
1070.977;   15.411;  -11.980;  601.080
1071.523;   16.333;   -8.200;  573.060
1072.068;   15.848;  -12.330;  582.000
1072.614;   15.350;  -16.370;  527.760
1073.160;   16.711;  -11.100;  687.040
1073.705;   15.523;  -10.480;  572.520
1074.250;   15.417;  -14.520;  559.900
1074.796;   16.546;  -11.460;  655.160
1075.341;   16.489;  -11.950;  664.100
1075.886;   15.165;  -11.460;  594.240
1076.431;   15.291;  -13.770;  649.880
1076.976;   14.501;  -12.680;  639.220
1077.521;   14.582;  -13.170;  583.080
1078.067;   14.365;  -10.860;  579.400
1078.612;   14.216;  -13.920;  661.620
1079.156;   14.349;  -13.880;  601.540
1079.701;   14.919;  -13.120;  693.260
1080.246;   15.613;   -9.940;  696.300
1080.791;   14.670;  -14.740;  625.020
1081.336;   14.484;  -13.750;  659.320
1081.880;   14.640;  -13.400;  649.680
1082.425;   13.246;  -12.220;  573.480
1082.970;   14.662;  -11.610;  717.040
1083.514;   13.441;  -13.580;  597.000
1084.059;   12.876;  -12.810;  586.720
1084.603;   12.772;  -12.320;  565.840
1085.147;   12.559;  -13.190;  645.220
1085.692;   14.392;  -12.480;  716.800
1086.236;   12.100;  -13.020;  503.140
1086.780;   14.098;   -9.190;  751.440
1087.325;   13.167;  -12.480;  654.620
1087.869;   12.671;  -12.450;  610.700
1088.413;   13.452;  -12.240;  705.040
1088.957;   10.999;   -9.020;  543.400
1089.501;   13.154;  -10.320;  766.640
1090.045;   13.147;  -12.720;  726.480
1090.589;   11.490;  -13.690;  569.920
1091.133;   12.232;  -10.020;  673.340
1091.676;   11.651;  -12.330;  591.940
1092.220;   12.010;  -14.970;  600.920
1092.764;   12.582;  -12.430;  706.960
1093.307;   11.918;   -9.800;  673.780
1093.851;   10.664;  -14.970;  556.540
1094.395;   11.871;  -15.310;  683.140
1094.938;   10.725;  -10.370;  632.520
1095.482;   10.488;  -11.050;  559.800
1096.025;   12.079;  -11.840;  710.880
1096.568;   12.263;  -12.840;  779.280
1097.112;    9.309;  -14.700;  508.180
1097.655;   11.317;   -8.720;  603.000
1098.198;    9.975;  -13.610;  600.180
1098.741;    9.928;  -13.350;  612.860
1099.285;   10.462;  -11.230;  657.300
1099.828;    8.182;  -11.840;  439.400
1100.371;   10.111;  -10.840;  608.160
1100.914;   10.285;  -14.190;  682.660
1101.457;   10.574;  -11.240;  679.900
1101.999;    8.992;  -11.270;  584.680
1102.542;    9.970;  -11.480;  641.440
1103.085;    9.425;  -11.750;  658.500
1103.628;    9.975;  -11.400;  762.060
1104.170;    9.227;  -10.490;  588.280
1104.713;    9.415;  -10.600;  646.700
1105.256;    8.808;  -14.360;  557.440
1105.798;    7.831;  -13.210;  499.980
1106.341;    9.834;  -10.270;  728.900
1106.883;    8.106;  -12.200;  521.340
1107.425;    8.655;  -13.110;  668.180
1107.968;    7.905;  -12.840;  612.380
1108.510;    9.525;   -6.480;  684.960
1109.052;    6.820;  -13.940;  612.620
1109.594;    7.755;  -13.690;  554.440
1110.136;    8.265;  -11.880;  643.220
1110.679;    7.506;   -9.500;  633.080
1111.221;    8.698;  -14.160;  604.460
1111.763;    7.822;  -13.980;  559.220
1112.304;    7.072;  -13.880;  547.140
1112.846;    7.462;  -12.210;  666.240
1113.388;    9.593;  -11.390;  942.180
1113.930;    8.058;  -14.540;  694.200
1114.472;    7.046;  -12.640;  606.540
1115.013;    6.086;  -11.620;  551.280
1115.555;    6.558;  -13.640;  587.100
1116.097;    5.984;  -15.380;  579.480
1116.638;    6.789;  -12.640;  684.600
1117.180;    7.238;   -9.850;  667.740
1117.721;    6.345;  -13.690;  568.580
1118.262;    7.056;  -12.680;  677.960
1118.804;    7.103;  -12.530;  637.340
1119.345;    6.093;  -11.690;  578.400
1119.886;    6.920;  -13.380;  704.040
1120.427;    5.924;  -14.070;  589.020
1120.969;    5.172;  -13.500;  597.920
1121.510;    5.221;  -11.480;  563.060
1122.051;    5.879;  -12.830;  723.580
1122.592;    5.827;  -14.290;  655.420
1123.133;    4.286;  -12.400;  547.940
1123.673;    6.350;  -10.130;  706.480
1124.214;    4.995;  -12.930;  612.460
1124.755;    6.183;  -14.380;  639.460
1125.296;    5.706;  -14.000;  627.320
1125.836;    5.685;  -10.070;  691.500
1126.377;    4.757;  -12.640;  599.660
1126.918;    5.994;  -12.960;  614.980
1127.458;    4.477;  -13.350;  622.220
1127.999;    5.611;  -10.750;  656.980
1128.539;    5.728;  -12.350;  694.240
1129.079;    4.315;  -14.860;  632.720
1129.620;    4.302;  -13.840;  558.100
1130.160;    3.352;  -12.330;  539.480
1130.700;    4.672;  -14.530;  640.840
1131.240;    5.445;  -12.530;  643.700
1131.781;    4.009;  -14.450;  619.680
1132.321;    4.554;   -9.790;  599.120
1132.861;    3.150;  -14.860;  564.200
1133.401;    3.278;  -14.290;  593.940
1133.941;    3.604;  -11.750;  626.280
1134.481;    3.624;   -9.920;  597.580
1135.020;    2.934;  -12.290;  609.160
1135.560;    3.680;  -11.650;  674.940
1136.100;    3.137;  -16.270;  501.160
1136.640;    2.870;  -10.890;  510.480
1137.179;    3.139;  -14.180;  537.960
1137.719;    3.281;  -16.250;  605.400
1138.258;    2.953;  -14.230;  587.360
1138.798;    3.741;   -9.090;  663.780
1139.337;    1.349;  -15.130;  482.840
1139.877;    3.339;  -13.680;  642.360
1140.416;    4.229;  -11.320;  878.060
1140.955;    1.683;  -10.860;  535.380
1141.494;    2.710;  -12.920;  669.280
1142.034;    2.931;  -13.930;  583.520
1142.573;    3.834;  -11.440;  646.280
1143.112;    2.502;  -12.000;  553.480
1143.651;    2.596;  -13.670;  536.480
1144.190;    3.353;  -12.730;  691.640
1144.729;    1.968;  -14.560;  607.420
1145.267;    2.240;  -11.830;  584.900
1145.806;    3.241;  -12.230;  637.040
1146.345;    2.027;  -14.130;  635.020
1146.884;    2.253;  -11.590;  622.500
1147.422;    0.671;  -12.550;  533.060
1147.961;    2.532;  -11.180;  708.460
1148.500;    2.289;  -11.510;  669.720
1149.038;    2.524;  -11.640;  632.500
1149.577;    2.089;  -10.130;  698.640
1150.115;   -0.350;  -13.970;  452.280
1150.653;    1.373;  -14.520;  607.340
1151.192;    1.125;  -12.810;  552.920
1151.730;    1.701;   -9.100;  652.560
1152.268;    0.155;  -12.220;  589.520
1152.806;    0.921;  -14.140;  571.180
1153.344;   -0.634;  -12.350;  577.640
1153.882;    0.747;   -8.980;  600.060
1154.421;   -0.584;  -15.190;  470.620
1154.958;   -0.007;  -15.210;  595.240
1155.496;    1.554;  -12.850;  645.280
1156.034;    0.208;   -9.940;  721.880
1156.572;    1.551;  -13.570;  667.060
1157.110;   -0.079;  -14.590;  473.940
1157.647;    1.095;  -13.030;  676.960
1158.185;   -0.076;  -12.140;  564.320
1158.723;   -1.162;  -14.390;  509.200
1159.260;    0.321;  -14.090;  701.700
1159.798;    0.514;  -11.920;  658.160
1160.335;    0.813;  -11.110;  631.820

