
Integration time [ms]:   3.276
Averaging Nr. [scans]: 1000
Smoothing Nr. [pixels]: 0
Data measured with spectrometer [name]: 7414430SP
Wave   ;Sample   ;Dark     ;Reference
[nm]   ;[counts] ;[counts] ;[counts] 

288.544;  150.060;    7.793;  793.890
289.143;  152.952;    7.462;  681.602
289.742;  153.718;    8.602;  828.814
290.341;  139.730;    1.321;  789.841
290.940;  128.457;   -0.709;  730.702
291.538;  129.105;    0.881;  881.108
292.137;  129.998;    0.122;  792.581
292.736;  134.602;   -1.929;  975.101
293.335;  129.756;   -8.229;  735.086
293.934;  129.486;   -5.279;  781.677
294.532;  129.561;   -1.369; 1031.958
295.131;  114.946;   -7.641;  834.394
295.730;  116.165;   -8.420;  809.588
296.328;  114.265;   -5.611;  783.442
296.927;  115.102;   -5.781;  779.652
297.525;  116.163;   -6.361;  781.236
298.124;  105.456;  -11.382;  654.009
298.722;  109.968;   -7.641;  761.933
299.321;  107.565;   -6.811;  708.597
299.919;  105.986;   -6.991;  751.918
300.518;  102.267;  -10.362;  689.338
301.116;  104.793;   -9.581;  691.381
301.715;  104.318;   -4.891;  730.222
302.313;  103.330;   -8.801;  704.943
302.911;   99.207;   -8.522;  733.830
303.509;  103.626;   -6.171;  925.627
304.108;  102.113;   -7.311;  760.383
304.706;  102.161;   -8.321;  801.664
305.304;   95.159;  -10.222;  796.707
305.902;  100.560;   -6.021;  784.484
306.500;   97.020;   -4.971;  728.200
307.098;   95.184;   -7.061;  746.560
307.696;   92.807;   -8.801;  780.432
308.294;   92.738;   -6.411;  731.359
308.892;   96.245;   -2.901;  759.769
309.490;   93.031;   -5.041;  712.161
310.088;   89.557;   -5.002;  788.444
310.686;   93.915;   -2.041;  821.749
311.284;   90.507;   -2.351;  766.040
311.882;   88.256;   -4.422;  731.225
312.480;   84.699;   -4.192;  697.167
313.078;   85.933;   -1.172;  808.331
313.675;   87.605;   -2.601;  691.600
314.273;   82.979;   -1.312;  797.837
314.871;   81.470;   -3.942;  589.829
315.468;   79.444;   -2.802;  652.090
316.066;   82.332;   -0.701;  694.427
316.664;   75.639;   -4.362;  656.351
317.261;   78.729;   -2.872;  910.128
317.859;   73.785;   -2.022;  768.735
318.456;   75.319;   -0.531;  830.096
319.054;   71.590;   -3.912;  787.828
319.651;   70.283;   -4.752;  759.928
320.249;   68.563;   -2.602;  810.188
320.846;   66.230;   -0.821;  714.286
321.443;   63.830;   -4.642;  832.135
322.041;   61.012;   -5.002;  812.315
322.638;   58.438;   -3.982;  701.456
323.235;   60.026;   -3.411;  665.683
323.833;   57.575;   -7.361;  740.354
324.430;   52.529;   -8.611;  615.900
325.027;   53.556;   -4.061;  876.855
325.624;   53.772;   -4.031;  644.532
326.221;   51.358;   -7.481;  689.717
326.818;   49.639;   -5.281;  818.332
327.415;   53.197;   -7.460;  748.828
328.012;   52.653;   -5.510;  690.585
328.609;   52.091;   -7.880;  731.389
329.206;   49.246;   -8.331;  778.621
329.803;   49.914;   -5.121;  737.841
330.400;   52.838;   -4.510;  704.260
330.997;   53.569;   -6.441;  817.147
331.594;   52.343;   -8.831;  788.185
332.191;   57.315;   -7.621;  728.722
332.787;   60.218;   -4.591;  844.463
333.384;   59.819;   -7.412;  763.093
333.981;   57.166;   -8.293;  815.687
334.578;   60.141;   -7.052;  708.378
335.174;   63.716;   -3.102;  731.469
335.771;   62.879;   -5.943;  836.456
336.367;   58.973;   -7.393;  710.631
336.964;   62.834;   -4.063;  793.266
337.561;   61.311;   -3.813;  731.112
338.157;   57.958;   -4.654;  911.916
338.754;   55.376;   -7.934;  796.589
339.350;   51.919;   -4.414;  722.493
339.946;   54.481;   -4.664;  773.135
340.543;   47.596;   -6.375;  846.136
341.139;   41.025;   -9.815;  720.836
341.735;   39.323;   -4.526;  772.593
342.332;   38.357;   -4.895;  691.472
342.928;   39.038;   -4.295;  795.394
343.524;   31.473;   -5.476;  761.684
344.120;   28.924;   -5.856;  738.562
344.716;   32.954;   -2.155;  723.717
345.313;   30.339;   -6.275;  795.342
345.909;   24.636;   -8.815;  627.336
346.505;   26.334;   -5.305;  740.247
347.101;   27.274;   -2.674;  827.864
347.697;   27.426;   -4.344;  785.398
348.293;   21.311;   -9.975;  627.244
348.889;   22.401;   -5.774;  745.914
349.485;   22.742;   -5.004;  688.205
350.081;   23.462;   -4.704;  772.592
350.676;   17.506;   -6.635;  691.606
351.272;   22.044;   -4.504;  809.530
351.868;   21.421;   -3.914;  780.497
352.464;   18.886;   -9.044;  723.932
353.059;   15.604;   -8.314;  646.017
353.655;   17.459;   -7.024;  777.063
354.251;   20.037;   -5.343;  759.845
354.846;   14.547;   -8.604;  740.646
355.442;   12.394;   -6.945;  753.071
356.038;   13.716;   -7.564;  751.708
356.633;   14.221;   -5.814;  728.594
357.229;   11.879;   -7.364;  724.757
357.824;   10.375;   -8.024;  703.600
358.420;    8.942;   -9.384;  679.726
359.015;   10.036;   -5.104;  695.357
359.610;   11.084;   -6.854;  763.920
360.206;    4.740;  -10.185;  603.240
360.801;    7.387;   -7.054;  646.503
361.396;   10.057;   -5.034;  725.975
361.992;    5.268;   -8.284;  668.220
362.587;    2.270;   -8.625;  670.160
363.182;    4.699;   -7.674;  689.631
363.777;    5.163;   -5.164;  738.242
364.372;    5.628;   -8.604;  737.314
364.967;    0.907;   -9.055;  680.744
365.563;    5.464;   -6.114;  815.567
366.158;    3.072;   -5.814;  685.161
366.753;    3.858;   -7.854;  649.263
367.348;    1.738;   -7.804;  746.056
367.942;    1.654;   -7.954;  697.298
368.537;    0.858;   -4.984;  754.245
369.132;    0.960;   -8.564;  703.428
369.727;   -3.558;   -8.855;  638.079
370.322;   -2.057;   -6.245;  580.186
370.917;   -2.788;   -6.425;  710.646
371.511;    0.624;   -6.294;  861.834
372.106;   -3.173;   -7.685;  776.964
372.701;   -6.539;   -7.335;  585.988
373.296;   -0.114;   -4.564;  863.135
373.890;   -4.968;  -10.235;  647.840
374.485;   -7.269;   -7.885;  691.199
375.079;   -3.481;   -7.324;  738.685
375.674;   -1.908;   -3.494;  812.970
376.268;   -6.802;   -8.525;  691.759
376.863;  -12.163;  -10.086;  580.327
377.457;   -6.516;   -7.025;  662.490
378.052;   -7.704;   -3.585;  764.884
378.646;   -8.625;   -7.595;  741.167
379.240;   -9.258;   -8.335;  721.176
379.835;   -8.256;   -5.785;  636.978
380.429;  -10.595;   -4.335;  562.557
381.023;   -9.454;   -6.805;  779.205
381.617;  -12.247;   -9.195;  680.106
382.212;   -9.356;   -6.905;  685.303
382.806;   -8.314;   -3.745;  760.690
383.400;  -12.203;   -7.745;  672.281
383.994;  -13.351;   -9.765;  664.870
384.588;  -10.175;   -6.564;  697.701
385.182;   -8.264;   -5.344;  726.624
385.776;   -9.125;   -8.514;  706.875
386.370;  -13.319;   -9.555;  681.968
386.964;  -11.714;   -8.715;  684.155
387.558;  -10.401;   -6.174;  598.360
388.152;  -13.140;   -8.725;  681.959
388.745;  -12.308;   -7.965;  814.707
389.339;  -10.418;   -5.924;  747.642
389.933;   -9.072;   -5.524;  695.370
390.527;  -10.093;   -7.114;  859.029
391.120;  -15.884;  -10.725;  595.318
391.714;  -14.340;   -8.035;  711.633
392.308;   -9.961;   -3.574;  780.253
392.901;  -14.385;   -7.245;  642.460
393.495;  -15.871;   -9.285;  595.414
394.089;  -13.920;   -5.895;  760.452
394.682;  -14.510;   -4.295;  697.188
395.275;  -14.987;   -9.875;  719.927
395.869;  -16.270;   -8.485;  667.314
396.462;  -14.983;   -7.455;  616.609
397.056;  -11.052;   -5.424;  776.621
397.649;  -15.284;   -6.605;  731.575
398.242;  -13.296;   -8.224;  712.645
398.836;  -12.475;   -7.474;  766.408
399.429;  -13.121;   -7.094;  631.041
400.022;  -16.228;   -9.475;  665.902
400.615;  -14.550;   -7.145;  805.609
401.208;  -12.702;   -7.174;  691.451
401.802;  -14.644;   -5.515;  699.329
402.395;  -15.044;   -9.875;  683.502
402.988;  -17.178;   -8.845;  696.627
403.581;  -13.485;   -8.874;  646.878
404.174;  -11.239;   -5.324;  686.568
404.767;  -13.940;   -9.575;  638.583
405.360;  -16.712;  -10.965;  621.445
405.953;  -11.640;   -8.764;  759.034
406.545;  -11.049;   -7.514;  725.342
407.138;  -14.560;  -10.025;  618.350
407.731;  -13.901;  -10.034;  613.303
408.324;  -10.045;   -9.374;  660.554
408.917;  -11.464;   -6.534;  681.864
409.509;  -12.486;   -8.004;  740.396
410.102;  -14.876;   -9.875;  643.948
410.695;   -8.490;   -8.604;  665.758
411.287;   -9.697;   -6.794;  599.821
411.880;  -10.508;   -9.334;  585.421
412.472;  -13.809;  -10.254;  613.092
413.065;  -10.900;   -6.714;  629.408
413.657;   -8.356;   -7.234;  576.678
414.250;   -8.535;  -10.544;  646.681
414.842;  -11.465;   -9.744;  676.353
415.434;   -9.245;   -6.994;  570.463
416.027;   -4.105;   -5.893;  652.196
416.619;   -6.178;   -7.264;  713.400
417.211;   -5.750;  -10.374;  599.352
417.804;   -3.841;   -7.993;  628.499
418.396;   -7.067;   -7.234;  607.643
418.988;   -4.578;   -9.443;  659.238
419.580;   -7.969;  -10.724;  568.276
420.172;   -6.061;  -10.323;  536.196
420.764;   -2.230;   -8.793;  672.482
421.356;   -2.306;  -11.143;  636.898
421.948;   -4.186;   -8.293;  677.661
422.540;    0.632;   -7.893;  680.027
423.132;   -0.426;   -7.082;  600.641
423.724;   -2.841;   -8.653;  561.267
424.316;   -1.238;  -10.213;  621.345
424.908;    1.658;   -9.762;  591.517
425.500;    2.695;   -5.572;  647.978
426.092;    4.434;   -8.422;  648.268
426.683;    2.358;   -9.283;  684.836
427.275;    5.210;   -7.852;  641.471
427.867;    7.253;   -5.272;  668.948
428.458;    7.823;   -7.682;  732.344
429.050;    5.428;  -10.612;  680.749
429.642;    8.008;   -9.882;  743.124
430.233;    8.680;   -6.962;  569.356
430.825;   10.080;   -6.842;  724.809
431.416;    6.926;   -9.672;  698.241
432.008;   10.708;   -6.552;  651.723
432.599;   11.555;   -6.891;  656.073
433.190;    8.572;  -10.912;  637.670
433.782;    7.834;  -11.172;  590.395
434.373;   14.729;   -6.061;  884.765
434.964;   13.673;   -8.251;  602.920
435.556;   12.433;   -9.722;  634.537
436.147;   14.429;   -9.082;  758.490
436.738;   14.707;   -8.041;  701.099
437.329;   20.030;   -7.341;  721.723
437.920;   12.522;   -8.162;  666.688
438.511;   12.827;  -11.802;  564.526
439.103;   18.722;  -10.191;  623.998
439.694;   20.522;   -7.601;  681.583
440.285;   21.741;   -8.541;  764.432
440.876;   19.930;   -9.751;  845.738
441.466;   18.917;   -9.401;  575.162
442.057;   24.417;   -7.760;  665.814
442.648;   23.638;   -9.971;  746.255
443.239;   20.833;  -11.001;  620.477
443.830;   25.632;   -7.990;  704.958
444.421;   28.235;   -7.910;  655.474
445.011;   24.971;   -8.131;  693.619
445.602;   24.516;   -7.111;  743.126
446.193;   26.204;  -10.920;  488.117
446.783;   30.419;   -6.500;  640.397
447.374;   26.246;   -8.671;  692.759
447.964;   26.435;  -10.781;  713.770
448.555;   34.390;   -9.650;  822.742
449.145;   31.589;   -8.660;  662.853
449.736;   32.802;   -8.990;  803.179
450.326;   32.778;   -9.500;  713.626
450.917;   36.725;   -8.680;  675.324
451.507;   36.703;   -7.520;  600.661
452.097;   36.803;   -8.590;  746.267
452.688;   37.915;  -11.340;  742.160
453.278;   37.591;  -10.100;  566.840
453.868;   42.003;   -6.019;  793.550
454.458;   40.391;   -9.440;  651.141
455.048;   39.989;  -10.560;  711.783
455.639;   41.644;  -11.799;  567.096
456.229;   45.368;   -6.899;  710.694
456.819;   47.697;   -7.389;  751.158
457.409;   47.475;  -11.119;  773.993
457.999;   49.719;   -9.289;  737.505
458.589;   50.554;   -6.139;  686.606
459.179;   50.464;   -8.729;  717.658
459.769;   48.206;   -9.789;  627.099
460.358;   52.558;  -10.259;  797.262
460.948;   53.181;   -7.299;  689.503
461.538;   54.695;  -10.289;  660.677
462.128;   52.154;  -11.269;  664.934
462.717;   58.711;   -9.368;  710.326
463.307;   62.431;   -7.908;  705.846
463.897;   58.025;   -9.599;  656.942
464.486;   56.867;   -9.769;  837.128
465.076;   61.073;   -8.048;  733.776
465.666;   65.926;   -9.358;  652.900
466.255;   62.756;   -7.919;  785.651
466.845;   62.851;  -11.689;  666.749
467.434;   65.099;   -7.818;  725.873
468.023;   66.216;   -7.678;  658.357
468.613;   64.758;  -10.939;  713.946
469.202;   67.976;  -10.118;  646.507
469.791;   71.084;   -9.108;  737.811
470.381;   74.149;   -6.058;  742.813
470.970;   74.040;  -10.428;  711.099
471.559;   73.533;  -10.268;  733.291
472.148;   75.640;   -8.448;  675.737
472.738;   79.318;   -6.917;  765.466
473.327;   78.940;  -11.978;  637.529
473.916;   77.365;  -11.888;  737.446
474.505;   82.381;   -9.437;  751.703
475.094;   86.031;   -6.747;  806.570
475.683;   84.787;   -9.367;  797.699
476.272;   85.396;  -12.637;  730.632
476.861;   88.005;  -10.027;  706.754
477.449;   94.687;   -8.716;  728.487
478.038;   89.751;   -9.577;  692.513
478.627;   90.632;   -9.718;  714.852
479.216;   96.285;   -8.947;  769.441
479.805;   99.904;   -6.256;  783.375
480.393;  100.239;   -7.937; 1008.945
480.982;   99.146;   -7.717;  874.501
481.571;  104.778;   -9.266;  858.333
482.159;  105.832;   -7.636;  705.386
482.748;  105.839;   -9.667;  821.385
483.336;  110.558;  -10.376;  858.209
483.925;  110.922;   -7.147;  774.373
484.513;  117.211;   -7.996;  758.962
485.102;  114.484;  -10.027;  810.965
485.690;  122.512;  -10.446; 1011.050
486.278;  124.893;   -8.446;  979.329
486.867;  125.343;   -6.356;  809.662
487.455;  127.592;   -9.136;  898.229
488.043;  129.336;  -10.646;  748.361
488.631;  136.810;   -7.456; 1005.079
489.220;  140.992;   -6.636;  908.626
489.808;  141.739;  -11.036;  741.415
490.396;  150.145;  -10.246;  914.645
490.984;  155.459;   -8.556;  830.161
491.572;  165.158;   -5.886;  940.315
492.160;  172.203;   -9.486;  919.081
492.748;  183.949;  -10.976;  884.341
493.336;  207.236;   -8.776; 1019.693
493.924;  234.949;   -5.465;  958.077
494.512;  263.135;   -9.986; 1066.638
495.100;  300.956;  -10.636; 1103.280
495.687;  355.214;  -10.885; 1206.373
496.275;  421.144;   -8.126; 1150.796
496.863;  493.634;  -10.586; 1281.171
497.451;  596.791;  -11.926; 1386.805
498.038;  726.258;  -10.885; 1556.729
498.626;  839.733;   -6.315; 1741.407
499.214; 1001.423;   -7.326; 2016.609
499.801; 1194.373;  -11.906; 2220.633
500.389; 1453.927;  -10.466; 2312.494
500.976; 1759.031;   -5.236; 2744.849
501.564; 2211.705;   -8.936; 3148.565
502.151; 2581.661;  -13.176; 3515.999
502.738; 3023.471;  -10.646; 3971.274
503.326; 3439.810;   -9.525; 4403.796
503.913; 3849.258;  -10.856; 5161.749
504.500; 4228.534;  -11.586; 5986.420
505.088; 4683.900;  -10.336; 6381.201
505.675; 5216.322;   -6.355; 6925.547
506.262; 5936.318;   -9.046; 7619.060
506.849; 6658.321;  -10.416; 8733.969
507.436; 7129.136;  -10.305; 9790.121
508.023; 7714.340;   -5.496; 9985.472
508.610; 8015.136;   -7.856;10434.618
509.197; 8672.731;  -10.097;11198.435
509.784;10012.989;  -10.886;12391.194
510.371;11117.949;   -9.315;13603.713
510.958;11869.343;   -9.936;14426.586
511.545;12632.618;   -9.326;15243.775
512.132;13388.282;  -10.075;15945.876
512.719;13812.764;   -7.796;16340.369
513.305;14749.344;  -10.606;18011.766
513.892;15484.729;  -11.486;19754.971
514.479;16862.982;   -9.126;20967.805
515.066;18517.525;   -6.026;22299.793
515.652;19931.404;   -8.466;22908.660
516.239;21012.848;  -10.886;23798.875
516.825;21784.945;  -11.496;25567.275
517.412;22630.164;   -5.796;28154.959
517.998;23294.141;  -10.506;28344.111
518.585;23550.582;  -10.076;27134.219
519.171;24109.734;   -8.315;27268.576
519.758;25440.146;   -8.596;28964.129
520.344;27387.934;   -8.466;30664.494
520.930;27422.316;  -11.006;32550.605
521.516;28216.467;  -10.495;35422.895
522.103;30254.484;   -5.526;38280.004
522.689;30610.082;   -8.746;37835.117
523.275;30419.160;  -11.376;37288.613
523.861;32183.051;  -11.156;37281.395
524.447;33708.605;   -8.135;37846.949
525.033;33531.875;   -7.896;38321.949
525.619;33541.406;  -12.476;38579.285
526.205;34923.934;   -9.516;40622.875
526.791;37313.309;   -6.926;42258.836
527.377;37610.230;   -8.346;42966.902
527.963;38929.191;   -8.717;42018.949
528.549;37688.891;  -11.016;42476.828
529.135;36251.281;   -8.536;41854.852
529.721;35283.660;   -9.666;41237.711
530.306;34365.996;  -10.066;41259.445
530.892;34064.840;  -11.356;41506.047
531.478;35607.758;   -6.596;43559.613
532.063;38542.719;   -8.836;47695.563
532.649;39568.434;  -10.047;50808.324
533.235;40110.344;   -9.746;51787.500
533.820;40090.977;   -6.566;52145.035
534.406;41565.055;  -10.817;51133.488
534.991;41455.316;   -9.416;49996.805
535.576;39913.285;   -9.036;48882.852
536.162;40593.445;   -6.156;46942.285
536.747;41333.000;  -11.607;45711.746
537.333;44131.051;  -11.787;48510.180
537.918;47494.160;  -12.437;50439.891
538.503;46840.609;   -7.196;50863.711
539.088;43212.828;  -10.556;50906.922
539.673;42528.805;   -8.767;52621.965
540.259;42854.188;  -10.026;52368.094
540.844;40839.273;   -7.416;50879.109
541.429;42308.418;   -9.467;52077.777
542.014;44800.223;   -9.527;52716.695
542.599;43944.824;   -9.946;52363.281
543.184;41691.230;   -7.927;53187.137
543.769;42959.359;   -9.297;54697.605
544.354;42683.902;  -10.127;53913.914
544.938;41578.199;   -9.267;49680.164
545.523;43601.813;   -6.506;47386.277
546.108;46647.574;   -9.787;49151.949
546.693;48399.676;  -11.587;51384.637
547.278;48106.484;  -10.986;51853.254
547.862;45655.863;   -8.206;51173.750
548.447;41403.348;  -10.067;51691.395
549.031;40693.945;   -9.637;52456.703
549.616;45383.992;   -9.926;52714.516
550.201;45126.012;   -6.347;52414.598
550.785;46229.879;   -7.917;52355.059
551.370;45240.695;  -10.867;54589.453
551.954;44346.063;   -9.047;58267.348
552.538;45265.043;   -7.827;59062.176
553.123;43768.707;  -10.287;58115.285
553.707;41285.758;  -12.178;56556.285
554.291;42817.008;   -8.717;56201.668
554.876;45698.340;   -7.457;55335.762
555.460;45739.402;  -10.387;54155.703
556.044;46422.789;   -9.618;53721.484
556.628;45386.461;  -11.567;53731.016
557.212;44623.172;   -8.097;54312.531
557.796;43039.594;  -11.077;53797.773
558.380;43180.730;  -11.108;56145.984
558.964;43718.363;   -9.057;57277.930
559.548;45256.102;   -6.977;56459.641
560.132;43498.313;  -11.457;54434.543
560.716;41558.477;  -11.378;54800.617
561.300;42338.137;   -9.577;57606.945
561.884;43734.016;   -7.127;58972.445
562.467;42084.762;   -7.118;57327.570
563.051;41624.234;  -13.358;54962.434
563.635;42934.328;  -10.178;52594.473
564.219;43016.828;   -7.837;50610.410
564.802;43869.563;  -11.398;49551.180
565.386;43701.379;  -12.788;48370.953
565.969;42904.777;   -9.077;48178.871
566.553;41673.805;   -6.207;49957.305
567.136;42577.695;   -8.568;50369.594
567.720;39496.129;  -11.868;49492.004
568.303;37412.152;   -8.268;50616.352
568.887;37278.117;   -8.698;50727.148
569.470;37620.461;   -6.808;51698.379
570.053;36403.094;  -13.188;52122.078
570.637;34868.207;  -12.037;52536.438
571.220;35050.910;   -8.577;51186.098
571.803;35890.391;   -8.498;51032.762
572.386;37507.926;  -10.498;49609.887
572.969;39781.020;   -9.388;48285.926
573.552;38360.148;   -8.338;47624.285
574.135;36812.250;   -8.518;45498.641
574.718;34598.828;  -13.628;41970.434
575.301;33683.684;  -10.893;41447.137
575.884;32768.535;   -8.158;40923.836
576.467;33483.480;  -10.328;45267.723
577.050;33929.480;  -13.058;48175.543
577.633;34374.043;   -9.458;47729.328
578.216;33934.762;   -8.928;47579.793
578.799;34140.582;   -9.358;47820.996
579.381;34093.852;  -11.388;48115.551
579.964;32468.096;  -11.718;47333.766
580.547;34288.051;   -8.588;46668.969
581.129;35416.543;   -8.859;44466.141
581.712;36318.113;  -10.729;44164.922
582.294;36844.160;  -11.118;46477.855
582.877;36490.645;   -5.218;48244.254
583.459;34456.887;   -8.679;47437.895
584.042;32562.357;  -10.709;46943.219
584.624;32606.695;  -11.669;46792.227
585.206;32262.514;   -8.218;46557.250
585.789;31994.297;  -10.569;45793.773
586.371;34665.488;  -11.859;43836.391
586.953;35428.895;  -10.719;42972.492
587.536;36298.344;   -7.198;42487.211
588.118;36429.516;   -8.720;42086.414
588.700;31853.832;  -10.439;43389.930
589.282;29440.225;   -9.198;43646.039
589.864;28269.266;   -9.199;43438.109
590.446;28656.020;  -11.319;43151.926
591.028;30784.723;  -11.159;42781.867
591.610;32386.213;  -11.779;42839.098
592.192;31028.002;   -7.668;42820.402
592.774;29906.289;  -11.949;40724.277
593.356;28704.061;  -12.129;39874.789
593.937;27540.973;  -10.669;39980.648
594.519;29569.496;   -6.509;42069.633
595.101;31728.773;  -10.849;42976.031
595.683;32045.373;  -11.679;44084.441
596.264;33086.930;   -9.049;43478.797
596.846;32829.898;   -8.849;43803.672
597.427;32809.000;   -9.570;42986.934
598.009;34388.219;  -12.620;42832.219
598.591;34859.430;  -10.039;42580.086
599.172;34275.098;  -10.369;43061.805
599.753;34469.363;   -9.140;41691.469
600.335;35936.941;  -11.430;40692.520
600.916;33896.168;   -9.939;39982.422
601.498;31182.914;   -8.479;40318.617
602.079;29739.498;  -10.920;40670.609
602.660;29381.543;  -11.480;41450.898
603.241;31133.859;  -11.699;41137.738
603.823;30057.344;   -9.579;38868.797
604.404;28844.797;  -10.620;38182.785
604.985;30528.686;  -10.450;38078.047
605.566;30829.879;   -9.129;38056.633
606.147;31130.012;   -7.510;37020.418
606.728;32625.813;  -10.660;37883.359
607.309;31152.971;  -11.740;38748.273
607.890;30690.219;   -9.759;38850.230
608.471;30179.088;   -8.250;37457.918
609.051;29410.131;   -9.240;36066.457
609.632;28308.898;  -12.120;35991.074
610.213;28900.432;   -9.110;37402.641
610.794;29766.270;   -8.030;38383.363
611.374;29409.721;   -8.110;40562.387
611.955;30077.662;  -13.560;38533.727
612.536;31441.693;  -11.400;36951.789
613.116;31072.967;   -8.070;37197.891
613.697;31540.742;  -10.830;38411.125
614.277;29821.436;  -11.641;38673.938
614.858;30509.480;  -13.310;37075.863
615.438;29689.139;   -7.460;35092.906
616.019;27355.576;   -7.601;33666.301
616.599;28046.070;  -12.020;34189.023
617.179;30081.102;  -11.780;36952.047
617.760;31193.754;   -8.570;39582.574
618.340;32133.953;  -11.471;38943.977
618.920;33315.621;  -11.170;37594.156
619.500;32911.973;  -11.071;37866.938
620.080;31636.693;   -7.750;37869.043
620.660;32574.064;  -12.711;36868.617
621.241;33925.262;  -10.211;36352.309
621.821;34478.172;  -10.961;35459.520
622.401;33673.301;   -7.720;35207.414
622.980;32992.395;   -8.981;35980.422
623.560;31501.934;   -9.331;37351.328
624.140;29964.441;   -9.850;34388.582
624.720;25056.201;   -7.451;32368.764
625.300;21742.000;   -9.070;32638.629
625.880;25087.846;  -12.601;34599.035
626.459;28897.334;  -11.751;36831.738
627.039;31890.154;   -9.281;38299.098
627.619;31842.799;   -8.801;38289.574
628.198;30505.791;  -12.071;37220.695
628.778;29668.576;   -9.461;37632.563
629.357;30133.150;   -8.491;38003.012
629.937;29914.107;   -9.721;38402.039
630.516;29487.707;   -9.951;37868.801
631.096;29525.936;  -11.731;35760.410
631.675;31460.434;   -8.572;35225.219
632.254;36434.250;  -11.282;35130.289
632.834;36031.156;  -13.322;35794.570
633.413;34360.883;  -10.301;35788.922
633.992;32043.697;   -8.582;34532.863
634.571;32719.670;   -8.352;33590.113
635.151;35809.684;  -11.912;34943.863
635.730;34183.934;  -10.511;35352.523
636.309;30399.895;   -7.731;35366.605
636.888;27755.107;   -9.952;36165.637
637.467;28211.488;  -11.672;37515.902
638.046;29789.279;   -8.901;39288.695
638.625;32871.078;   -7.912;38279.699
639.204;32731.813;  -10.022;37741.598
639.782;31235.131;  -12.252;38364.551
640.361;27803.688;  -10.041;36740.621
640.940;25020.586;  -11.161;34950.082
641.519;25836.525;   -9.701;34137.398
642.097;28490.510;  -11.271;35654.258
642.676;31197.061;   -8.651;35637.957
643.255;32282.160;   -8.711;36567.074
643.833;31644.092;   -9.581;37809.434
644.412;31391.789;  -13.711;37337.293
644.990;30135.262;  -11.811;37018.531
645.569;29706.012;   -9.411;36518.469
646.147;28995.123;  -10.291;36186.430
646.726;29321.855;  -12.401;36267.688
647.304;30782.137;  -10.411;36647.625
647.882;32295.133;   -9.651;39286.742
648.461;33787.523;   -9.631;39157.703
649.039;32302.482;  -11.881;35412.883
649.617;31550.277;   -9.661;34744.918
650.195;30968.807;   -9.301;35403.098
650.773;29705.088;  -10.511;35053.797
651.352;27044.760;  -11.521;33756.816
651.930;24620.354;  -12.211;31868.773
652.508;23450.244;   -9.171;33121.551
653.086;27386.039;   -9.371;33564.793
653.663;30395.479;  -13.161;34054.668
654.241;28975.852;  -13.031;35693.309
654.819;30504.439;   -9.371;36422.906
655.397;30653.518;  -10.511;38213.484
655.975;30001.287;  -10.371;39507.625
656.553;29946.850;  -10.051;39498.223
657.130;28452.430;  -10.061;40395.480
657.708;27297.871;   -9.561;39242.020
658.286;27270.805;  -11.511;38920.020
658.863;28816.646;  -10.261;40202.898
659.441;32019.598;   -7.531;39677.938
660.018;31796.740;   -9.501;40413.355
660.596;30576.346;  -13.301;39931.414
661.173;32293.074;  -11.211;39604.531
661.750;32197.646;   -9.951;39700.070
662.328;30538.246;   -9.390;39292.809
662.905;29815.178;  -11.330;38235.648
663.482;26253.873;   -9.050;36212.305
664.060;24489.129;   -8.240;35944.945
664.637;27221.514;  -10.050;35170.785
665.214;28917.086;  -11.760;34197.523
665.791;30770.959;  -10.530;34549.520
666.368;29840.164;   -9.690;35118.578
666.945;29990.512;   -9.320;36019.418
667.522;31544.076;  -11.860;36048.438
668.099;31222.445;  -10.770;36243.914
668.676;29923.539;   -6.260;35958.875
669.253;28735.441;   -7.000;37384.730
669.830;29377.510;  -10.190;36779.629
670.407;29180.430;   -9.550;35231.289
670.984;28681.000;   -9.260;35544.270
671.560;29325.195;   -9.280;35466.867
672.137;28897.482;  -11.810;34280.863
672.714;29645.447;  -11.490;34632.863
673.290;30373.180;   -7.740;35135.422
673.867;30580.865;  -10.660;36114.480
674.443;30735.193;  -12.230;36152.859
675.020;28921.289;  -10.450;35327.238
675.596;29616.668;   -9.260;35795.176
676.173;30040.160;  -10.780;35430.355
676.749;29887.461;  -13.690;33549.516
677.326;29913.600;  -11.980;32210.012
677.902;29932.205;   -8.630;32068.871
678.478;29302.166;  -10.730;32583.891
679.054;28469.389;  -10.520;32088.928
679.631;28712.205;  -11.920;30978.848
680.207;30270.287;   -7.490;33160.887
680.783;31892.480;   -9.860;35570.363
681.359;31072.379;  -13.380;36125.184
681.935;30561.467;  -12.480;35240.922
682.511;30089.371;   -7.900;34429.961
683.087;30248.520;   -7.710;34463.680
683.663;29636.564;  -11.480;34648.898
684.239;28462.490;  -14.090;34546.457
684.815;28120.139;   -7.560;35586.375
685.390;28341.520;   -9.910;35821.895
685.966;28808.188;  -11.159;35085.871
686.542;30912.980;  -11.169;34198.230
687.118;33281.234;   -5.959;32847.707
687.693;33919.715;  -10.329;32794.027
688.269;33544.488;  -12.059;33072.367
688.844;31735.791;  -10.909;33141.664
689.420;29675.734;   -8.019;33965.742
689.995;27674.744;   -8.399;34655.523
690.571;26249.197;  -10.949;33576.742
691.146;26517.098;   -9.619;32657.219
691.722;26158.563;   -8.999;32526.979
692.297;25552.213;  -11.589;33014.617
692.872;27119.387;  -11.739;34012.254
693.448;26962.586;  -11.059;34237.434
694.023;26167.746;  -10.139;34142.672
694.598;27959.418;   -9.029;34132.031
695.173;28494.162;  -13.319;34205.250
695.748;27666.664;  -10.169;32882.488
696.323;27979.324;   -8.339;32864.906
696.898;28233.131;   -8.169;33170.004
697.473;28234.795;  -12.309;32432.984
698.048;27737.248;  -10.989;31649.303
698.623;27342.979;   -9.329;30778.141
699.198;29006.377;   -9.849;31140.119
699.773;30280.650;  -12.329;31764.299
700.348;28632.561;  -10.389;31780.816
700.922;28691.217;   -9.269;32046.375
701.497;29836.643;   -9.329;32603.574
702.072;30284.641;  -10.789;34799.871
702.646;28817.789;  -10.839;35793.172
703.221;26333.832;   -9.099;35201.590
703.795;28340.404;  -10.939;34764.527
704.370;28961.918;  -12.859;34307.367
704.944;29386.248;  -11.559;33509.887
705.519;30060.574;   -7.939;31388.584
706.093;31329.793;  -10.499;31340.104
706.668;31992.461;  -11.289;32630.281
707.242;30777.055;  -11.509;32728.779
707.816;29116.748;   -9.639;32947.238
708.390;27664.094;  -11.429;33277.855
708.965;27945.295;  -11.869;33834.336
709.539;27524.119;  -11.689;33709.273
710.113;27908.475;  -10.478;33044.313
710.687;27771.402;  -10.228;31953.992
711.261;26423.404;  -13.698;30505.949
711.835;26200.404;  -13.378;30262.369
712.409;26681.207;   -9.698;31254.447
712.983;28675.611;  -11.898;32754.986
713.557;29802.480;  -15.138;34018.824
714.131;29498.695;  -14.098;34579.625
714.704;28496.012;   -9.958;33890.262
715.278;26228.773;  -10.028;33531.102
715.852;24966.471;  -11.148;33601.660
716.425;25628.213;   -9.068;33515.117
716.999;26524.000;  -10.038;33185.555
717.573;27505.025;   -9.798;33905.996
718.146;28542.377;  -12.378;35199.293
718.720;28805.338;  -11.918;35060.551
719.293;28301.613;   -8.088;34973.230
719.867;31211.334;  -10.888;36394.449
720.440;31307.453;  -11.938;36663.008
721.013;29755.621;  -12.818;35102.426
721.587;28038.414;  -10.298;33985.266
722.160;26788.615;  -10.048;33524.965
722.733;25739.803;  -12.108;32987.043
723.306;25865.527;  -10.818;33066.301
723.880;28387.273;   -8.908;33399.500
724.453;30976.895;   -9.878;33468.297
725.026;30266.924;  -11.188;33816.637
725.599;27172.381;  -11.678;32797.996
726.172;26921.852;   -9.618;33187.434
726.745;27799.070;   -8.258;35136.613
727.318;29045.820;  -12.978;35751.730
727.891;29955.371;  -12.148;35890.430
728.463;29854.430;   -8.968;34822.090
729.036;28715.443;  -10.188;32895.086
729.609;29178.857;  -11.788;31823.225
730.182;26247.117;  -11.788;31445.283
730.754;23770.439;  -10.268;32373.223
731.327;23863.459;   -9.998;33676.820
731.900;23957.713;  -12.228;33417.000
732.472;25050.605;  -13.848;31978.498
733.045;27177.502;   -8.698;30368.777
733.617;27313.758;  -10.607;30574.215
734.190;27200.277;  -11.507;31280.975
734.762;24584.055;  -13.647;31674.412
735.334;22529.961;   -9.767;31247.291
735.907;22978.754;   -9.897;29876.211
736.479;23432.752;  -11.637;29808.488
737.051;23257.324;   -9.567;30233.547
737.623;24111.307;   -8.187;31469.086
738.195;24490.557;  -11.187;31784.225
738.768;26112.414;  -12.337;32120.523
739.340;26841.359;  -12.227;32094.342
739.912;25992.365;  -11.057;31312.680
740.484;24505.057;  -10.207;31946.238
741.056;23064.588;  -10.047;32984.059
741.628;24692.074;  -13.627;33897.715
742.199;26911.201;   -7.177;33213.016
742.771;25202.412;  -10.797;31369.113
743.343;22883.668;  -11.997;31865.473
743.915;21862.855;  -12.867;32388.631
744.487;21901.943;   -7.617;31079.568
745.058;22205.297;   -9.557;30570.107
745.630;22607.176;   -9.877;29970.127
746.201;23590.152;  -14.177;29186.766
746.773;24435.424;   -9.237;28805.723
747.344;24319.811;   -9.847;29591.223
747.916;22625.514;  -11.657;31412.201
748.487;22629.318;  -10.587;32194.898
749.059;23721.734;   -8.707;32533.719
749.630;24257.908;  -10.537;32158.518
750.201;23070.270;  -11.687;30855.395
750.773;21341.131;  -11.647;28622.555
751.344;21369.732;   -7.147;28405.732
751.915;22782.281;   -9.757;28461.551
752.486;23140.721;  -12.427;27842.850
753.057;20816.207;  -12.227;27845.008
753.628;19334.082;  -10.417;27728.107
754.199;20285.930;  -11.767;27381.086
754.770;21387.201;  -11.187;25882.203
755.341;21460.645;  -10.507;25886.184
755.912;21678.152;   -9.387;26050.861
756.483;21337.568;  -10.647;26798.779
757.054;19695.240;  -11.837;27048.238
757.625;18395.160;  -12.716;26294.838
758.195;17902.799;   -9.666;26142.076
758.766;17450.660;   -8.656;26392.234
759.337;18185.936;  -12.856;26334.594
759.907;19777.541;  -13.366;27579.652
760.478;20805.172;   -8.576;28352.770
761.048;20397.979;  -10.526;27325.088
761.619;19495.977;  -11.116;26460.428
762.189;19392.104;  -12.136;26029.826
762.760;20191.963;   -9.456;26430.145
763.330;21414.068;   -7.136;26670.902
763.900;21079.197;  -11.786;26603.021
764.471;18675.035;  -11.546;25542.740
765.041;17411.607;   -8.096;24358.459
765.611;17418.248;   -8.876;23991.297
766.181;17730.369;  -12.196;24470.236
766.751;18631.309;  -11.636;24845.975
767.321;18450.311;  -10.156;24533.633
767.891;16704.115;  -11.766;24916.492
768.461;16174.488;  -14.936;24776.771
769.031;16620.322;  -12.356;24757.988
769.601;18260.662;   -7.526;24181.088
770.171;18202.986;  -10.766;23670.387
770.741;17230.836;  -13.176;22960.045
771.311;17121.020;  -10.616;22917.523
771.880;17571.926;   -9.576;23562.941
772.450;17244.387;  -10.336;24216.500
773.020;17030.451;  -13.516;24140.398
773.589;16246.248;  -13.466;24414.857
774.159;15573.617;   -8.686;23858.717
774.729;15260.445;   -9.476;22942.135
775.298;14938.686;  -13.666;22324.033
775.867;14610.229;  -11.716;21140.313
776.437;14790.625;   -9.906;20838.092
777.006;14675.465;  -12.166;20599.510
777.576;14493.344;  -12.356;20508.809
778.145;14486.194;  -11.646;20732.947
778.714;14389.234;   -8.226;21062.465
779.283;13703.218;   -9.556;20949.664
779.853;13101.123;  -14.116;20508.623
780.422;13540.950;  -11.506;20649.082
780.991;13127.133;   -9.556;21527.520
781.560;11927.744;   -9.095;22632.658
782.129;11760.070;  -12.135;23048.277
782.698;11838.233;  -10.865;23438.555
783.267;11477.953;   -9.335;23267.734
783.836;11363.321;  -11.045;22415.133
784.404;12310.920;  -13.865;20443.152
784.973;12978.360;  -13.095;19699.150
785.542;12884.094;  -11.575;19763.828
786.111;12639.813;   -9.705;20341.408
786.679;12206.147;  -12.105;20207.967
787.248;11981.210;  -12.455;19516.465
787.817;11840.622;  -11.535;18900.363
788.385;11466.245;   -9.765;17879.121
788.954;10885.807;  -14.005;17658.301
789.522;10331.784;  -11.955;17788.879
790.090;10862.014;  -10.135;18118.277
790.659;11323.446;  -10.975;18338.736
791.227;10840.292;  -13.375;18508.615
791.795;11203.352;  -12.375;17898.254
792.364;11630.077;  -10.725;17295.133
792.932;12054.633;   -9.715;16822.051
793.500;12207.269;  -12.675;17040.148
794.068;12307.846;  -13.495;17179.787
794.636;12439.142;  -10.885;16664.246
795.204;11763.052;  -11.045;16524.545
795.772;11790.463;  -13.175;17274.564
796.340;11354.503;  -12.445;17891.002
796.908;11143.432;   -9.735;17648.561
797.476;11071.425;   -9.815;17064.080
798.044;10679.405;  -13.985;16672.777
798.612; 9877.959;  -13.115;17023.996
799.180; 9491.406;  -10.185;16561.615
799.747; 9432.726;   -9.055;15962.773
800.315; 9146.565;  -12.385;15296.992
800.883; 8838.210;  -15.035;14801.771
801.450; 8900.877;  -10.365;14534.430
802.018; 8990.684;   -9.855;14173.248
802.585; 9129.992;  -11.905;14029.547
803.153; 9126.896;  -11.585;13836.846
803.720; 8896.213;   -9.095;13567.324
804.287; 8457.850;   -9.135;13360.622
804.855; 8041.396;  -11.604;13681.981
805.422; 7892.106;  -11.794;13536.560
805.989; 7904.691;  -10.734;13355.958
806.556; 7993.378;  -10.444;13747.896
807.124; 8170.184;  -12.764;13987.376
807.691; 8145.972;  -12.964;14038.674
808.258; 8003.469;  -11.134;14120.152
808.825; 7781.284;   -9.854;13860.111
809.392; 7879.372;  -10.504;13268.790
809.959; 7350.417;  -13.054;12680.389
810.526; 6854.171;   -8.294;12427.308
811.093; 6866.775;   -8.394;12030.105
811.659; 7552.652;  -12.304;11653.664
812.226; 8154.557;  -13.944;11637.183
812.793; 7950.612;  -10.484;11611.521
813.360; 7355.515;  -10.144;11885.181
813.926; 6999.346;  -11.684;12770.539
814.493; 6732.941;  -13.644;12677.638
815.060; 6295.939;   -9.724;11974.336
815.626; 6250.412;   -9.854;11594.715
816.193; 6657.442;  -13.254;11579.474
816.759; 6693.546;  -13.204;11666.972
817.325; 6743.815;   -9.434;11325.530
817.892; 7123.504;  -10.134;11105.369
818.458; 7571.699;  -13.474;10843.928
819.024; 7238.447;  -11.854;10714.406
819.591; 6947.702;  -10.244;10469.165
820.157; 6733.497;  -10.704;10235.523
820.723; 6193.890;  -12.324;10847.563
821.289; 5883.465;   -9.444;11040.980
821.855; 5852.143;   -8.374;10357.100
822.421; 5930.928;  -10.234; 9978.918
822.987; 6006.300;  -13.294; 9754.177
823.553; 5664.159;  -10.884;10065.755
824.119; 5419.702;   -8.884;10036.294
824.685; 5518.536;   -6.784;10029.192
825.251; 5646.255;  -12.004;10199.230
825.816; 5614.672;  -11.474; 9820.189
826.382; 5359.014;   -9.174; 9297.248
826.948; 5496.075;   -9.214; 9381.347
827.513; 5925.981;  -10.774; 9450.726
828.079; 5811.921;  -11.924; 9472.444
828.645; 5202.179;  -10.543; 9292.643
829.210; 5047.066;  -10.533; 9065.341
829.776; 5046.606;  -10.753; 9132.620
830.341; 4960.013;  -10.173; 9092.878
830.906; 5168.611;  -10.743; 9078.557
831.472; 5566.113;  -11.113; 8534.535
832.037; 5366.766;  -10.603; 8677.874
832.602; 4820.595;  -13.323; 8628.692
833.167; 4522.653;  -10.823; 8879.031
833.733; 4442.050;  -10.113; 9189.790
834.298; 4610.598;  -13.583; 9052.608
834.863; 4731.895;  -12.703; 8895.087
835.428; 4709.891;  -10.523; 8824.266
835.993; 4524.906;   -6.963; 8845.385
836.558; 4314.355;  -10.763; 8888.563
837.123; 4414.625;   -9.903; 8966.582
837.688; 4671.318;   -9.913; 8617.860
838.253; 4971.503;  -10.283; 8590.699
838.817; 5212.379;  -12.963; 8443.797
839.382; 5128.372;  -14.243; 8799.356
839.947; 4809.196;  -10.733; 8810.595
840.511; 4515.676;   -9.383; 8796.394
841.076; 4126.847;  -12.563; 8347.231
841.641; 4151.463;  -12.953; 8224.330
842.205; 4234.604;   -7.043; 8223.349
842.770; 4295.126;   -8.163; 8622.107
843.334; 4421.218;  -12.503; 8410.386
843.898; 4321.079;  -11.693; 8337.465
844.463; 4326.396;  -10.203; 8506.283
845.027; 4120.800;   -9.533; 8280.962
845.591; 3954.304;  -13.443; 8231.141
846.156; 3988.624;  -13.143; 7969.179
846.720; 3901.594;   -9.433; 7768.278
847.284; 3793.871;  -11.033; 7630.957
847.848; 3665.191;  -10.403; 7472.395
848.412; 3578.896;  -11.553; 7437.394
848.976; 3636.573;   -8.393; 7674.592
849.540; 3550.839;   -8.713; 7836.011
850.104; 3641.818;  -12.463; 7913.669
850.668; 4013.553;  -12.973; 7694.508
851.232; 4138.291;  -10.793; 7756.887
851.796; 3981.927;  -10.662; 7926.545
852.359; 3674.999;  -13.082; 7827.844
852.923; 3470.200;  -12.192; 7641.163
853.487; 3264.005;  -11.912; 7342.501
854.050; 3222.710;  -10.892; 7042.820
854.614; 3384.708;  -13.992; 7151.338
855.177; 3526.536;  -11.732; 7105.077
855.741; 3557.816;   -8.962; 6989.675
856.304; 3416.837;   -9.442; 6596.634
856.868; 3354.303;  -14.192; 6356.272
857.431; 3421.684;  -12.702; 6468.571
857.995; 3506.351;   -9.942; 6373.210
858.558; 3503.742;   -9.112; 6324.448
859.121; 3223.539;  -12.932; 6408.327
859.684; 3080.531;  -13.442; 6347.886
860.247; 3201.555;  -10.632; 6321.264
860.810; 3220.701;  -11.272; 6301.903
861.374; 2965.861;   -9.832; 6607.881
861.937; 2691.696;  -11.762; 6408.200
862.500; 2670.873;   -9.722; 6572.639
863.062; 2841.036;  -10.512; 6387.297
863.625; 3015.853;  -11.232; 6190.836
864.188; 3170.775;  -14.112; 5807.254
864.751; 3232.715;  -11.302; 5682.413
865.314; 3125.643;  -10.112; 5547.492
865.876; 2894.009;  -12.182; 5500.150
866.439; 2853.954;  -10.722; 5415.909
867.002; 2803.030;   -9.252; 5501.567
867.564; 2616.276;   -9.572; 5413.946
868.127; 2411.619;  -13.142; 5160.325
868.689; 2311.757;  -12.902; 5133.183
869.252; 2222.518;   -9.732; 5252.382
869.814; 2130.667;   -9.432; 5297.141
870.377; 2123.876;  -11.552; 5390.919
870.939; 2173.150;   -9.052; 5599.898
871.501; 2231.655;  -10.982; 5248.336
872.063; 2239.085;  -12.292; 4854.235
872.626; 2192.037;  -14.912; 4817.074
873.188; 2216.291;  -13.112; 4987.732
873.750; 2187.902;  -13.442; 4868.651
874.312; 2075.154;   -9.402; 4779.330
874.874; 1993.446;  -11.062; 4866.348
875.436; 1907.719;  -13.931; 4718.887
875.998; 1902.229;   -9.561; 4660.005
876.560; 1938.004;  -11.321; 4462.964
877.122; 1884.058;  -12.221; 4145.042
877.683; 1783.194;  -12.191; 4056.481
878.245; 1711.435;  -12.101; 3950.740
878.807; 1748.612;   -8.971; 4058.958
879.369; 1773.823;  -12.071; 3954.677
879.930; 1674.026;  -14.621; 3941.495
880.492; 1605.910;  -10.311; 4067.014
881.053; 1583.841;  -10.901; 3859.633
881.615; 1498.383;  -14.411; 3776.071
882.176; 1392.764;  -13.761; 3734.750
882.738; 1332.304;   -9.181; 3678.489
883.299; 1305.278;  -11.791; 3405.407
883.860; 1301.609;  -13.121; 3351.106
884.422; 1302.471;  -11.211; 3394.044
884.983; 1264.846;  -10.091; 3166.443
885.544; 1194.864;   -8.461; 3189.802
886.105; 1111.441;  -12.361; 3160.360
886.666; 1040.832;  -14.141; 3093.059
887.227;  984.703;  -11.361; 2941.957
887.788;  924.237;  -11.401; 2974.836
888.349;  864.059;  -13.791; 2721.214
888.910;  862.242;  -13.191; 2696.493
889.471;  866.931;   -9.881; 2560.172
890.032;  851.599;   -9.881; 2558.190
890.593;  828.483;  -10.371; 2567.669
891.153;  799.877;  -13.301; 2460.307
891.714;  750.613;  -11.431; 2372.046
892.275;  715.416;  -11.291; 2309.505
892.835;  682.670;  -11.471; 2382.543
893.396;  633.541;  -11.541; 2295.502
893.956;  577.961;  -11.181; 2162.420
894.517;  538.547;  -11.741; 2125.439
895.077;  528.889;  -11.671; 2086.978
895.638;  528.029;  -11.311; 2126.316
896.198;  500.510;   -9.831; 1838.275
896.758;  455.779;   -8.421; 1892.813
897.319;  424.807;  -12.351; 1792.232
897.879;  408.093;  -13.511; 1762.751
898.439;  381.960;  -12.001; 1661.149
898.999;  357.611;  -10.180; 1781.468
899.559;  350.227;  -12.030; 1703.347
900.119;  345.006;  -15.710; 1537.525
900.679;  340.414;   -8.900; 1638.384
901.239;  325.163;   -8.340; 1527.902
901.799;  313.571;  -13.910; 1456.441
902.359;  306.804;  -13.460; 1357.140
902.919;  300.678;  -11.490; 1331.118
903.479;  288.240;  -12.110; 1317.257
904.038;  266.903;  -11.720; 1262.595
904.598;  249.889;  -13.610; 1152.034
905.158;  245.644;  -11.040; 1240.893
905.717;  239.653;  -10.900; 1233.691
906.277;  228.621;  -15.080; 1217.330
906.836;  218.432;  -13.380; 1222.408
907.396;  209.554;  -10.780; 1193.047
907.955;  203.088;   -8.500; 1182.526
908.515;  197.488;  -12.760; 1099.364
909.074;  189.934;  -11.900; 1092.863
909.633;  183.352;   -8.950; 1069.121
910.192;  178.904;   -8.770; 1196.460
910.752;  173.912;  -12.390; 1029.960
911.311;  169.719;  -13.680; 1009.780
911.870;  167.273;  -12.370;  971.460
912.429;  167.473;  -10.900; 1094.080
912.988;  166.600;  -11.690; 1081.060
913.547;  161.369;  -13.240;  940.380
914.106;  156.902;  -11.990;  999.420
914.665;  154.077;   -9.990;  984.020
915.224;  153.164;  -12.880; 1035.760
915.782;  153.034;  -12.350;  922.560
916.341;  152.620;   -9.110; 1049.840
916.900;  149.154;   -9.270;  925.260
917.458;  146.755;  -13.240;  884.220
918.017;  145.222;  -13.550;  942.600
918.576;  145.172;  -12.320;  904.440
919.134;  143.748;  -11.490;  837.980
919.693;  142.400;  -13.670;  893.060
920.251;  139.432;  -15.470;  876.500
920.809;  138.381;  -11.290;  839.580
921.368;  139.253;  -10.210;  885.360
921.926;  138.471;  -12.140;  842.940
922.484;  135.847;  -13.080;  903.360
923.042;  135.326;  -11.720;  880.340
923.601;  139.110;   -7.480;  998.680
924.159;  137.417;  -11.570;  935.560
924.717;  133.689;  -13.840;  841.080
925.275;  133.171;  -10.640;  903.240
925.833;  133.276;  -11.540;  779.320
926.391;  134.887;  -12.960;  938.380
926.949;  133.051;  -14.130;  857.680
927.506;  133.127;  -11.750;  903.500
928.064;  134.128;  -10.250;  877.580
928.622;  133.921;  -13.030;  880.100
929.180;  131.784;  -13.400;  814.180
929.737;  133.143;  -10.700;  808.540
930.295;  136.982;  -10.070;  928.480
930.853;  138.880;  -11.960;  849.100
931.410;  138.963;  -13.120;  821.120
931.968;  138.474;  -10.770;  940.660
932.525;  138.836;  -10.680;  909.380
933.082;  139.305;  -13.130;  811.440
933.640;  139.975;  -13.210;  925.900
934.197;  138.163;  -11.060;  886.360
934.754;  139.794;   -9.580;  897.780
935.312;  141.933;  -14.000;  863.340
935.869;  146.439;  -10.710; 1012.980
936.426;  146.574;   -9.860;  872.800
936.983;  148.799;   -9.710;  889.020
937.540;  149.075;  -13.990;  838.280
938.097;  147.093;  -14.040;  940.120
938.654;  146.926;  -10.310;  898.860
939.211;  150.082;  -10.560;  952.480
939.768;  153.027;  -13.900;  915.420
940.324;  156.565;  -14.760;  904.200
940.881;  157.674;  -10.370;  878.500
941.438;  158.199;   -8.260; 1021.200
941.995;  155.851;  -12.540;  992.560
942.551;  152.245;  -14.670;  875.620
943.108;  152.438;  -10.450;  937.920
943.664;  154.990;  -10.750;  869.340
944.221;  158.826;  -11.550; 1088.140
944.777;  155.896;  -14.770;  869.680
945.334;  155.732;  -12.820;  884.840
945.890;  158.019;  -10.130;  946.480
946.446;  159.179;  -13.470;  947.020
947.003;  159.971;  -12.120;  964.940
947.559;  162.826;   -9.980; 1063.040
948.115;  163.034;   -9.080; 1026.540
948.671;  160.124;  -10.830;  967.300
949.227;  157.592;  -12.440;  859.560
949.783;  154.638;  -12.910;  858.900
950.339;  157.073;  -10.270;  991.000
950.895;  157.717;  -13.630; 1023.840
951.451;  156.661;  -15.100;  925.280
952.007;  157.076;  -11.330;  998.540
952.563;  157.439;  -10.580;  937.780
953.118;  156.802;  -13.440;  904.940
953.674;  156.326;  -12.710;  935.780
954.230;  156.520;  -10.350;  949.640
954.785;  153.609;   -9.190;  936.640
955.341;  151.639;  -11.200;  998.160
955.897;  148.657;  -16.560;  834.660
956.452;  150.327;  -12.570;  953.840
957.008;  150.296;   -7.970; 1083.640
957.563;  147.970;  -11.940; 1009.540
958.118;  141.363;  -13.450;  877.700
958.674;  141.907;  -12.030;  946.780
959.229;  143.599;   -9.410; 1013.980
959.784;  141.157;  -12.000;  832.400
960.339;  140.419;  -14.780; 1001.280
960.894;  137.625;   -9.860;  963.760
961.449;  133.806;   -9.970;  859.960
962.004;  134.886;  -10.900; 1212.840
962.559;  129.417;  -13.150;  860.140
963.114;  126.551;  -13.740;  742.480
963.669;  126.995;   -9.820;  915.500
964.224;  125.575;  -13.890;  874.340
964.779;  124.102;  -12.600;  828.420
965.334;  124.505;  -10.950; 1017.860
965.888;  124.958;  -11.170;  875.360
966.443;  128.829;  -12.540;  972.380
966.998;  128.893;  -15.780;  819.460
967.552;  125.861;   -9.760;  908.380
968.107;  122.609;   -9.060;  868.300
968.661;  124.336;  -11.950;  922.440
969.216;  125.327;  -12.800;  856.280
969.770;  127.163;  -11.210;  917.200
970.324;  128.122;  -11.610;  923.140
970.879;  125.189;  -11.370;  947.180
971.433;  117.187;  -12.540;  952.720
971.987;  105.520;  -11.320;  895.340
972.541;   96.186;  -10.720;  917.100
973.095;   89.266;   -9.680; 1009.460
973.649;   82.987;  -11.440;  809.480
974.203;   80.961;  -11.210;  829.040
974.757;   83.700;  -10.240;  855.220
975.311;   86.353;  -13.720;  872.600
975.865;   87.287;  -13.770;  881.820
976.419;   87.278;  -11.690;  857.400
976.973;   89.005;   -9.510;  849.620
977.526;   91.186;  -12.620;  949.920
978.080;   91.279;  -12.010;  796.780
978.634;   93.187;  -10.170;  921.320
979.187;   91.328;   -9.020;  905.400
979.741;   90.617;   -9.820; 1018.380
980.294;   85.812;  -14.870;  789.160
980.848;   83.311;  -12.380;  717.220
981.401;   86.424;  -10.350;  816.540
981.955;   89.332;  -13.720;  844.300
982.508;   87.828;  -11.490;  746.340
983.061;   88.134;  -10.000;  915.260
983.615;   85.478;  -11.480;  798.800
984.168;   82.530;  -13.220;  770.080
984.721;   82.063;  -13.960;  880.760
985.274;   80.851;  -10.870;  867.500
985.827;   80.323;   -9.790;  834.220
986.380;   77.837;  -13.120;  721.340
986.933;   77.180;  -12.450;  864.800
987.486;   75.582;  -10.210;  861.920
988.039;   75.576;   -8.430;  863.100
988.591;   73.966;  -10.520;  893.260
989.144;   70.844;  -14.860;  737.260
989.697;   70.151;  -13.080;  758.740
990.250;   71.039;  -10.150;  858.100
990.802;   70.522;  -13.430;  755.860
991.355;   71.048;  -12.750;  974.880
991.907;   68.692;  -12.040;  864.320
992.460;   66.337;  -11.330;  753.760
993.012;   66.019;  -13.610;  749.540
993.565;   65.115;  -13.460;  711.360
994.117;   66.064;   -9.360;  950.780
994.669;   63.087;  -11.300;  701.320
995.221;   61.036;  -13.540;  791.920
995.774;   59.838;  -13.430;  787.580
996.326;   58.134;  -12.520;  740.220
996.878;   58.199;  -10.950;  838.420
997.430;   57.203;  -14.300;  699.860
997.982;   55.369;  -13.760;  750.140
998.534;   54.474;  -11.530;  739.060
999.086;   52.907;  -10.310;  738.220
999.638;   50.789;  -12.530;  661.380
1000.190;   49.023;  -11.840;  699.320
1000.741;   47.848;  -10.260;  742.700
1001.293;   48.332;   -8.860;  686.020
1001.845;   47.763;  -13.700;  676.640
1002.396;   47.601;  -12.100;  743.400
1002.948;   47.742;  -12.760;  737.400
1003.500;   46.657;  -10.380;  723.780
1004.051;   47.129;  -11.900;  907.580
1004.603;   45.439;  -12.250;  791.820
1005.154;   42.447;  -13.210;  608.980
1005.705;   41.901;  -10.950;  723.960
1006.257;   41.225;  -13.880;  707.220
1006.808;   39.920;  -12.840;  685.460
1007.359;   39.745;  -10.570;  763.240
1007.910;   39.712;   -9.620;  646.640
1008.461;   39.469;  -13.630;  732.940
1009.013;   38.353;  -17.200;  588.340
1009.564;   38.055;  -10.200;  793.520
1010.115;   37.099;  -12.570;  597.040
1010.665;   37.095;  -15.150;  602.160
1011.216;   36.656;  -14.480;  667.920
1011.767;   35.532;  -11.340;  697.920
1012.318;   36.241;   -9.780;  736.980
1012.869;   35.957;  -12.380;  679.000
1013.419;   34.689;  -15.560;  603.120
1013.970;   34.566;  -11.010;  666.640
1014.521;   34.791;  -11.610;  620.620
1015.071;   35.194;  -13.450;  670.380
1015.622;   33.974;  -13.870;  635.460
1016.172;   33.122;  -11.610;  596.820
1016.723;   32.707;  -12.120;  614.380
1017.273;   33.084;  -13.620;  604.160
1017.823;   32.428;  -14.140;  650.340
1018.374;   32.024;  -12.800;  611.760
1018.924;   32.345;  -12.340;  716.880
1019.474;   33.426;  -11.410;  718.880
1020.024;   32.179;  -14.770;  657.580
1020.574;   32.241;   -9.780;  726.160
1021.124;   32.410;   -8.560;  673.580
1021.674;   31.021;  -15.190;  559.120
1022.224;   31.924;  -13.530;  708.940
1022.774;   30.654;  -13.280;  668.820
1023.324;   31.727;  -10.690;  753.520
1023.874;   33.115;  -10.240;  875.760
1024.423;   30.000;  -12.540;  613.700
1024.973;   29.619;  -10.010;  610.760
1025.523;   29.531;  -10.550;  620.960
1026.072;   29.663;  -13.560;  606.420
1026.622;   29.266;  -15.120;  675.740
1027.172;   29.613;  -11.260;  715.660
1027.721;   28.702;  -11.410;  601.220
1028.270;   29.683;  -13.530;  663.400
1028.820;   28.977;  -13.680;  638.080
1029.369;   28.176;  -13.520;  612.700
1029.918;   28.388;  -10.980;  649.840
1030.468;   28.393;  -13.530;  564.780
1031.017;   27.969;  -13.170;  634.800
1031.566;   27.190;  -12.200;  608.900
1032.115;   28.365;   -9.960;  694.500
1032.664;   27.436;  -13.210;  596.480
1033.213;   27.206;  -12.500;  735.420
1033.762;   26.958;  -11.910;  635.620
1034.311;   26.989;   -9.640;  677.220
1034.860;   28.052;  -13.310;  691.000
1035.408;   26.596;  -11.830;  722.720
1035.957;   26.807;  -12.000;  719.540
1036.506;   25.546;  -11.690;  530.800
1037.055;   27.214;  -10.990;  844.320
1037.603;   25.348;  -15.120;  664.000
1038.152;   23.659;  -12.450;  534.760
1038.700;   24.727;  -10.560;  585.740
1039.249;   24.426;  -11.080;  681.220
1039.797;   25.063;  -12.540;  633.360
1040.345;   24.551;  -11.920;  705.420
1040.894;   25.048;  -11.410;  625.300
1041.442;   24.978;  -14.320;  632.200
1041.990;   23.471;  -16.240;  559.160
1042.538;   22.832;  -11.680;  536.180
1043.087;   23.621;  -10.760;  570.860
1043.635;   24.770;  -11.850;  670.500
1044.183;   22.886;  -15.480;  586.400
1044.731;   22.591;  -11.770;  576.000
1045.279;   22.744;  -13.090;  674.920
1045.827;   24.725;  -12.440;  892.400
1046.374;   21.841;  -13.840;  515.420
1046.922;   21.154;  -13.220;  590.580
1047.470;   23.504;  -10.230;  691.300
1048.018;   22.996;  -14.590;  647.960
1048.565;   23.104;  -12.050;  708.600
1049.113;   20.754;  -11.650;  557.000
1049.660;   21.845;  -10.510;  629.660
1050.208;   22.453;  -13.310;  675.640
1050.755;   21.167;  -15.900;  606.580
1051.303;   20.900;  -11.430;  686.820
1051.850;   21.844;   -8.480;  635.120
1052.397;   19.934;  -15.010;  473.960
1052.945;   20.286;  -13.960;  617.760
1053.492;   21.455;  -13.150;  741.840
1054.039;   21.064;   -9.630;  720.180
1054.586;   20.278;  -13.680;  557.240
1055.133;   20.837;  -14.570;  693.140
1055.680;   20.783;  -13.820;  646.620
1056.227;   19.536;  -11.730;  542.780
1056.774;   20.794;  -12.480;  794.980
1057.321;   18.544;  -13.930;  523.260
1057.868;   18.997;  -11.690;  651.320
1058.415;   19.910;   -9.520;  651.980
1058.961;   20.174;  -13.160;  678.940
1059.508;   19.533;  -12.920;  643.820
1060.055;   18.661;  -11.920;  581.780
1060.601;   19.472;  -11.500;  624.300
1061.148;   18.948;  -14.330;  616.820
1061.694;   17.829;  -16.870;  592.580
1062.241;   17.519;  -10.330;  596.320
1062.787;   18.309;  -10.620;  663.140
1063.334;   20.605;  -10.110;  808.560
1063.880;   18.247;  -13.400;  668.360
1064.426;   17.651;  -10.680;  706.820
1064.972;   17.446;   -9.920;  601.340
1065.518;   16.397;  -10.980;  566.640
1066.065;   18.842;  -14.890;  624.460
1066.611;   15.888;  -12.870;  598.800
1067.157;   18.398;  -12.950;  641.860
1067.703;   17.147;  -13.540;  668.480
1068.249;   17.546;  -13.540;  605.220
1068.794;   16.383;  -12.600;  626.880
1069.340;   16.447;  -10.620;  578.960
1069.886;   16.755;  -12.830;  590.700
1070.432;   14.954;  -14.870;  541.720
1070.977;   15.312;  -11.980;  601.080
1071.523;   15.924;   -8.200;  573.060
1072.068;   15.771;  -12.330;  582.000
1072.614;   16.168;  -16.370;  527.760
1073.160;   16.053;  -11.100;  687.040
1073.705;   15.262;  -10.480;  572.520
1074.250;   15.373;  -14.520;  559.900
1074.796;   15.527;  -11.460;  655.160
1075.341;   16.586;  -11.950;  664.100
1075.886;   15.382;  -11.460;  594.240
1076.431;   15.186;  -13.770;  649.880
1076.976;   14.811;  -12.680;  639.220
1077.521;   14.174;  -13.170;  583.080
1078.067;   13.739;  -10.860;  579.400
1078.612;   14.966;  -13.920;  661.620
1079.156;   14.861;  -13.880;  601.540
1079.701;   14.507;  -13.120;  693.260
1080.246;   15.440;   -9.940;  696.300
1080.791;   14.983;  -14.740;  625.020
1081.336;   14.080;  -13.750;  659.320
1081.880;   13.789;  -13.400;  649.680
1082.425;   12.787;  -12.220;  573.480
1082.970;   15.191;  -11.610;  717.040
1083.514;   13.453;  -13.580;  597.000
1084.059;   12.491;  -12.810;  586.720
1084.603;   12.848;  -12.320;  565.840
1085.147;   13.647;  -13.190;  645.220
1085.692;   13.843;  -12.480;  716.800
1086.236;   11.585;  -13.020;  503.140
1086.780;   13.978;   -9.190;  751.440
1087.325;   13.686;  -12.480;  654.620
1087.869;   12.541;  -12.450;  610.700
1088.413;   12.589;  -12.240;  705.040
1088.957;   11.679;   -9.020;  543.400
1089.501;   13.390;  -10.320;  766.640
1090.045;   12.361;  -12.720;  726.480
1090.589;   10.583;  -13.690;  569.920
1091.133;   11.943;  -10.020;  673.340
1091.676;   12.680;  -12.330;  591.940
1092.220;   11.238;  -14.970;  600.920
1092.764;   12.304;  -12.430;  706.960
1093.307;   11.773;   -9.800;  673.780
1093.851;   10.607;  -14.970;  556.540
1094.395;   11.566;  -15.310;  683.140
1094.938;   10.843;  -10.370;  632.520
1095.482;   11.120;  -11.050;  559.800
1096.025;   12.128;  -11.840;  710.880
1096.568;   11.879;  -12.840;  779.280
1097.112;    9.132;  -14.700;  508.180
1097.655;   10.952;   -8.720;  603.000
1098.198;    9.683;  -13.610;  600.180
1098.741;    9.743;  -13.350;  612.860
1099.285;   10.209;  -11.230;  657.300
1099.828;    9.004;  -11.840;  439.400
1100.371;   10.383;  -10.840;  608.160
1100.914;    9.837;  -14.190;  682.660
1101.457;    9.397;  -11.240;  679.900
1101.999;    8.976;  -11.270;  584.680
1102.542;   10.278;  -11.480;  641.440
1103.085;    9.393;  -11.750;  658.500
1103.628;    9.811;  -11.400;  762.060
1104.170;    9.553;  -10.490;  588.280
1104.713;    9.261;  -10.600;  646.700
1105.256;    8.545;  -14.360;  557.440
1105.798;    7.779;  -13.210;  499.980
1106.341;    9.232;  -10.270;  728.900
1106.883;    9.056;  -12.200;  521.340
1107.425;    8.703;  -13.110;  668.180
1107.968;    7.978;  -12.840;  612.380
1108.510;    8.540;   -6.480;  684.960
1109.052;    7.506;  -13.940;  612.620
1109.594;    7.392;  -13.690;  554.440
1110.136;    8.244;  -11.880;  643.220
1110.679;    7.821;   -9.500;  633.080
1111.221;    8.119;  -14.160;  604.460
1111.763;    7.029;  -13.980;  559.220
1112.304;    6.552;  -13.880;  547.140
1112.846;    7.480;  -12.210;  666.240
1113.388;   10.293;  -11.390;  942.180
1113.930;    7.877;  -14.540;  694.200
1114.472;    6.443;  -12.640;  606.540
1115.013;    5.918;  -11.620;  551.280
1115.555;    6.671;  -13.640;  587.100
1116.097;    5.421;  -15.380;  579.480
1116.638;    6.854;  -12.640;  684.600
1117.180;    7.422;   -9.850;  667.740
1117.721;    6.378;  -13.690;  568.580
1118.262;    7.209;  -12.680;  677.960
1118.804;    6.757;  -12.530;  637.340
1119.345;    5.826;  -11.690;  578.400
1119.886;    7.340;  -13.380;  704.040
1120.427;    5.320;  -14.070;  589.020
1120.969;    4.777;  -13.500;  597.920
1121.510;    5.170;  -11.480;  563.060
1122.051;    6.280;  -12.830;  723.580
1122.592;    5.211;  -14.290;  655.420
1123.133;    4.551;  -12.400;  547.940
1123.673;    5.683;  -10.130;  706.480
1124.214;    5.733;  -12.930;  612.460
1124.755;    5.175;  -14.380;  639.460
1125.296;    5.302;  -14.000;  627.320
1125.836;    6.213;  -10.070;  691.500
1126.377;    4.879;  -12.640;  599.660
1126.918;    5.107;  -12.960;  614.980
1127.458;    4.162;  -13.350;  622.220
1127.999;    4.878;  -10.750;  656.980
1128.539;    5.470;  -12.350;  694.240
1129.079;    4.245;  -14.860;  632.720
1129.620;    3.295;  -13.840;  558.100
1130.160;    4.247;  -12.330;  539.480
1130.700;    4.517;  -14.530;  640.840
1131.240;    4.944;  -12.530;  643.700
1131.781;    3.707;  -14.450;  619.680
1132.321;    4.051;   -9.790;  599.120
1132.861;    3.047;  -14.860;  564.200
1133.401;    3.186;  -14.290;  593.940
1133.941;    3.296;  -11.750;  626.280
1134.481;    3.512;   -9.920;  597.580
1135.020;    3.949;  -12.290;  609.160
1135.560;    3.891;  -11.650;  674.940
1136.100;    2.968;  -16.270;  501.160
1136.640;    2.508;  -10.890;  510.480
1137.179;    2.819;  -14.180;  537.960
1137.719;    3.182;  -16.250;  605.400
1138.258;    2.836;  -14.230;  587.360
1138.798;    3.423;   -9.090;  663.780
1139.337;    2.591;  -15.130;  482.840
1139.877;    3.125;  -13.680;  642.360
1140.416;    4.369;  -11.320;  878.060
1140.955;    2.249;  -10.860;  535.380
1141.494;    3.185;  -12.920;  669.280
1142.034;    1.975;  -13.930;  583.520
1142.573;    2.470;  -11.440;  646.280
1143.112;    1.521;  -12.000;  553.480
1143.651;    2.858;  -13.670;  536.480
1144.190;    2.626;  -12.730;  691.640
1144.729;    1.761;  -14.560;  607.420
1145.267;    1.915;  -11.830;  584.900
1145.806;    3.159;  -12.230;  637.040
1146.345;    1.723;  -14.130;  635.020
1146.884;    1.493;  -11.590;  622.500
1147.422;    1.373;  -12.550;  533.060
1147.961;    3.618;  -11.180;  708.460
1148.500;    2.493;  -11.510;  669.720
1149.038;    2.102;  -11.640;  632.500
1149.577;    2.508;  -10.130;  698.640
1150.115;   -0.116;  -13.970;  452.280
1150.653;    1.296;  -14.520;  607.340
1151.192;    1.429;  -12.810;  552.920
1151.730;    1.511;   -9.100;  652.560
1152.268;    1.190;  -12.220;  589.520
1152.806;    1.164;  -14.140;  571.180
1153.344;   -0.728;  -12.350;  577.640
1153.882;    0.876;   -8.980;  600.060
1154.421;   -0.315;  -15.190;  470.620
1154.958;    0.202;  -15.210;  595.240
1155.496;    1.045;  -12.850;  645.280
1156.034;    0.640;   -9.940;  721.880
1156.572;    1.790;  -13.570;  667.060
1157.110;    0.325;  -14.590;  473.940
1157.647;    0.207;  -13.030;  676.960
1158.185;    0.198;  -12.140;  564.320
1158.723;   -0.230;  -14.390;  509.200
1159.260;   -0.224;  -14.090;  701.700
1159.798;    0.335;  -11.920;  658.160
1160.335;   -0.142;  -11.110;  631.820

