
Integration time [ms]:   3.276
Averaging Nr. [scans]: 1000
Smoothing Nr. [pixels]: 0
Data measured with spectrometer [name]: 7414430SP
Wave   ;Sample   ;Dark     ;Reference
[nm]   ;[counts] ;[counts] ;[counts] 

288.544;  151.223;    7.793;  793.890
289.143;  154.752;    7.462;  681.602
289.742;  154.572;    8.602;  828.814
290.341;  140.221;    1.321;  789.841
290.940;  129.464;   -0.709;  730.702
291.538;  130.355;    0.881;  881.108
292.137;  130.571;    0.122;  792.581
292.736;  134.007;   -1.929;  975.101
293.335;  131.619;   -8.229;  735.086
293.934;  131.256;   -5.279;  781.677
294.532;  129.262;   -1.369; 1031.958
295.131;  115.235;   -7.641;  834.394
295.730;  115.670;   -8.420;  809.588
296.328;  115.554;   -5.611;  783.442
296.927;  115.714;   -5.781;  779.652
297.525;  116.730;   -6.361;  781.236
298.124;  106.429;  -11.382;  654.009
298.722;  110.800;   -7.641;  761.933
299.321;  108.624;   -6.811;  708.597
299.919;  106.942;   -6.991;  751.918
300.518;  104.134;  -10.362;  689.338
301.116;  106.017;   -9.581;  691.381
301.715;  105.252;   -4.891;  730.222
302.313;  103.829;   -8.801;  704.943
302.911;  100.121;   -8.522;  733.830
303.509;  105.917;   -6.171;  925.627
304.108;  102.825;   -7.311;  760.383
304.706;  102.372;   -8.321;  801.664
305.304;   96.925;  -10.222;  796.707
305.902;  101.539;   -6.021;  784.484
306.500;   97.522;   -4.971;  728.200
307.098;   96.305;   -7.061;  746.560
307.696;   94.212;   -8.801;  780.432
308.294;   95.547;   -6.411;  731.359
308.892;   95.994;   -2.901;  759.769
309.490;   92.838;   -5.041;  712.161
310.088;   90.632;   -5.002;  788.444
310.686;   95.391;   -2.041;  821.749
311.284;   90.543;   -2.351;  766.040
311.882;   88.317;   -4.422;  731.225
312.480;   86.439;   -4.192;  697.167
313.078;   87.225;   -1.172;  808.331
313.675;   88.279;   -2.601;  691.600
314.273;   83.415;   -1.312;  797.837
314.871;   83.255;   -3.942;  589.829
315.468;   81.034;   -2.802;  652.090
316.066;   83.045;   -0.701;  694.427
316.664;   76.308;   -4.362;  656.351
317.261;   79.827;   -2.872;  910.128
317.859;   75.720;   -2.022;  768.735
318.456;   75.627;   -0.531;  830.096
319.054;   72.044;   -3.912;  787.828
319.651;   71.642;   -4.752;  759.928
320.249;   69.857;   -2.602;  810.188
320.846;   67.392;   -0.821;  714.286
321.443;   65.838;   -4.642;  832.135
322.041;   63.068;   -5.002;  812.315
322.638;   59.923;   -3.982;  701.456
323.235;   61.599;   -3.411;  665.683
323.833;   59.326;   -7.361;  740.354
324.430;   54.128;   -8.611;  615.900
325.027;   55.112;   -4.061;  876.855
325.624;   54.281;   -4.031;  644.532
326.221;   51.496;   -7.481;  689.717
326.818;   51.982;   -5.281;  818.332
327.415;   54.901;   -7.460;  748.828
328.012;   54.413;   -5.510;  690.585
328.609;   52.815;   -7.880;  731.389
329.206;   50.938;   -8.331;  778.621
329.803;   52.149;   -5.121;  737.841
330.400;   53.610;   -4.510;  704.260
330.997;   55.259;   -6.441;  817.147
331.594;   54.554;   -8.831;  788.185
332.191;   59.086;   -7.621;  728.722
332.787;   62.006;   -4.591;  844.463
333.384;   60.400;   -7.412;  763.093
333.981;   59.775;   -8.293;  815.687
334.578;   62.396;   -7.052;  708.378
335.174;   65.179;   -3.102;  731.469
335.771;   63.694;   -5.943;  836.456
336.367;   61.382;   -7.393;  710.631
336.964;   64.714;   -4.063;  793.266
337.561;   62.296;   -3.813;  731.112
338.157;   57.971;   -4.654;  911.916
338.754;   55.741;   -7.934;  796.589
339.350;   53.797;   -4.414;  722.493
339.946;   56.576;   -4.664;  773.135
340.543;   47.806;   -6.375;  846.136
341.139;   42.676;   -9.815;  720.836
341.735;   41.442;   -4.526;  772.593
342.332;   39.633;   -4.895;  691.472
342.928;   40.062;   -4.295;  795.394
343.524;   33.781;   -5.476;  761.684
344.120;   31.527;   -5.856;  738.562
344.716;   33.913;   -2.155;  723.717
345.313;   31.414;   -6.275;  795.342
345.909;   26.767;   -8.815;  627.336
346.505;   27.790;   -5.305;  740.247
347.101;   28.306;   -2.674;  827.864
347.697;   28.607;   -4.344;  785.398
348.293;   23.632;   -9.975;  627.244
348.889;   23.944;   -5.774;  745.914
349.485;   24.299;   -5.004;  688.205
350.081;   24.272;   -4.704;  772.592
350.676;   20.294;   -6.635;  691.606
351.272;   24.732;   -4.504;  809.530
351.868;   23.278;   -3.914;  780.497
352.464;   20.680;   -9.044;  723.932
353.059;   17.859;   -8.314;  646.017
353.655;   20.830;   -7.024;  777.063
354.251;   21.462;   -5.343;  759.845
354.846;   16.398;   -8.604;  740.646
355.442;   14.077;   -6.945;  753.071
356.038;   16.602;   -7.564;  751.708
356.633;   15.759;   -5.814;  728.594
357.229;   13.693;   -7.364;  724.757
357.824;   12.783;   -8.024;  703.600
358.420;   11.728;   -9.384;  679.726
359.015;   11.728;   -5.104;  695.357
359.610;   12.780;   -6.854;  763.920
360.206;    7.206;  -10.185;  603.240
360.801;   10.229;   -7.054;  646.503
361.396;   11.563;   -5.034;  725.975
361.992;    7.246;   -8.284;  668.220
362.587;    5.170;   -8.625;  670.160
363.182;    7.378;   -7.674;  689.631
363.777;    7.850;   -5.164;  738.242
364.372;    7.872;   -8.604;  737.314
364.967;    3.905;   -9.055;  680.744
365.563;    8.473;   -6.114;  815.567
366.158;    4.749;   -5.814;  685.161
366.753;    5.721;   -7.854;  649.263
367.348;    3.703;   -7.804;  746.056
367.942;    4.540;   -7.954;  697.298
368.537;    2.778;   -4.984;  754.245
369.132;    2.626;   -8.564;  703.428
369.727;   -0.498;   -8.855;  638.079
370.322;    0.359;   -6.245;  580.186
370.917;    0.375;   -6.425;  710.646
371.511;    3.041;   -6.294;  861.834
372.106;   -0.227;   -7.685;  776.964
372.701;   -3.465;   -7.335;  585.988
373.296;    2.335;   -4.564;  863.135
373.890;   -2.386;  -10.235;  647.840
374.485;   -4.729;   -7.885;  691.199
375.079;   -0.504;   -7.324;  738.685
375.674;    0.396;   -3.494;  812.970
376.268;   -4.331;   -8.525;  691.759
376.863;   -9.133;  -10.086;  580.327
377.457;   -3.242;   -7.025;  662.490
378.052;   -5.495;   -3.585;  764.884
378.646;   -5.864;   -7.595;  741.167
379.240;   -6.352;   -8.335;  721.176
379.835;   -4.793;   -5.785;  636.978
380.429;   -7.178;   -4.335;  562.557
381.023;   -7.273;   -6.805;  779.205
381.617;   -9.479;   -9.195;  680.106
382.212;   -6.224;   -6.905;  685.303
382.806;   -5.855;   -3.745;  760.690
383.400;   -9.197;   -7.745;  672.281
383.994;  -10.641;   -9.765;  664.870
384.588;   -6.201;   -6.564;  697.701
385.182;   -5.269;   -5.344;  726.624
385.776;   -7.451;   -8.514;  706.875
386.370;   -9.693;   -9.555;  681.968
386.964;   -8.670;   -8.715;  684.155
387.558;   -7.658;   -6.174;  598.360
388.152;  -11.130;   -8.725;  681.959
388.745;   -9.123;   -7.965;  814.707
389.339;   -6.604;   -5.924;  747.642
389.933;   -5.905;   -5.524;  695.370
390.527;   -7.846;   -7.114;  859.029
391.120;  -13.621;  -10.725;  595.318
391.714;  -10.607;   -8.035;  711.633
392.308;   -7.303;   -3.574;  780.253
392.901;  -11.405;   -7.245;  642.460
393.495;  -12.619;   -9.285;  595.414
394.089;  -10.360;   -5.895;  760.452
394.682;  -10.885;   -4.295;  697.188
395.275;  -12.011;   -9.875;  719.927
395.869;  -12.162;   -8.485;  667.314
396.462;  -11.039;   -7.455;  616.609
397.056;   -7.321;   -5.424;  776.621
397.649;  -11.962;   -6.605;  731.575
398.242;   -8.897;   -8.224;  712.645
398.836;   -8.444;   -7.474;  766.408
399.429;   -9.501;   -7.094;  631.041
400.022;  -14.098;   -9.475;  665.902
400.615;  -10.827;   -7.145;  805.609
401.208;   -8.492;   -7.174;  691.451
401.802;  -10.994;   -5.515;  699.329
402.395;  -11.543;   -9.875;  683.502
402.988;  -12.971;   -8.845;  696.627
403.581;  -10.104;   -8.874;  646.878
404.174;   -7.802;   -5.324;  686.568
404.767;  -10.641;   -9.575;  638.583
405.360;  -13.355;  -10.965;  621.445
405.953;   -7.653;   -8.764;  759.034
406.545;   -6.601;   -7.514;  725.342
407.138;  -11.435;  -10.025;  618.350
407.731;  -10.526;  -10.034;  613.303
408.324;   -6.083;   -9.374;  660.554
408.917;   -7.695;   -6.534;  681.864
409.509;   -8.979;   -8.004;  740.396
410.102;  -10.658;   -9.875;  643.948
410.695;   -4.336;   -8.604;  665.758
411.287;   -5.617;   -6.794;  599.821
411.880;   -6.514;   -9.334;  585.421
412.472;   -9.667;  -10.254;  613.092
413.065;   -7.360;   -6.714;  629.408
413.657;   -4.413;   -7.234;  576.678
414.250;   -5.308;  -10.544;  646.681
414.842;   -6.503;   -9.744;  676.353
415.434;   -3.732;   -6.994;  570.463
416.027;   -0.454;   -5.893;  652.196
416.619;   -2.549;   -7.264;  713.400
417.211;   -3.211;  -10.374;  599.352
417.804;    0.954;   -7.993;  628.499
418.396;   -3.546;   -7.234;  607.643
418.988;   -1.531;   -9.443;  659.238
419.580;   -3.985;  -10.724;  568.276
420.172;   -1.488;  -10.323;  536.196
420.764;    2.557;   -8.793;  672.482
421.356;    0.469;  -11.143;  636.898
421.948;    0.176;   -8.293;  677.661
422.540;    5.561;   -7.893;  680.027
423.132;    5.080;   -7.082;  600.641
423.724;    1.513;   -8.653;  561.267
424.316;    3.020;  -10.213;  621.345
424.908;    7.109;   -9.762;  591.517
425.500;    7.257;   -5.572;  647.978
426.092;    7.551;   -8.422;  648.268
426.683;    7.194;   -9.283;  684.836
427.275;    9.805;   -7.852;  641.471
427.867;   11.299;   -5.272;  668.948
428.458;   11.559;   -7.682;  732.344
429.050;   11.028;  -10.612;  680.749
429.642;   12.861;   -9.882;  743.124
430.233;   12.691;   -6.962;  569.356
430.825;   14.325;   -6.842;  724.809
431.416;   11.610;   -9.672;  698.241
432.008;   15.803;   -6.552;  651.723
432.599;   16.269;   -6.891;  656.073
433.190;   13.467;  -10.912;  637.670
433.782;   13.200;  -11.172;  590.395
434.373;   20.134;   -6.061;  884.765
434.964;   18.502;   -8.251;  602.920
435.556;   16.321;   -9.722;  634.537
436.147;   19.604;   -9.082;  758.490
436.738;   19.263;   -8.041;  701.099
437.329;   24.849;   -7.341;  721.723
437.920;   18.020;   -8.162;  666.688
438.511;   17.546;  -11.802;  564.526
439.103;   24.843;  -10.191;  623.998
439.694;   25.784;   -7.601;  681.583
440.285;   26.876;   -8.541;  764.432
440.876;   24.960;   -9.751;  845.738
441.466;   24.803;   -9.401;  575.162
442.057;   29.628;   -7.760;  665.814
442.648;   28.810;   -9.971;  746.255
443.239;   26.885;  -11.001;  620.477
443.830;   32.013;   -7.990;  704.958
444.421;   33.680;   -7.910;  655.474
445.011;   30.219;   -8.131;  693.619
445.602;   30.173;   -7.111;  743.126
446.193;   32.129;  -10.920;  488.117
446.783;   36.408;   -6.500;  640.397
447.374;   31.956;   -8.671;  692.759
447.964;   32.898;  -10.781;  713.770
448.555;   41.456;   -9.650;  822.742
449.145;   37.771;   -8.660;  662.853
449.736;   38.173;   -8.990;  803.179
450.326;   38.176;   -9.500;  713.626
450.917;   43.035;   -8.680;  675.324
451.507;   42.361;   -7.520;  600.661
452.097;   43.274;   -8.590;  746.267
452.688;   44.546;  -11.340;  742.160
453.278;   44.061;  -10.100;  566.840
453.868;   48.881;   -6.019;  793.550
454.458;   45.747;   -9.440;  651.141
455.048;   47.232;  -10.560;  711.783
455.639;   48.973;  -11.799;  567.096
456.229;   52.097;   -6.899;  710.694
456.819;   53.576;   -7.389;  751.158
457.409;   54.287;  -11.119;  773.993
457.999;   56.961;   -9.289;  737.505
458.589;   56.852;   -6.139;  686.606
459.179;   56.907;   -8.729;  717.658
459.769;   55.514;   -9.789;  627.099
460.358;   60.632;  -10.259;  797.262
460.948;   59.921;   -7.299;  689.503
461.538;   61.314;  -10.289;  660.677
462.128;   59.475;  -11.269;  664.934
462.717;   66.189;   -9.368;  710.326
463.307;   67.864;   -7.908;  705.846
463.897;   65.546;   -9.599;  656.942
464.486;   64.350;   -9.769;  837.128
465.076;   69.428;   -8.048;  733.776
465.666;   72.898;   -9.358;  652.900
466.255;   70.404;   -7.919;  785.651
466.845;   69.787;  -11.689;  666.749
467.434;   73.489;   -7.818;  725.873
468.023;   74.392;   -7.678;  658.357
468.613;   71.047;  -10.939;  713.946
469.202;   75.605;  -10.118;  646.507
469.791;   79.769;   -9.108;  737.811
470.381;   81.516;   -6.058;  742.813
470.970;   81.061;  -10.428;  711.099
471.559;   81.726;  -10.268;  733.291
472.148;   84.591;   -8.448;  675.737
472.738;   87.582;   -6.917;  765.466
473.327;   86.538;  -11.978;  637.529
473.916;   86.760;  -11.888;  737.446
474.505;   91.368;   -9.437;  751.703
475.094;   93.968;   -6.747;  806.570
475.683;   93.547;   -9.367;  797.699
476.272;   94.462;  -12.637;  730.632
476.861;   97.890;  -10.027;  706.754
477.449;  104.553;   -8.716;  728.487
478.038;   98.288;   -9.577;  692.513
478.627;   99.746;   -9.718;  714.852
479.216;  106.593;   -8.947;  769.441
479.805;  109.108;   -6.256;  783.375
480.393;  109.592;   -7.937; 1008.945
480.982;  108.712;   -7.717;  874.501
481.571;  114.963;   -9.266;  858.333
482.159;  115.906;   -7.636;  705.386
482.748;  116.011;   -9.667;  821.385
483.336;  120.331;  -10.376;  858.209
483.925;  121.764;   -7.147;  774.373
484.513;  128.504;   -7.996;  758.962
485.102;  124.683;  -10.027;  810.965
485.690;  134.164;  -10.446; 1011.050
486.278;  135.641;   -8.446;  979.329
486.867;  137.055;   -6.356;  809.662
487.455;  138.570;   -9.136;  898.229
488.043;  141.369;  -10.646;  748.361
488.631;  150.048;   -7.456; 1005.079
489.220;  153.850;   -6.636;  908.626
489.808;  155.092;  -11.036;  741.415
490.396;  163.248;  -10.246;  914.645
490.984;  170.331;   -8.556;  830.161
491.572;  180.357;   -5.886;  940.315
492.160;  186.472;   -9.486;  919.081
492.748;  200.875;  -10.976;  884.341
493.336;  226.698;   -8.776; 1019.693
493.924;  257.290;   -5.465;  958.077
494.512;  289.049;   -9.986; 1066.638
495.100;  333.350;  -10.636; 1103.280
495.687;  393.578;  -10.885; 1206.373
496.275;  465.283;   -8.126; 1150.796
496.863;  544.929;  -10.586; 1281.171
497.451;  658.299;  -11.926; 1386.805
498.038;  804.815;  -10.885; 1556.729
498.626;  929.955;   -6.315; 1741.407
499.214; 1107.309;   -7.326; 2016.609
499.801; 1324.740;  -11.906; 2220.633
500.389; 1609.215;  -10.466; 2312.494
500.976; 1956.561;   -5.236; 2744.849
501.564; 2466.577;   -8.936; 3148.565
502.151; 2883.400;  -13.176; 3515.999
502.738; 3381.089;  -10.646; 3971.274
503.326; 3827.878;   -9.525; 4403.796
503.913; 4277.062;  -10.856; 5161.749
504.500; 4691.434;  -11.586; 5986.420
505.088; 5197.454;  -10.336; 6381.201
505.675; 5809.678;   -6.355; 6925.547
506.262; 6613.296;   -9.046; 7619.060
506.849; 7400.963;  -10.416; 8733.969
507.436; 7915.446;  -10.305; 9790.121
508.023; 8545.479;   -5.496; 9985.472
508.610; 8856.914;   -7.856;10434.618
509.197; 9574.698;  -10.097;11198.435
509.784;11075.812;  -10.886;12391.194
510.371;12281.104;   -9.315;13603.713
510.958;13081.673;   -9.936;14426.586
511.545;13894.498;   -9.326;15243.775
512.132;14766.365;  -10.075;15945.876
512.719;15303.749;   -7.796;16340.369
513.305;16368.729;  -10.606;18011.766
513.892;17201.430;  -11.486;19754.971
514.479;18668.918;   -9.126;20967.805
515.066;20343.781;   -6.026;22299.793
515.652;21770.066;   -8.466;22908.660
516.239;23039.424;  -10.886;23798.875
516.825;24043.297;  -11.496;25567.275
517.412;25064.430;   -5.796;28154.959
517.998;25804.262;  -10.506;28344.111
518.585;26004.125;  -10.076;27134.219
519.171;26568.672;   -8.315;27268.576
519.758;27960.082;   -8.596;28964.129
520.344;29961.953;   -8.466;30664.494
520.930;29968.664;  -11.006;32550.605
521.516;30983.094;  -10.495;35422.895
522.103;33243.461;   -5.526;38280.004
522.689;33799.387;   -8.746;37835.117
523.275;33379.215;  -11.376;37288.613
523.861;34972.813;  -11.156;37281.395
524.447;36603.887;   -8.135;37846.949
525.033;36406.883;   -7.896;38321.949
525.619;36387.070;  -12.476;38579.285
526.205;37914.832;   -9.516;40622.875
526.791;40643.934;   -6.926;42258.836
527.377;40842.621;   -8.346;42966.902
527.963;42315.316;   -8.717;42018.949
528.549;40807.168;  -11.016;42476.828
529.135;39282.711;   -8.536;41854.852
529.721;38447.242;   -9.666;41237.711
530.306;37509.730;  -10.066;41259.445
530.892;37032.215;  -11.356;41506.047
531.478;38656.445;   -6.596;43559.613
532.063;41872.895;   -8.836;47695.563
532.649;42829.266;  -10.047;50808.324
533.235;43513.527;   -9.746;51787.500
533.820;43732.434;   -6.566;52145.035
534.406;45218.445;  -10.817;51133.488
534.991;45111.625;   -9.416;49996.805
535.576;43487.680;   -9.036;48882.852
536.162;44109.621;   -6.156;46942.285
536.747;44855.320;  -11.607;45711.746
537.333;48161.008;  -11.787;48510.180
537.918;51530.961;  -12.437;50439.891
538.503;50478.195;   -7.196;50863.711
539.088;46711.309;  -10.556;50906.922
539.673;46147.207;   -8.767;52621.965
540.259;46300.168;  -10.026;52368.094
540.844;44004.629;   -7.416;50879.109
541.429;45520.801;   -9.467;52077.777
542.014;48296.777;   -9.527;52716.695
542.599;47463.496;   -9.946;52363.281
543.184;45053.863;   -7.927;53187.137
543.769;46604.496;   -9.297;54697.605
544.354;46202.652;  -10.127;53913.914
544.938;45004.293;   -9.267;49680.164
545.523;47121.758;   -6.506;47386.277
546.108;50072.160;   -9.787;49151.949
546.693;52080.105;  -11.587;51384.637
547.278;51956.422;  -10.986;51853.254
547.862;49269.684;   -8.206;51173.750
548.447;44602.699;  -10.067;51691.395
549.031;43681.410;   -9.637;52456.703
549.616;48707.633;   -9.926;52714.516
550.201;48295.938;   -6.347;52414.598
550.785;49566.012;   -7.917;52355.059
551.370;48532.652;  -10.867;54589.453
551.954;47861.477;   -9.047;58267.348
552.538;48775.781;   -7.827;59062.176
553.123;47037.480;  -10.287;58115.285
553.707;44563.203;  -12.178;56556.285
554.291;46133.324;   -8.717;56201.668
554.876;48984.988;   -7.457;55335.762
555.460;49209.344;  -10.387;54155.703
556.044;50223.414;   -9.618;53721.484
556.628;48860.160;  -11.567;53731.016
557.212;47815.141;   -8.097;54312.531
557.796;46174.715;  -11.077;53797.773
558.380;46309.137;  -11.108;56145.984
558.964;46919.191;   -9.057;57277.930
559.548;48314.254;   -6.977;56459.641
560.132;46266.871;  -11.457;54434.543
560.716;44531.469;  -11.378;54800.617
561.300;45706.879;   -9.577;57606.945
561.884;47121.973;   -7.127;58972.445
562.467;45398.227;   -7.118;57327.570
563.051;44838.242;  -13.358;54962.434
563.635;46143.594;  -10.178;52594.473
564.219;46325.266;   -7.837;50610.410
564.802;47224.172;  -11.398;49551.180
565.386;47023.035;  -12.788;48370.953
565.969;46323.102;   -9.077;48178.871
566.553;45161.492;   -6.207;49957.305
567.136;46017.879;   -8.568;50369.594
567.720;42431.977;  -11.868;49492.004
568.303;40153.012;   -8.268;50616.352
568.887;40029.781;   -8.698;50727.148
569.470;40324.602;   -6.808;51698.379
570.053;39039.848;  -13.188;52122.078
570.637;37377.008;  -12.037;52536.438
571.220;37558.852;   -8.577;51186.098
571.803;38390.906;   -8.498;51032.762
572.386;40466.145;  -10.498;49609.887
572.969;43099.906;   -9.388;48285.926
573.552;41224.004;   -8.338;47624.285
574.135;39455.484;   -8.518;45498.641
574.718;37194.883;  -13.628;41970.434
575.301;36317.438;  -10.893;41447.137
575.884;35439.996;   -8.158;40923.836
576.467;36509.563;  -10.328;45267.723
577.050;37990.137;  -13.058;48175.543
577.633;39331.664;   -9.458;47729.328
578.216;38556.648;   -8.928;47579.793
578.799;37738.227;   -9.358;47820.996
579.381;36799.477;  -11.388;48115.551
579.964;34788.750;  -11.718;47333.766
580.547;36489.527;   -8.588;46668.969
581.129;37485.035;   -8.859;44466.141
581.712;38234.125;  -10.729;44164.922
582.294;38759.441;  -11.118;46477.855
582.877;38662.891;   -5.218;48244.254
583.459;36487.586;   -8.679;47437.895
584.042;34517.855;  -10.709;46943.219
584.624;34790.340;  -11.669;46792.227
585.206;34396.098;   -8.218;46557.250
585.789;34335.418;  -10.569;45793.773
586.371;37471.188;  -11.859;43836.391
586.953;38388.605;  -10.719;42972.492
587.536;39588.977;   -7.198;42487.211
588.118;39798.770;   -8.720;42086.414
588.700;35791.875;  -10.439;43389.930
589.282;34789.957;   -9.198;43646.039
589.864;35562.141;   -9.199;43438.109
590.446;36550.379;  -11.319;43151.926
591.028;36728.422;  -11.159;42781.867
591.610;35730.719;  -11.779;42839.098
592.192;32850.027;   -7.668;42820.402
592.774;31172.471;  -11.949;40724.277
593.356;29824.121;  -12.129;39874.789
593.937;28574.309;  -10.669;39980.648
594.519;30679.180;   -6.509;42069.633
595.101;32982.801;  -10.849;42976.031
595.683;33325.293;  -11.679;44084.441
596.264;34355.777;   -9.049;43478.797
596.846;33945.746;   -8.849;43803.672
597.427;33790.004;   -9.570;42986.934
598.009;35514.141;  -12.620;42832.219
598.591;35994.059;  -10.039;42580.086
599.172;35219.965;  -10.369;43061.805
599.753;35341.293;   -9.140;41691.469
600.335;36758.453;  -11.430;40692.520
600.916;34773.738;   -9.939;39982.422
601.498;32146.420;   -8.479;40318.617
602.079;30588.260;  -10.920;40670.609
602.660;30287.607;  -11.480;41450.898
603.241;32084.566;  -11.699;41137.738
603.823;30943.242;   -9.579;38868.797
604.404;30108.375;  -10.620;38182.785
604.985;31806.979;  -10.450;38078.047
605.566;31795.365;   -9.129;38056.633
606.147;32024.967;   -7.510;37020.418
606.728;33728.105;  -10.660;37883.359
607.309;32287.982;  -11.740;38748.273
607.890;31711.531;   -9.759;38850.230
608.471;31128.521;   -8.250;37457.918
609.051;30296.902;   -9.240;36066.457
609.632;29193.063;  -12.120;35991.074
610.213;29905.463;   -9.110;37402.641
610.794;30767.217;   -8.030;38383.363
611.374;30332.445;   -8.110;40562.387
611.955;30866.891;  -13.560;38533.727
612.536;32245.033;  -11.400;36951.789
613.116;31964.465;   -8.070;37197.891
613.697;32357.184;  -10.830;38411.125
614.277;30664.033;  -11.641;38673.938
614.858;31475.896;  -13.310;37075.863
615.438;30588.098;   -7.460;35092.906
616.019;28010.594;   -7.601;33666.301
616.599;28753.904;  -12.020;34189.023
617.179;30856.545;  -11.780;36952.047
617.760;31954.580;   -8.570;39582.574
618.340;32993.773;  -11.471;38943.977
618.920;34284.762;  -11.170;37594.156
619.500;33872.984;  -11.071;37866.938
620.080;32644.615;   -7.750;37869.043
620.660;33686.832;  -12.711;36868.617
621.241;35093.191;  -10.211;36352.309
621.821;35481.473;  -10.961;35459.520
622.401;34522.633;   -7.720;35207.414
622.980;33794.727;   -8.981;35980.422
623.560;32224.727;   -9.331;37351.328
624.140;30725.709;   -9.850;34388.582
624.720;25596.379;   -7.451;32368.764
625.300;22153.066;   -9.070;32638.629
625.880;25637.580;  -12.601;34599.035
626.459;29668.254;  -11.751;36831.738
627.039;32793.793;   -9.281;38299.098
627.619;32721.838;   -8.801;38289.574
628.198;31235.746;  -12.071;37220.695
628.778;30335.293;   -9.461;37632.563
629.357;30812.230;   -8.491;38003.012
629.937;30609.898;   -9.721;38402.039
630.516;30100.031;   -9.951;37868.801
631.096;30062.859;  -11.731;35760.410
631.675;32466.016;   -8.572;35225.219
632.254;37589.887;  -11.282;35130.289
632.834;36994.168;  -13.322;35794.570
633.413;35162.660;  -10.301;35788.922
633.992;32533.201;   -8.582;34532.863
634.571;33232.316;   -8.352;33590.113
635.151;36293.855;  -11.912;34943.863
635.730;34676.051;  -10.511;35352.523
636.309;31053.404;   -7.731;35366.605
636.888;28491.205;   -9.952;36165.637
637.467;29105.566;  -11.672;37515.902
638.046;30683.994;   -8.901;39288.695
638.625;33849.398;   -7.912;38279.699
639.204;33597.453;  -10.022;37741.598
639.782;31992.574;  -12.252;38364.551
640.361;28289.152;  -10.041;36740.621
640.940;25421.951;  -11.161;34950.082
641.519;26150.988;   -9.701;34137.398
642.097;29045.645;  -11.271;35654.258
642.676;31968.672;   -8.651;35637.957
643.255;32882.000;   -8.711;36567.074
643.833;32108.457;   -9.581;37809.434
644.412;31934.053;  -13.711;37337.293
644.990;30764.777;  -11.811;37018.531
645.569;30613.750;   -9.411;36518.469
646.147;29861.254;  -10.291;36186.430
646.726;29792.762;  -12.401;36267.688
647.304;31048.754;  -10.411;36647.625
647.882;32805.895;   -9.651;39286.742
648.461;34594.164;   -9.631;39157.703
649.039;32958.258;  -11.881;35412.883
649.617;32065.588;   -9.661;34744.918
650.195;31465.139;   -9.301;35403.098
650.773;30161.418;  -10.511;35053.797
651.352;27552.180;  -11.521;33756.816
651.930;25113.113;  -12.211;31868.773
652.508;23772.803;   -9.171;33121.551
653.086;27823.684;   -9.371;33564.793
653.663;30766.500;  -13.161;34054.668
654.241;29389.240;  -13.031;35693.309
654.819;31026.066;   -9.371;36422.906
655.397;31155.861;  -10.511;38213.484
655.975;30568.512;  -10.371;39507.625
656.553;30371.566;  -10.051;39498.223
657.130;28783.830;  -10.061;40395.480
657.708;27705.061;   -9.561;39242.020
658.286;27664.088;  -11.511;38920.020
658.863;29056.004;  -10.261;40202.898
659.441;32306.580;   -7.531;39677.938
660.018;32058.490;   -9.501;40413.355
660.596;30904.449;  -13.301;39931.414
661.173;32725.947;  -11.211;39604.531
661.750;32637.914;   -9.951;39700.070
662.328;31068.670;   -9.390;39292.809
662.905;30255.543;  -11.330;38235.648
663.482;26390.195;   -9.050;36212.305
664.060;24657.895;   -8.240;35944.945
664.637;27470.713;  -10.050;35170.785
665.214;29220.363;  -11.760;34197.523
665.791;30932.074;  -10.530;34549.520
666.368;29833.787;   -9.690;35118.578
666.945;30190.057;   -9.320;36019.418
667.522;31858.322;  -11.860;36048.438
668.099;31512.293;  -10.770;36243.914
668.676;30198.096;   -6.260;35958.875
669.253;28951.582;   -7.000;37384.730
669.830;29632.396;  -10.190;36779.629
670.407;29453.736;   -9.550;35231.289
670.984;29175.156;   -9.260;35544.270
671.560;29726.629;   -9.280;35466.867
672.137;28999.719;  -11.810;34280.863
672.714;29663.639;  -11.490;34632.863
673.290;30365.213;   -7.740;35135.422
673.867;30601.564;  -10.660;36114.480
674.443;30633.967;  -12.230;36152.859
675.020;28843.979;  -10.450;35327.238
675.596;29663.188;   -9.260;35795.176
676.173;30194.264;  -10.780;35430.355
676.749;30143.275;  -13.690;33549.516
677.326;30116.357;  -11.980;32210.012
677.902;30062.426;   -8.630;32068.871
678.478;29371.984;  -10.730;32583.891
679.054;28611.996;  -10.520;32088.928
679.631;28930.264;  -11.920;30978.848
680.207;30418.092;   -7.490;33160.887
680.783;32005.803;   -9.860;35570.363
681.359;31142.207;  -13.380;36125.184
681.935;30555.693;  -12.480;35240.922
682.511;29969.822;   -7.900;34429.961
683.087;30151.555;   -7.710;34463.680
683.663;29574.578;  -11.480;34648.898
684.239;28412.355;  -14.090;34546.457
684.815;28118.883;   -7.560;35586.375
685.390;28399.932;   -9.910;35821.895
685.966;28836.063;  -11.159;35085.871
686.542;31011.646;  -11.169;34198.230
687.118;33243.500;   -5.959;32847.707
687.693;33671.277;  -10.329;32794.027
688.269;33290.238;  -12.059;33072.367
688.844;31505.793;  -10.909;33141.664
689.420;29451.584;   -8.019;33965.742
689.995;27367.143;   -8.399;34655.523
690.571;26054.924;  -10.949;33576.742
691.146;26471.025;   -9.619;32657.219
691.722;25993.943;   -8.999;32526.979
692.297;25489.771;  -11.589;33014.617
692.872;27106.188;  -11.739;34012.254
693.448;26842.248;  -11.059;34237.434
694.023;26067.012;  -10.139;34142.672
694.598;27999.535;   -9.029;34132.031
695.173;28542.396;  -13.319;34205.250
695.748;27790.336;  -10.169;32882.488
696.323;27950.834;   -8.339;32864.906
696.898;28096.305;   -8.169;33170.004
697.473;27972.969;  -12.309;32432.984
698.048;27383.059;  -10.989;31649.303
698.623;27109.459;   -9.329;30778.141
699.198;28831.111;   -9.849;31140.119
699.773;30031.074;  -12.329;31764.299
700.348;28472.121;  -10.389;31780.816
700.922;28556.334;   -9.269;32046.375
701.497;29482.977;   -9.329;32603.574
702.072;29702.705;  -10.789;34799.871
702.646;28368.527;  -10.839;35793.172
703.221;26126.209;   -9.099;35201.590
703.795;28083.943;  -10.939;34764.527
704.370;28605.311;  -12.859;34307.367
704.944;29040.482;  -11.559;33509.887
705.519;29763.027;   -7.939;31388.584
706.093;31133.463;  -10.499;31340.104
706.668;31727.842;  -11.289;32630.281
707.242;30517.117;  -11.509;32728.779
707.816;28846.127;   -9.639;32947.238
708.390;27305.299;  -11.429;33277.855
708.965;27670.805;  -11.869;33834.336
709.539;27501.816;  -11.689;33709.273
710.113;27927.232;  -10.478;33044.313
710.687;27646.955;  -10.228;31953.992
711.261;26203.893;  -13.698;30505.949
711.835;26045.924;  -13.378;30262.369
712.409;26662.279;   -9.698;31254.447
712.983;28572.773;  -11.898;32754.986
713.557;29612.613;  -15.138;34018.824
714.131;29223.521;  -14.098;34579.625
714.704;28167.506;   -9.958;33890.262
715.278;25972.320;  -10.028;33531.102
715.852;24850.090;  -11.148;33601.660
716.425;25567.068;   -9.068;33515.117
716.999;26449.986;  -10.038;33185.555
717.573;27435.098;   -9.798;33905.996
718.146;28435.939;  -12.378;35199.293
718.720;28508.492;  -11.918;35060.551
719.293;27965.402;   -8.088;34973.230
719.867;30893.039;  -10.888;36394.449
720.440;30864.055;  -11.938;36663.008
721.013;29272.957;  -12.818;35102.426
721.587;27591.906;  -10.298;33985.266
722.160;26464.426;  -10.048;33524.965
722.733;25479.275;  -12.108;32987.043
723.306;25707.025;  -10.818;33066.301
723.880;28051.863;   -8.908;33399.500
724.453;30294.822;   -9.878;33468.297
725.026;29441.346;  -11.188;33816.637
725.599;26592.398;  -11.678;32797.996
726.172;26720.865;   -9.618;33187.434
726.745;27781.965;   -8.258;35136.613
727.318;29126.617;  -12.978;35751.730
727.891;29772.100;  -12.148;35890.430
728.463;29524.516;   -8.968;34822.090
729.036;28385.781;  -10.188;32895.086
729.609;28777.865;  -11.788;31823.225
730.182;25838.979;  -11.788;31445.283
730.754;23416.758;  -10.268;32373.223
731.327;23558.010;   -9.998;33676.820
731.900;23777.824;  -12.228;33417.000
732.472;24931.297;  -13.848;31978.498
733.045;26946.121;   -8.698;30368.777
733.617;26978.301;  -10.607;30574.215
734.190;26687.145;  -11.507;31280.975
734.762;23947.426;  -13.647;31674.412
735.334;22036.732;   -9.767;31247.291
735.907;22573.324;   -9.897;29876.211
736.479;22958.787;  -11.637;29808.488
737.051;22764.914;   -9.567;30233.547
737.623;23652.133;   -8.187;31469.086
738.195;24198.879;  -11.187;31784.225
738.768;26029.305;  -12.337;32120.523
739.340;26532.877;  -12.227;32094.342
739.912;25468.961;  -11.057;31312.680
740.484;24028.365;  -10.207;31946.238
741.056;22727.250;  -10.047;32984.059
741.628;24315.680;  -13.627;33897.715
742.199;26510.092;   -7.177;33213.016
742.771;24844.143;  -10.797;31369.113
743.343;22560.662;  -11.997;31865.473
743.915;21580.814;  -12.867;32388.631
744.487;21614.217;   -7.617;31079.568
745.058;21860.023;   -9.557;30570.107
745.630;22242.830;   -9.877;29970.127
746.201;23110.432;  -14.177;29186.766
746.773;23784.391;   -9.237;28805.723
747.344;23685.350;   -9.847;29591.223
747.916;22106.244;  -11.657;31412.201
748.487;22229.225;  -10.587;32194.898
749.059;23376.813;   -8.707;32533.719
749.630;23966.986;  -10.537;32158.518
750.201;22891.945;  -11.687;30855.395
750.773;21166.607;  -11.647;28622.555
751.344;21240.701;   -7.147;28405.732
751.915;22565.043;   -9.757;28461.551
752.486;22649.139;  -12.427;27842.850
753.057;20349.754;  -12.227;27845.008
753.628;18962.961;  -10.417;27728.107
754.199;19930.705;  -11.767;27381.086
754.770;21029.742;  -11.187;25882.203
755.341;21172.998;  -10.507;25886.184
755.912;21296.330;   -9.387;26050.861
756.483;20874.520;  -10.647;26798.779
757.054;19151.885;  -11.837;27048.238
757.625;17848.033;  -12.716;26294.838
758.195;17532.443;   -9.666;26142.076
758.766;17193.275;   -8.656;26392.234
759.337;17914.637;  -12.856;26334.594
759.907;19541.242;  -13.366;27579.652
760.478;20541.268;   -8.576;28352.770
761.048;20048.045;  -10.526;27325.088
761.619;19092.574;  -11.116;26460.428
762.189;19031.941;  -12.136;26029.826
762.760;19990.883;   -9.456;26430.145
763.330;21140.600;   -7.136;26670.902
763.900;20686.672;  -11.786;26603.021
764.471;18239.820;  -11.546;25542.740
765.041;16944.250;   -8.096;24358.459
765.611;16965.029;   -8.876;23991.297
766.181;17318.373;  -12.196;24470.236
766.751;18195.111;  -11.636;24845.975
767.321;17979.840;  -10.156;24533.633
767.891;16192.973;  -11.766;24916.492
768.461;15711.046;  -14.936;24776.771
769.031;16252.312;  -12.356;24757.988
769.601;17809.756;   -7.526;24181.088
770.171;17645.971;  -10.766;23670.387
770.741;16728.049;  -13.176;22960.045
771.311;16721.564;  -10.616;22917.523
771.880;17103.535;   -9.576;23562.941
772.450;16745.234;  -10.336;24216.500
773.020;16635.832;  -13.516;24140.398
773.589;15961.412;  -13.466;24414.857
774.159;15326.686;   -8.686;23858.717
774.729;14978.528;   -9.476;22942.135
775.298;14576.788;  -13.666;22324.033
775.867;14246.201;  -11.716;21140.313
776.437;14402.344;   -9.906;20838.092
777.006;14262.753;  -12.166;20599.510
777.576;14140.294;  -12.356;20508.809
778.145;14213.374;  -11.646;20732.947
778.714;14125.526;   -8.226;21062.465
779.283;13426.798;   -9.556;20949.664
779.853;12838.593;  -14.116;20508.623
780.422;13262.722;  -11.506;20649.082
780.991;12881.586;   -9.556;21527.520
781.560;11704.471;   -9.095;22632.658
782.129;11487.887;  -12.135;23048.277
782.698;11546.161;  -10.865;23438.555
783.267;11191.953;   -9.335;23267.734
783.836;11121.016;  -11.045;22415.133
784.404;12085.977;  -13.865;20443.152
784.973;12698.444;  -13.095;19699.150
785.542;12617.240;  -11.575;19763.828
786.111;12390.580;   -9.705;20341.408
786.679;11936.591;  -12.105;20207.967
787.248;11731.371;  -12.455;19516.465
787.817;11597.406;  -11.535;18900.363
788.385;11156.088;   -9.765;17879.121
788.954;10550.064;  -14.005;17658.301
789.522;10044.544;  -11.955;17788.879
790.090;10588.035;  -10.135;18118.277
790.659;11027.396;  -10.975;18338.736
791.227;10543.017;  -13.375;18508.615
791.795;10880.090;  -12.375;17898.254
792.364;11257.760;  -10.725;17295.133
792.932;11636.469;   -9.715;16822.051
793.500;11831.054;  -12.675;17040.148
794.068;11984.529;  -13.495;17179.787
794.636;12090.863;  -10.885;16664.246
795.204;11481.868;  -11.045;16524.545
795.772;11532.104;  -13.175;17274.564
796.340;11073.102;  -12.445;17891.002
796.908;10843.011;   -9.735;17648.561
797.476;10756.902;   -9.815;17064.080
798.044;10377.669;  -13.985;16672.777
798.612; 9636.771;  -13.115;17023.996
799.180; 9254.031;  -10.185;16561.615
799.747; 9179.572;   -9.055;15962.773
800.315; 8927.647;  -12.385;15296.992
800.883; 8630.521;  -15.035;14801.771
801.450; 8659.104;  -10.365;14534.430
802.018; 8718.763;   -9.855;14173.248
802.585; 8852.451;  -11.905;14029.547
803.153; 8886.692;  -11.585;13836.846
803.720; 8661.394;   -9.095;13567.324
804.287; 8181.482;   -9.135;13360.622
804.855; 7777.012;  -11.604;13681.981
805.422; 7651.249;  -11.794;13536.560
805.989; 7642.974;  -10.734;13355.958
806.556; 7749.558;  -10.444;13747.896
807.124; 7941.715;  -12.764;13987.376
807.691; 7924.029;  -12.964;14038.674
808.258; 7756.744;  -11.134;14120.152
808.825; 7489.823;   -9.854;13860.111
809.392; 7597.449;  -10.504;13268.790
809.959; 7127.299;  -13.054;12680.389
810.526; 6661.146;   -8.294;12427.308
811.093; 6679.214;   -8.394;12030.105
811.659; 7314.563;  -12.304;11653.664
812.226; 7867.215;  -13.944;11637.183
812.793; 7642.355;  -10.484;11611.521
813.360; 7051.169;  -10.144;11885.181
813.926; 6727.293;  -11.684;12770.539
814.493; 6493.682;  -13.644;12677.638
815.060; 6096.877;   -9.724;11974.336
815.626; 6086.146;   -9.854;11594.715
816.193; 6484.453;  -13.254;11579.474
816.759; 6511.201;  -13.204;11666.972
817.325; 6543.296;   -9.434;11325.530
817.892; 6885.733;  -10.134;11105.369
818.458; 7295.323;  -13.474;10843.928
819.024; 6946.870;  -11.854;10714.406
819.591; 6665.515;  -10.244;10469.165
820.157; 6470.065;  -10.704;10235.523
820.723; 5970.400;  -12.324;10847.563
821.289; 5685.271;   -9.444;11040.980
821.855; 5640.411;   -8.374;10357.100
822.421; 5682.702;  -10.234; 9978.918
822.987; 5720.025;  -13.294; 9754.177
823.553; 5413.587;  -10.884;10065.755
824.119; 5215.922;   -8.884;10036.294
824.685; 5312.778;   -6.784;10029.192
825.251; 5418.419;  -12.004;10199.230
825.816; 5387.757;  -11.474; 9820.189
826.382; 5152.273;   -9.174; 9297.248
826.948; 5316.556;   -9.214; 9381.347
827.513; 5729.924;  -10.774; 9450.726
828.079; 5611.389;  -11.924; 9472.444
828.645; 5033.374;  -10.543; 9292.643
829.210; 4906.354;  -10.533; 9065.341
829.776; 4910.978;  -10.753; 9132.620
830.341; 4817.891;  -10.173; 9092.878
830.906; 5016.871;  -10.743; 9078.557
831.472; 5395.959;  -11.113; 8534.535
832.037; 5180.160;  -10.603; 8677.874
832.602; 4630.180;  -13.323; 8628.692
833.167; 4342.730;  -10.823; 8879.031
833.733; 4266.499;  -10.113; 9189.790
834.298; 4427.516;  -13.583; 9052.608
834.863; 4534.779;  -12.703; 8895.087
835.428; 4505.289;  -10.523; 8824.266
835.993; 4350.054;   -6.963; 8845.385
836.558; 4163.141;  -10.763; 8888.563
837.123; 4274.782;   -9.903; 8966.582
837.688; 4526.486;   -9.913; 8617.860
838.253; 4788.711;  -10.283; 8590.699
838.817; 4992.074;  -12.963; 8443.797
839.382; 4909.214;  -14.243; 8799.356
839.947; 4597.367;  -10.733; 8810.595
840.511; 4299.130;   -9.383; 8796.394
841.076; 3916.938;  -12.563; 8347.231
841.641; 3958.358;  -12.953; 8224.330
842.205; 4051.011;   -7.043; 8223.349
842.770; 4135.634;   -8.163; 8622.107
843.334; 4283.534;  -12.503; 8410.386
843.898; 4216.865;  -11.693; 8337.465
844.463; 4236.063;  -10.203; 8506.283
845.027; 4029.697;   -9.533; 8280.962
845.591; 3860.546;  -13.443; 8231.141
846.156; 3861.772;  -13.143; 7969.179
846.720; 3762.809;   -9.433; 7768.278
847.284; 3657.394;  -11.033; 7630.957
847.848; 3533.706;  -10.403; 7472.395
848.412; 3437.948;  -11.553; 7437.394
848.976; 3474.791;   -8.393; 7674.592
849.540; 3397.706;   -8.713; 7836.011
850.104; 3496.140;  -12.463; 7913.669
850.668; 3849.794;  -12.973; 7694.508
851.232; 3959.195;  -10.793; 7756.887
851.796; 3802.749;  -10.662; 7926.545
852.359; 3506.015;  -13.082; 7827.844
852.923; 3321.464;  -12.192; 7641.163
853.487; 3121.537;  -11.912; 7342.501
854.050; 3070.239;  -10.892; 7042.820
854.614; 3208.269;  -13.992; 7151.338
855.177; 3337.996;  -11.732; 7105.077
855.741; 3367.711;   -8.962; 6989.675
856.304; 3248.122;   -9.442; 6596.634
856.868; 3192.281;  -14.192; 6356.272
857.431; 3267.120;  -12.702; 6468.571
857.995; 3368.676;   -9.942; 6373.210
858.558; 3367.157;   -9.112; 6324.448
859.121; 3098.120;  -12.932; 6408.327
859.684; 2963.167;  -13.442; 6347.886
860.247; 3061.815;  -10.632; 6321.264
860.810; 3059.264;  -11.272; 6301.903
861.374; 2811.422;   -9.832; 6607.881
861.937; 2554.604;  -11.762; 6408.200
862.500; 2535.144;   -9.722; 6572.639
863.062; 2700.517;  -10.512; 6387.297
863.625; 2856.560;  -11.232; 6190.836
864.188; 3006.732;  -14.112; 5807.254
864.751; 3070.429;  -11.302; 5682.413
865.314; 2975.091;  -10.112; 5547.492
865.876; 2770.125;  -12.182; 5500.150
866.439; 2743.167;  -10.722; 5415.909
867.002; 2689.927;   -9.252; 5501.567
867.564; 2501.699;   -9.572; 5413.946
868.127; 2291.267;  -13.142; 5160.325
868.689; 2192.207;  -12.902; 5133.183
869.252; 2101.259;   -9.732; 5252.382
869.814; 2014.312;   -9.432; 5297.141
870.377; 2016.717;  -11.552; 5390.919
870.939; 2073.502;   -9.052; 5599.898
871.501; 2130.982;  -10.982; 5248.336
872.063; 2131.931;  -12.292; 4854.235
872.626; 2091.059;  -14.912; 4817.074
873.188; 2119.156;  -13.112; 4987.732
873.750; 2096.958;  -13.442; 4868.651
874.312; 1995.620;   -9.402; 4779.330
874.874; 1913.713;  -11.062; 4866.348
875.436; 1829.350;  -13.931; 4718.887
875.998; 1823.792;   -9.561; 4660.005
876.560; 1857.741;  -11.321; 4462.964
877.122; 1806.742;  -12.221; 4145.042
877.683; 1716.113;  -12.191; 4056.481
878.245; 1644.038;  -12.101; 3950.740
878.807; 1678.009;   -8.971; 4058.958
879.369; 1697.699;  -12.071; 3954.677
879.930; 1602.928;  -14.621; 3941.495
880.492; 1544.158;  -10.311; 4067.014
881.053; 1517.876;  -10.901; 3859.633
881.615; 1428.681;  -14.411; 3776.071
882.176; 1331.304;  -13.761; 3734.750
882.738; 1278.473;   -9.181; 3678.489
883.299; 1251.897;  -11.791; 3405.407
883.860; 1254.734;  -13.121; 3351.106
884.422; 1254.783;  -11.211; 3394.044
884.983; 1215.168;  -10.091; 3166.443
885.544; 1143.786;   -8.461; 3189.802
886.105; 1064.411;  -12.361; 3160.360
886.666; 1001.770;  -14.141; 3093.059
887.227;  948.680;  -11.361; 2941.957
887.788;  890.044;  -11.401; 2974.836
888.349;  832.602;  -13.791; 2721.214
888.910;  831.214;  -13.191; 2696.493
889.471;  836.763;   -9.881; 2560.172
890.032;  818.929;   -9.881; 2558.190
890.593;  798.624;  -10.371; 2567.669
891.153;  771.154;  -13.301; 2460.307
891.714;  723.280;  -11.431; 2372.046
892.275;  689.856;  -11.291; 2309.505
892.835;  655.038;  -11.471; 2382.543
893.396;  605.120;  -11.541; 2295.502
893.956;  552.399;  -11.181; 2162.420
894.517;  513.490;  -11.741; 2125.439
895.077;  506.641;  -11.671; 2086.978
895.638;  507.803;  -11.311; 2126.316
896.198;  481.057;   -9.831; 1838.275
896.758;  437.139;   -8.421; 1892.813
897.319;  407.818;  -12.351; 1792.232
897.879;  393.300;  -13.511; 1762.751
898.439;  367.092;  -12.001; 1661.149
898.999;  343.501;  -10.180; 1781.468
899.559;  335.587;  -12.030; 1703.347
900.119;  331.947;  -15.710; 1537.525
900.679;  326.204;   -8.900; 1638.384
901.239;  311.567;   -8.340; 1527.902
901.799;  299.538;  -13.910; 1456.441
902.359;  294.682;  -13.460; 1357.140
902.919;  289.454;  -11.490; 1331.118
903.479;  275.882;  -12.110; 1317.257
904.038;  256.125;  -11.720; 1262.595
904.598;  241.598;  -13.610; 1152.034
905.158;  237.271;  -11.040; 1240.893
905.717;  229.731;  -10.900; 1233.691
906.277;  220.249;  -15.080; 1217.330
906.836;  210.110;  -13.380; 1222.408
907.396;  202.366;  -10.780; 1193.047
907.955;  195.303;   -8.500; 1182.526
908.515;  188.987;  -12.760; 1099.364
909.074;  183.212;  -11.900; 1092.863
909.633;  177.883;   -8.950; 1069.121
910.192;  173.370;   -8.770; 1196.460
910.752;  168.438;  -12.390; 1029.960
911.311;  164.139;  -13.680; 1009.780
911.870;  161.258;  -12.370;  971.460
912.429;  162.285;  -10.900; 1094.080
912.988;  160.744;  -11.690; 1081.060
913.547;  157.142;  -13.240;  940.380
914.106;  151.826;  -11.990;  999.420
914.665;  148.432;   -9.990;  984.020
915.224;  147.854;  -12.880; 1035.760
915.782;  148.117;  -12.350;  922.560
916.341;  147.616;   -9.110; 1049.840
916.900;  143.495;   -9.270;  925.260
917.458;  142.055;  -13.240;  884.220
918.017;  141.883;  -13.550;  942.600
918.576;  141.453;  -12.320;  904.440
919.134;  139.144;  -11.490;  837.980
919.693;  137.145;  -13.670;  893.060
920.251;  135.457;  -15.470;  876.500
920.809;  134.199;  -11.290;  839.580
921.368;  134.267;  -10.210;  885.360
921.926;  133.382;  -12.140;  842.940
922.484;  131.676;  -13.080;  903.360
923.042;  131.896;  -11.720;  880.340
923.601;  134.186;   -7.480;  998.680
924.159;  133.015;  -11.570;  935.560
924.717;  130.008;  -13.840;  841.080
925.275;  129.462;  -10.640;  903.240
925.833;  128.741;  -11.540;  779.320
926.391;  129.958;  -12.960;  938.380
926.949;  128.483;  -14.130;  857.680
927.506;  128.865;  -11.750;  903.500
928.064;  129.358;  -10.250;  877.580
928.622;  127.457;  -13.030;  880.100
929.180;  128.612;  -13.400;  814.180
929.737;  128.899;  -10.700;  808.540
930.295;  132.382;  -10.070;  928.480
930.853;  133.853;  -11.960;  849.100
931.410;  134.292;  -13.120;  821.120
931.968;  133.637;  -10.770;  940.660
932.525;  133.543;  -10.680;  909.380
933.082;  133.750;  -13.130;  811.440
933.640;  135.211;  -13.210;  925.900
934.197;  133.088;  -11.060;  886.360
934.754;  134.478;   -9.580;  897.780
935.312;  135.414;  -14.000;  863.340
935.869;  140.239;  -10.710; 1012.980
936.426;  141.366;   -9.860;  872.800
936.983;  141.943;   -9.710;  889.020
937.540;  141.321;  -13.990;  838.280
938.097;  140.273;  -14.040;  940.120
938.654;  141.243;  -10.310;  898.860
939.211;  143.422;  -10.560;  952.480
939.768;  146.047;  -13.900;  915.420
940.324;  150.021;  -14.760;  904.200
940.881;  150.627;  -10.370;  878.500
941.438;  151.898;   -8.260; 1021.200
941.995;  147.484;  -12.540;  992.560
942.551;  144.780;  -14.670;  875.620
943.108;  145.788;  -10.450;  937.920
943.664;  147.560;  -10.750;  869.340
944.221;  150.758;  -11.550; 1088.140
944.777;  148.343;  -14.770;  869.680
945.334;  149.681;  -12.820;  884.840
945.890;  150.439;  -10.130;  946.480
946.446;  151.178;  -13.470;  947.020
947.003;  152.351;  -12.120;  964.940
947.559;  155.258;   -9.980; 1063.040
948.115;  154.794;   -9.080; 1026.540
948.671;  152.771;  -10.830;  967.300
949.227;  149.218;  -12.440;  859.560
949.783;  147.231;  -12.910;  858.900
950.339;  149.146;  -10.270;  991.000
950.895;  149.221;  -13.630; 1023.840
951.451;  148.328;  -15.100;  925.280
952.007;  148.537;  -11.330;  998.540
952.563;  148.169;  -10.580;  937.780
953.118;  147.460;  -13.440;  904.940
953.674;  147.734;  -12.710;  935.780
954.230;  148.306;  -10.350;  949.640
954.785;  145.492;   -9.190;  936.640
955.341;  142.469;  -11.200;  998.160
955.897;  140.643;  -16.560;  834.660
956.452;  142.453;  -12.570;  953.840
957.008;  141.704;   -7.970; 1083.640
957.563;  139.128;  -11.940; 1009.540
958.118;  133.672;  -13.450;  877.700
958.674;  133.658;  -12.030;  946.780
959.229;  133.975;   -9.410; 1013.980
959.784;  132.548;  -12.000;  832.400
960.339;  132.093;  -14.780; 1001.280
960.894;  128.259;   -9.860;  963.760
961.449;  124.919;   -9.970;  859.960
962.004;  126.334;  -10.900; 1212.840
962.559;  120.452;  -13.150;  860.140
963.114;  118.970;  -13.740;  742.480
963.669;  118.162;   -9.820;  915.500
964.224;  116.040;  -13.890;  874.340
964.779;  115.787;  -12.600;  828.420
965.334;  116.223;  -10.950; 1017.860
965.888;  115.050;  -11.170;  875.360
966.443;  117.716;  -12.540;  972.380
966.998;  118.145;  -15.780;  819.460
967.552;  116.652;   -9.760;  908.380
968.107;  113.112;   -9.060;  868.300
968.661;  113.924;  -11.950;  922.440
969.216;  114.274;  -12.800;  856.280
969.770;  114.784;  -11.210;  917.200
970.324;  113.676;  -11.610;  923.140
970.879;  111.023;  -11.370;  947.180
971.433;  107.006;  -12.540;  952.720
971.987;  103.017;  -11.320;  895.340
972.541;  100.104;  -10.720;  917.100
973.095;  100.095;   -9.680; 1009.460
973.649;   99.510;  -11.440;  809.480
974.203;   96.774;  -11.210;  829.040
974.757;   97.452;  -10.240;  855.220
975.311;   97.138;  -13.720;  872.600
975.865;   96.739;  -13.770;  881.820
976.419;   94.663;  -11.690;  857.400
976.973;   94.866;   -9.510;  849.620
977.526;   96.874;  -12.620;  949.920
978.080;   95.163;  -12.010;  796.780
978.634;   97.634;  -10.170;  921.320
979.187;   94.917;   -9.020;  905.400
979.741;   92.867;   -9.820; 1018.380
980.294;   87.475;  -14.870;  789.160
980.848;   85.912;  -12.380;  717.220
981.401;   87.209;  -10.350;  816.540
981.955;   89.783;  -13.720;  844.300
982.508;   88.967;  -11.490;  746.340
983.061;   89.604;  -10.000;  915.260
983.615;   84.633;  -11.480;  798.800
984.168;   81.998;  -13.220;  770.080
984.721;   81.618;  -13.960;  880.760
985.274;   80.542;  -10.870;  867.500
985.827;   79.678;   -9.790;  834.220
986.380;   77.359;  -13.120;  721.340
986.933;   77.076;  -12.450;  864.800
987.486;   75.327;  -10.210;  861.920
988.039;   73.958;   -8.430;  863.100
988.591;   72.082;  -10.520;  893.260
989.144;   69.815;  -14.860;  737.260
989.697;   68.744;  -13.080;  758.740
990.250;   69.711;  -10.150;  858.100
990.802;   68.917;  -13.430;  755.860
991.355;   70.256;  -12.750;  974.880
991.907;   67.549;  -12.040;  864.320
992.460;   64.842;  -11.330;  753.760
993.012;   64.116;  -13.610;  749.540
993.565;   63.603;  -13.460;  711.360
994.117;   65.217;   -9.360;  950.780
994.669;   61.698;  -11.300;  701.320
995.221;   58.902;  -13.540;  791.920
995.774;   57.817;  -13.430;  787.580
996.326;   56.484;  -12.520;  740.220
996.878;   56.063;  -10.950;  838.420
997.430;   54.440;  -14.300;  699.860
997.982;   53.683;  -13.760;  750.140
998.534;   53.214;  -11.530;  739.060
999.086;   51.919;  -10.310;  738.220
999.638;   50.688;  -12.530;  661.380
1000.190;   49.716;  -11.840;  699.320
1000.741;   50.461;  -10.260;  742.700
1001.293;   49.153;   -8.860;  686.020
1001.845;   48.259;  -13.700;  676.640
1002.396;   48.090;  -12.100;  743.400
1002.948;   48.451;  -12.760;  737.400
1003.500;   45.899;  -10.380;  723.780
1004.051;   45.977;  -11.900;  907.580
1004.603;   44.822;  -12.250;  791.820
1005.154;   41.295;  -13.210;  608.980
1005.705;   40.565;  -10.950;  723.960
1006.257;   40.176;  -13.880;  707.220
1006.808;   39.253;  -12.840;  685.460
1007.359;   39.492;  -10.570;  763.240
1007.910;   38.799;   -9.620;  646.640
1008.461;   38.217;  -13.630;  732.940
1009.013;   37.646;  -17.200;  588.340
1009.564;   38.404;  -10.200;  793.520
1010.115;   35.654;  -12.570;  597.040
1010.665;   35.028;  -15.150;  602.160
1011.216;   36.348;  -14.480;  667.920
1011.767;   35.554;  -11.340;  697.920
1012.318;   34.735;   -9.780;  736.980
1012.869;   33.723;  -12.380;  679.000
1013.419;   33.684;  -15.560;  603.120
1013.970;   33.844;  -11.010;  666.640
1014.521;   33.710;  -11.610;  620.620
1015.071;   33.579;  -13.450;  670.380
1015.622;   33.555;  -13.870;  635.460
1016.172;   32.370;  -11.610;  596.820
1016.723;   32.640;  -12.120;  614.380
1017.273;   32.213;  -13.620;  604.160
1017.823;   32.197;  -14.140;  650.340
1018.374;   31.201;  -12.800;  611.760
1018.924;   30.805;  -12.340;  716.880
1019.474;   31.560;  -11.410;  718.880
1020.024;   30.510;  -14.770;  657.580
1020.574;   31.417;   -9.780;  726.160
1021.124;   31.027;   -8.560;  673.580
1021.674;   30.074;  -15.190;  559.120
1022.224;   30.714;  -13.530;  708.940
1022.774;   30.331;  -13.280;  668.820
1023.324;   30.553;  -10.690;  753.520
1023.874;   31.095;  -10.240;  875.760
1024.423;   29.656;  -12.540;  613.700
1024.973;   28.658;  -10.010;  610.760
1025.523;   28.463;  -10.550;  620.960
1026.072;   27.638;  -13.560;  606.420
1026.622;   27.456;  -15.120;  675.740
1027.172;   29.554;  -11.260;  715.660
1027.721;   27.704;  -11.410;  601.220
1028.270;   28.039;  -13.530;  663.400
1028.820;   28.226;  -13.680;  638.080
1029.369;   28.157;  -13.520;  612.700
1029.918;   27.814;  -10.980;  649.840
1030.468;   27.138;  -13.530;  564.780
1031.017;   27.961;  -13.170;  634.800
1031.566;   25.558;  -12.200;  608.900
1032.115;   26.706;   -9.960;  694.500
1032.664;   25.803;  -13.210;  596.480
1033.213;   27.030;  -12.500;  735.420
1033.762;   25.875;  -11.910;  635.620
1034.311;   25.628;   -9.640;  677.220
1034.860;   25.493;  -13.310;  691.000
1035.408;   26.586;  -11.830;  722.720
1035.957;   26.256;  -12.000;  719.540
1036.506;   23.988;  -11.690;  530.800
1037.055;   26.100;  -10.990;  844.320
1037.603;   24.947;  -15.120;  664.000
1038.152;   23.239;  -12.450;  534.760
1038.700;   23.587;  -10.560;  585.740
1039.249;   23.812;  -11.080;  681.220
1039.797;   24.493;  -12.540;  633.360
1040.345;   24.046;  -11.920;  705.420
1040.894;   23.649;  -11.410;  625.300
1041.442;   23.560;  -14.320;  632.200
1041.990;   22.072;  -16.240;  559.160
1042.538;   22.513;  -11.680;  536.180
1043.087;   22.577;  -10.760;  570.860
1043.635;   23.595;  -11.850;  670.500
1044.183;   22.283;  -15.480;  586.400
1044.731;   21.577;  -11.770;  576.000
1045.279;   22.369;  -13.090;  674.920
1045.827;   23.892;  -12.440;  892.400
1046.374;   21.170;  -13.840;  515.420
1046.922;   20.994;  -13.220;  590.580
1047.470;   22.306;  -10.230;  691.300
1048.018;   21.563;  -14.590;  647.960
1048.565;   22.922;  -12.050;  708.600
1049.113;   20.891;  -11.650;  557.000
1049.660;   20.044;  -10.510;  629.660
1050.208;   21.354;  -13.310;  675.640
1050.755;   20.406;  -15.900;  606.580
1051.303;   20.982;  -11.430;  686.820
1051.850;   20.261;   -8.480;  635.120
1052.397;   18.654;  -15.010;  473.960
1052.945;   19.372;  -13.960;  617.760
1053.492;   21.202;  -13.150;  741.840
1054.039;   20.375;   -9.630;  720.180
1054.586;   19.127;  -13.680;  557.240
1055.133;   20.096;  -14.570;  693.140
1055.680;   19.954;  -13.820;  646.620
1056.227;   18.821;  -11.730;  542.780
1056.774;   20.609;  -12.480;  794.980
1057.321;   18.307;  -13.930;  523.260
1057.868;   19.080;  -11.690;  651.320
1058.415;   18.664;   -9.520;  651.980
1058.961;   18.952;  -13.160;  678.940
1059.508;   18.551;  -12.920;  643.820
1060.055;   18.616;  -11.920;  581.780
1060.601;   19.025;  -11.500;  624.300
1061.148;   17.894;  -14.330;  616.820
1061.694;   17.526;  -16.870;  592.580
1062.241;   18.543;  -10.330;  596.320
1062.787;   17.516;  -10.620;  663.140
1063.334;   18.867;  -10.110;  808.560
1063.880;   17.500;  -13.400;  668.360
1064.426;   17.461;  -10.680;  706.820
1064.972;   16.583;   -9.920;  601.340
1065.518;   15.592;  -10.980;  566.640
1066.065;   17.508;  -14.890;  624.460
1066.611;   16.410;  -12.870;  598.800
1067.157;   17.079;  -12.950;  641.860
1067.703;   15.674;  -13.540;  668.480
1068.249;   17.013;  -13.540;  605.220
1068.794;   16.318;  -12.600;  626.880
1069.340;   14.986;  -10.620;  578.960
1069.886;   15.734;  -12.830;  590.700
1070.432;   15.096;  -14.870;  541.720
1070.977;   15.134;  -11.980;  601.080
1071.523;   15.762;   -8.200;  573.060
1072.068;   15.015;  -12.330;  582.000
1072.614;   15.516;  -16.370;  527.760
1073.160;   15.736;  -11.100;  687.040
1073.705;   14.527;  -10.480;  572.520
1074.250;   14.551;  -14.520;  559.900
1074.796;   15.787;  -11.460;  655.160
1075.341;   15.672;  -11.950;  664.100
1075.886;   14.662;  -11.460;  594.240
1076.431;   14.350;  -13.770;  649.880
1076.976;   14.031;  -12.680;  639.220
1077.521;   14.549;  -13.170;  583.080
1078.067;   13.246;  -10.860;  579.400
1078.612;   14.156;  -13.920;  661.620
1079.156;   13.662;  -13.880;  601.540
1079.701;   14.171;  -13.120;  693.260
1080.246;   14.246;   -9.940;  696.300
1080.791;   13.730;  -14.740;  625.020
1081.336;   13.831;  -13.750;  659.320
1081.880;   13.464;  -13.400;  649.680
1082.425;   12.505;  -12.220;  573.480
1082.970;   13.023;  -11.610;  717.040
1083.514;   12.837;  -13.580;  597.000
1084.059;   12.858;  -12.810;  586.720
1084.603;   12.419;  -12.320;  565.840
1085.147;   12.507;  -13.190;  645.220
1085.692;   13.493;  -12.480;  716.800
1086.236;   11.568;  -13.020;  503.140
1086.780;   13.352;   -9.190;  751.440
1087.325;   11.812;  -12.480;  654.620
1087.869;   12.122;  -12.450;  610.700
1088.413;   12.288;  -12.240;  705.040
1088.957;   10.556;   -9.020;  543.400
1089.501;   13.416;  -10.320;  766.640
1090.045;   12.201;  -12.720;  726.480
1090.589;   10.026;  -13.690;  569.920
1091.133;   11.592;  -10.020;  673.340
1091.676;   11.568;  -12.330;  591.940
1092.220;   10.969;  -14.970;  600.920
1092.764;   11.263;  -12.430;  706.960
1093.307;   11.645;   -9.800;  673.780
1093.851;    9.501;  -14.970;  556.540
1094.395;   11.214;  -15.310;  683.140
1094.938;   10.663;  -10.370;  632.520
1095.482;   10.650;  -11.050;  559.800
1096.025;   11.520;  -11.840;  710.880
1096.568;   10.939;  -12.840;  779.280
1097.112;    8.467;  -14.700;  508.180
1097.655;   10.306;   -8.720;  603.000
1098.198;    9.062;  -13.610;  600.180
1098.741;    9.188;  -13.350;  612.860
1099.285;   10.498;  -11.230;  657.300
1099.828;    8.281;  -11.840;  439.400
1100.371;    8.889;  -10.840;  608.160
1100.914;    9.591;  -14.190;  682.660
1101.457;    9.209;  -11.240;  679.900
1101.999;    8.162;  -11.270;  584.680
1102.542;    9.295;  -11.480;  641.440
1103.085;    8.933;  -11.750;  658.500
1103.628;    8.990;  -11.400;  762.060
1104.170;    8.390;  -10.490;  588.280
1104.713;    9.122;  -10.600;  646.700
1105.256;    8.282;  -14.360;  557.440
1105.798;    7.507;  -13.210;  499.980
1106.341;    9.692;  -10.270;  728.900
1106.883;    7.769;  -12.200;  521.340
1107.425;    8.022;  -13.110;  668.180
1107.968;    8.501;  -12.840;  612.380
1108.510;    8.777;   -6.480;  684.960
1109.052;    6.504;  -13.940;  612.620
1109.594;    6.815;  -13.690;  554.440
1110.136;    8.218;  -11.880;  643.220
1110.679;    7.058;   -9.500;  633.080
1111.221;    7.903;  -14.160;  604.460
1111.763;    7.242;  -13.980;  559.220
1112.304;    6.812;  -13.880;  547.140
1112.846;    7.190;  -12.210;  666.240
1113.388;    9.733;  -11.390;  942.180
1113.930;    7.060;  -14.540;  694.200
1114.472;    6.351;  -12.640;  606.540
1115.013;    5.033;  -11.620;  551.280
1115.555;    5.733;  -13.640;  587.100
1116.097;    5.144;  -15.380;  579.480
1116.638;    6.750;  -12.640;  684.600
1117.180;    7.235;   -9.850;  667.740
1117.721;    5.772;  -13.690;  568.580
1118.262;    6.417;  -12.680;  677.960
1118.804;    7.102;  -12.530;  637.340
1119.345;    5.614;  -11.690;  578.400
1119.886;    5.678;  -13.380;  704.040
1120.427;    5.681;  -14.070;  589.020
1120.969;    5.211;  -13.500;  597.920
1121.510;    5.123;  -11.480;  563.060
1122.051;    5.390;  -12.830;  723.580
1122.592;    4.855;  -14.290;  655.420
1123.133;    3.879;  -12.400;  547.940
1123.673;    5.647;  -10.130;  706.480
1124.214;    4.839;  -12.930;  612.460
1124.755;    6.118;  -14.380;  639.460
1125.296;    5.688;  -14.000;  627.320
1125.836;    5.407;  -10.070;  691.500
1126.377;    4.170;  -12.640;  599.660
1126.918;    4.637;  -12.960;  614.980
1127.458;    3.920;  -13.350;  622.220
1127.999;    4.432;  -10.750;  656.980
1128.539;    5.106;  -12.350;  694.240
1129.079;    3.949;  -14.860;  632.720
1129.620;    3.801;  -13.840;  558.100
1130.160;    3.344;  -12.330;  539.480
1130.700;    4.170;  -14.530;  640.840
1131.240;    4.313;  -12.530;  643.700
1131.781;    3.496;  -14.450;  619.680
1132.321;    3.254;   -9.790;  599.120
1132.861;    2.364;  -14.860;  564.200
1133.401;    2.892;  -14.290;  593.940
1133.941;    3.186;  -11.750;  626.280
1134.481;    3.087;   -9.920;  597.580
1135.020;    2.711;  -12.290;  609.160
1135.560;    3.686;  -11.650;  674.940
1136.100;    2.473;  -16.270;  501.160
1136.640;    2.892;  -10.890;  510.480
1137.179;    1.636;  -14.180;  537.960
1137.719;    2.695;  -16.250;  605.400
1138.258;    2.247;  -14.230;  587.360
1138.798;    2.900;   -9.090;  663.780
1139.337;    1.452;  -15.130;  482.840
1139.877;    2.801;  -13.680;  642.360
1140.416;    4.148;  -11.320;  878.060
1140.955;    1.520;  -10.860;  535.380
1141.494;    2.424;  -12.920;  669.280
1142.034;    1.877;  -13.930;  583.520
1142.573;    2.218;  -11.440;  646.280
1143.112;    1.865;  -12.000;  553.480
1143.651;    1.545;  -13.670;  536.480
1144.190;    2.641;  -12.730;  691.640
1144.729;    2.268;  -14.560;  607.420
1145.267;    1.433;  -11.830;  584.900
1145.806;    2.317;  -12.230;  637.040
1146.345;    0.622;  -14.130;  635.020
1146.884;    1.094;  -11.590;  622.500
1147.422;    0.117;  -12.550;  533.060
1147.961;    2.969;  -11.180;  708.460
1148.500;    1.972;  -11.510;  669.720
1149.038;    1.821;  -11.640;  632.500
1149.577;    1.815;  -10.130;  698.640
1150.115;   -0.858;  -13.970;  452.280
1150.653;    0.653;  -14.520;  607.340
1151.192;    0.650;  -12.810;  552.920
1151.730;    1.135;   -9.100;  652.560
1152.268;   -0.133;  -12.220;  589.520
1152.806;    0.145;  -14.140;  571.180
1153.344;   -0.920;  -12.350;  577.640
1153.882;    0.488;   -8.980;  600.060
1154.421;   -0.829;  -15.190;  470.620
1154.958;   -0.148;  -15.210;  595.240
1155.496;    0.971;  -12.850;  645.280
1156.034;    0.308;   -9.940;  721.880
1156.572;    0.970;  -13.570;  667.060
1157.110;   -0.413;  -14.590;  473.940
1157.647;    0.461;  -13.030;  676.960
1158.185;   -0.353;  -12.140;  564.320
1158.723;   -1.638;  -14.390;  509.200
1159.260;   -0.053;  -14.090;  701.700
1159.798;    0.514;  -11.920;  658.160
1160.335;   -0.611;  -11.110;  631.820

