
Integration time [ms]:   3.276
Averaging Nr. [scans]: 1000
Smoothing Nr. [pixels]: 0
Data measured with spectrometer [name]: 7414430SP
Wave   ;Sample   ;Dark     ;Reference
[nm]   ;[counts] ;[counts] ;[counts] 

288.544;  148.970;    7.793;  793.890
289.143;  152.866;    7.462;  681.602
289.742;  153.057;    8.602;  828.814
290.341;  137.532;    1.321;  789.841
290.940;  126.650;   -0.709;  730.702
291.538;  128.144;    0.881;  881.108
292.137;  128.511;    0.122;  792.581
292.736;  132.118;   -1.929;  975.101
293.335;  129.861;   -8.229;  735.086
293.934;  129.307;   -5.279;  781.677
294.532;  127.339;   -1.369; 1031.958
295.131;  113.329;   -7.641;  834.394
295.730;  113.857;   -8.420;  809.588
296.328;  113.863;   -5.611;  783.442
296.927;  114.094;   -5.781;  779.652
297.525;  114.767;   -6.361;  781.236
298.124;  105.045;  -11.382;  654.009
298.722;  109.585;   -7.641;  761.933
299.321;  107.276;   -6.811;  708.597
299.919;  104.700;   -6.991;  751.918
300.518;  102.574;  -10.362;  689.338
301.116;  104.038;   -9.581;  691.381
301.715;  103.440;   -4.891;  730.222
302.313;  102.474;   -8.801;  704.943
302.911;   97.082;   -8.522;  733.830
303.509;  103.460;   -6.171;  925.627
304.108;  100.763;   -7.311;  760.383
304.706;  100.788;   -8.321;  801.664
305.304;   94.607;  -10.222;  796.707
305.902;  100.502;   -6.021;  784.484
306.500;   96.129;   -4.971;  728.200
307.098;   93.569;   -7.061;  746.560
307.696;   91.829;   -8.801;  780.432
308.294;   93.037;   -6.411;  731.359
308.892;   94.775;   -2.901;  759.769
309.490;   90.680;   -5.041;  712.161
310.088;   89.798;   -5.002;  788.444
310.686;   93.403;   -2.041;  821.749
311.284;   89.473;   -2.351;  766.040
311.882;   86.474;   -4.422;  731.225
312.480;   83.975;   -4.192;  697.167
313.078;   85.703;   -1.172;  808.331
313.675;   85.966;   -2.601;  691.600
314.273;   81.736;   -1.312;  797.837
314.871;   81.111;   -3.942;  589.829
315.468;   78.564;   -2.802;  652.090
316.066;   81.229;   -0.701;  694.427
316.664;   74.285;   -4.362;  656.351
317.261;   77.975;   -2.872;  910.128
317.859;   73.941;   -2.022;  768.735
318.456;   75.114;   -0.531;  830.096
319.054;   70.400;   -3.912;  787.828
319.651;   68.335;   -4.752;  759.928
320.249;   68.087;   -2.602;  810.188
320.846;   65.429;   -0.821;  714.286
321.443;   63.172;   -4.642;  832.135
322.041;   59.939;   -5.002;  812.315
322.638;   57.855;   -3.982;  701.456
323.235;   59.765;   -3.411;  665.683
323.833;   56.041;   -7.361;  740.354
324.430;   52.208;   -8.611;  615.900
325.027;   52.849;   -4.061;  876.855
325.624;   52.935;   -4.031;  644.532
326.221;   49.461;   -7.481;  689.717
326.818;   49.318;   -5.281;  818.332
327.415;   52.957;   -7.460;  748.828
328.012;   52.386;   -5.510;  690.585
328.609;   50.829;   -7.880;  731.389
329.206;   49.124;   -8.331;  778.621
329.803;   49.439;   -5.121;  737.841
330.400;   52.133;   -4.510;  704.260
330.997;   52.704;   -6.441;  817.147
331.594;   51.922;   -8.831;  788.185
332.191;   57.380;   -7.621;  728.722
332.787;   59.024;   -4.591;  844.463
333.384;   58.041;   -7.412;  763.093
333.981;   57.618;   -8.293;  815.687
334.578;   60.437;   -7.052;  708.378
335.174;   62.560;   -3.102;  731.469
335.771;   61.754;   -5.943;  836.456
336.367;   57.943;   -7.393;  710.631
336.964;   62.863;   -4.063;  793.266
337.561;   60.551;   -3.813;  731.112
338.157;   56.357;   -4.654;  911.916
338.754;   53.476;   -7.934;  796.589
339.350;   52.738;   -4.414;  722.493
339.946;   53.999;   -4.664;  773.135
340.543;   46.092;   -6.375;  846.136
341.139;   40.515;   -9.815;  720.836
341.735;   38.896;   -4.526;  772.593
342.332;   37.150;   -4.895;  691.472
342.928;   37.522;   -4.295;  795.394
343.524;   31.683;   -5.476;  761.684
344.120;   28.172;   -5.856;  738.562
344.716;   31.425;   -2.155;  723.717
345.313;   29.232;   -6.275;  795.342
345.909;   23.759;   -8.815;  627.336
346.505;   25.462;   -5.305;  740.247
347.101;   26.586;   -2.674;  827.864
347.697;   26.394;   -4.344;  785.398
348.293;   21.039;   -9.975;  627.244
348.889;   22.140;   -5.774;  745.914
349.485;   21.803;   -5.004;  688.205
350.081;   22.136;   -4.704;  772.592
350.676;   17.564;   -6.635;  691.606
351.272;   22.237;   -4.504;  809.530
351.868;   21.198;   -3.914;  780.497
352.464;   18.247;   -9.044;  723.932
353.059;   14.595;   -8.314;  646.017
353.655;   18.169;   -7.024;  777.063
354.251;   19.160;   -5.343;  759.845
354.846;   14.009;   -8.604;  740.646
355.442;   11.313;   -6.945;  753.071
356.038;   13.388;   -7.564;  751.708
356.633;   13.755;   -5.814;  728.594
357.229;   12.002;   -7.364;  724.757
357.824;    9.694;   -8.024;  703.600
358.420;    9.308;   -9.384;  679.726
359.015;    9.597;   -5.104;  695.357
359.610;    9.831;   -6.854;  763.920
360.206;    4.557;  -10.185;  603.240
360.801;    6.892;   -7.054;  646.503
361.396;    9.950;   -5.034;  725.975
361.992;    5.219;   -8.284;  668.220
362.587;    3.023;   -8.625;  670.160
363.182;    4.652;   -7.674;  689.631
363.777;    5.022;   -5.164;  738.242
364.372;    4.568;   -8.604;  737.314
364.967;    1.186;   -9.055;  680.744
365.563;    5.919;   -6.114;  815.567
366.158;    3.437;   -5.814;  685.161
366.753;    2.564;   -7.854;  649.263
367.348;    1.285;   -7.804;  746.056
367.942;    0.625;   -7.954;  697.298
368.537;    0.568;   -4.984;  754.245
369.132;   -0.071;   -8.564;  703.428
369.727;   -2.861;   -8.855;  638.079
370.322;   -1.729;   -6.245;  580.186
370.917;   -2.271;   -6.425;  710.646
371.511;   -0.143;   -6.294;  861.834
372.106;   -3.203;   -7.685;  776.964
372.701;   -5.351;   -7.335;  585.988
373.296;   -0.661;   -4.564;  863.135
373.890;   -6.055;  -10.235;  647.840
374.485;   -7.647;   -7.885;  691.199
375.079;   -3.192;   -7.324;  738.685
375.674;   -1.988;   -3.494;  812.970
376.268;   -6.658;   -8.525;  691.759
376.863;  -12.460;  -10.086;  580.327
377.457;   -5.652;   -7.025;  662.490
378.052;   -8.298;   -3.585;  764.884
378.646;   -9.403;   -7.595;  741.167
379.240;   -9.004;   -8.335;  721.176
379.835;   -7.907;   -5.785;  636.978
380.429;  -10.732;   -4.335;  562.557
381.023;  -10.505;   -6.805;  779.205
381.617;  -13.148;   -9.195;  680.106
382.212;   -8.986;   -6.905;  685.303
382.806;   -8.950;   -3.745;  760.690
383.400;  -12.294;   -7.745;  672.281
383.994;  -12.844;   -9.765;  664.870
384.588;   -8.764;   -6.564;  697.701
385.182;   -8.610;   -5.344;  726.624
385.776;  -10.662;   -8.514;  706.875
386.370;  -13.732;   -9.555;  681.968
386.964;  -11.885;   -8.715;  684.155
387.558;  -10.043;   -6.174;  598.360
388.152;  -13.878;   -8.725;  681.959
388.745;  -12.038;   -7.965;  814.707
389.339;   -9.980;   -5.924;  747.642
389.933;   -9.205;   -5.524;  695.370
390.527;  -10.276;   -7.114;  859.029
391.120;  -17.195;  -10.725;  595.318
391.714;  -13.394;   -8.035;  711.633
392.308;  -10.732;   -3.574;  780.253
392.901;  -14.496;   -7.245;  642.460
393.495;  -16.571;   -9.285;  595.414
394.089;  -13.675;   -5.895;  760.452
394.682;  -14.327;   -4.295;  697.188
395.275;  -14.757;   -9.875;  719.927
395.869;  -16.317;   -8.485;  667.314
396.462;  -14.440;   -7.455;  616.609
397.056;  -10.550;   -5.424;  776.621
397.649;  -15.660;   -6.605;  731.575
398.242;  -12.717;   -8.224;  712.645
398.836;  -11.186;   -7.474;  766.408
399.429;  -12.841;   -7.094;  631.041
400.022;  -17.057;   -9.475;  665.902
400.615;  -14.695;   -7.145;  805.609
401.208;  -12.068;   -7.174;  691.451
401.802;  -14.390;   -5.515;  699.329
402.395;  -15.824;   -9.875;  683.502
402.988;  -16.942;   -8.845;  696.627
403.581;  -13.404;   -8.874;  646.878
404.174;  -11.282;   -5.324;  686.568
404.767;  -15.183;   -9.575;  638.583
405.360;  -16.878;  -10.965;  621.445
405.953;  -11.041;   -8.764;  759.034
406.545;  -10.535;   -7.514;  725.342
407.138;  -15.204;  -10.025;  618.350
407.731;  -13.560;  -10.034;  613.303
408.324;   -9.351;   -9.374;  660.554
408.917;  -11.306;   -6.534;  681.864
409.509;  -12.867;   -8.004;  740.396
410.102;  -14.308;   -9.875;  643.948
410.695;   -8.666;   -8.604;  665.758
411.287;   -9.518;   -6.794;  599.821
411.880;  -10.780;   -9.334;  585.421
412.472;  -13.995;  -10.254;  613.092
413.065;  -11.027;   -6.714;  629.408
413.657;   -9.216;   -7.234;  576.678
414.250;   -8.689;  -10.544;  646.681
414.842;  -10.584;   -9.744;  676.353
415.434;   -8.389;   -6.994;  570.463
416.027;   -3.834;   -5.893;  652.196
416.619;   -6.892;   -7.264;  713.400
417.211;   -6.922;  -10.374;  599.352
417.804;   -3.179;   -7.993;  628.499
418.396;   -6.972;   -7.234;  607.643
418.988;   -5.139;   -9.443;  659.238
419.580;   -8.730;  -10.724;  568.276
420.172;   -5.889;  -10.323;  536.196
420.764;   -1.827;   -8.793;  672.482
421.356;   -3.464;  -11.143;  636.898
421.948;   -3.939;   -8.293;  677.661
422.540;    0.963;   -7.893;  680.027
423.132;    0.517;   -7.082;  600.641
423.724;   -3.235;   -8.653;  561.267
424.316;   -1.397;  -10.213;  621.345
424.908;    2.125;   -9.762;  591.517
425.500;    3.125;   -5.572;  647.978
426.092;    3.319;   -8.422;  648.268
426.683;    1.918;   -9.283;  684.836
427.275;    5.149;   -7.852;  641.471
427.867;    6.755;   -5.272;  668.948
428.458;    7.348;   -7.682;  732.344
429.050;    5.566;  -10.612;  680.749
429.642;    7.808;   -9.882;  743.124
430.233;    8.501;   -6.962;  569.356
430.825;    9.030;   -6.842;  724.809
431.416;    6.476;   -9.672;  698.241
432.008;   11.422;   -6.552;  651.723
432.599;   12.042;   -6.891;  656.073
433.190;    7.549;  -10.912;  637.670
433.782;    7.505;  -11.172;  590.395
434.373;   15.371;   -6.061;  884.765
434.964;   13.652;   -8.251;  602.920
435.556;   11.307;   -9.722;  634.537
436.147;   14.182;   -9.082;  758.490
436.738;   14.298;   -8.041;  701.099
437.329;   19.439;   -7.341;  721.723
437.920;   12.021;   -8.162;  666.688
438.511;   11.506;  -11.802;  564.526
439.103;   19.169;  -10.191;  623.998
439.694;   20.852;   -7.601;  681.583
440.285;   21.981;   -8.541;  764.432
440.876;   19.016;   -9.751;  845.738
441.466;   18.924;   -9.401;  575.162
442.057;   24.193;   -7.760;  665.814
442.648;   22.737;   -9.971;  746.255
443.239;   20.896;  -11.001;  620.477
443.830;   25.730;   -7.990;  704.958
444.421;   28.849;   -7.910;  655.474
445.011;   24.276;   -8.131;  693.619
445.602;   23.208;   -7.111;  743.126
446.193;   26.305;  -10.920;  488.117
446.783;   31.575;   -6.500;  640.397
447.374;   25.590;   -8.671;  692.759
447.964;   26.700;  -10.781;  713.770
448.555;   34.595;   -9.650;  822.742
449.145;   32.180;   -8.660;  662.853
449.736;   31.416;   -8.990;  803.179
450.326;   31.857;   -9.500;  713.626
450.917;   36.517;   -8.680;  675.324
451.507;   36.051;   -7.520;  600.661
452.097;   36.562;   -8.590;  746.267
452.688;   38.067;  -11.340;  742.160
453.278;   37.667;  -10.100;  566.840
453.868;   42.303;   -6.019;  793.550
454.458;   39.666;   -9.440;  651.141
455.048;   40.462;  -10.560;  711.783
455.639;   42.249;  -11.799;  567.096
456.229;   44.836;   -6.899;  710.694
456.819;   46.642;   -7.389;  751.158
457.409;   46.542;  -11.119;  773.993
457.999;   50.020;   -9.289;  737.505
458.589;   49.900;   -6.139;  686.606
459.179;   48.647;   -8.729;  717.658
459.769;   48.107;   -9.789;  627.099
460.358;   52.987;  -10.259;  797.262
460.948;   52.982;   -7.299;  689.503
461.538;   54.239;  -10.289;  660.677
462.128;   51.879;  -11.269;  664.934
462.717;   59.029;   -9.368;  710.326
463.307;   62.191;   -7.908;  705.846
463.897;   57.203;   -9.599;  656.942
464.486;   56.597;   -9.769;  837.128
465.076;   62.096;   -8.048;  733.776
465.666;   64.045;   -9.358;  652.900
466.255;   61.961;   -7.919;  785.651
466.845;   61.319;  -11.689;  666.749
467.434;   65.022;   -7.818;  725.873
468.023;   65.775;   -7.678;  658.357
468.613;   62.782;  -10.939;  713.946
469.202;   66.875;  -10.118;  646.507
469.791;   71.321;   -9.108;  737.811
470.381;   73.794;   -6.058;  742.813
470.970;   73.234;  -10.428;  711.099
471.559;   72.311;  -10.268;  733.291
472.148;   75.743;   -8.448;  675.737
472.738;   78.694;   -6.917;  765.466
473.327;   77.898;  -11.978;  637.529
473.916;   77.540;  -11.888;  737.446
474.505;   81.995;   -9.437;  751.703
475.094;   85.582;   -6.747;  806.570
475.683;   83.939;   -9.367;  797.699
476.272;   84.422;  -12.637;  730.632
476.861;   87.260;  -10.027;  706.754
477.449;   94.359;   -8.716;  728.487
478.038;   88.554;   -9.577;  692.513
478.627;   90.009;   -9.718;  714.852
479.216;   95.785;   -8.947;  769.441
479.805;   99.826;   -6.256;  783.375
480.393;   98.595;   -7.937; 1008.945
480.982;   97.940;   -7.717;  874.501
481.571;  104.732;   -9.266;  858.333
482.159;  106.166;   -7.636;  705.386
482.748;  104.961;   -9.667;  821.385
483.336;  110.119;  -10.376;  858.209
483.925;  110.913;   -7.147;  774.373
484.513;  117.727;   -7.996;  758.962
485.102;  113.272;  -10.027;  810.965
485.690;  121.805;  -10.446; 1011.050
486.278;  124.342;   -8.446;  979.329
486.867;  125.007;   -6.356;  809.662
487.455;  125.812;   -9.136;  898.229
488.043;  128.059;  -10.646;  748.361
488.631;  137.647;   -7.456; 1005.079
489.220;  141.433;   -6.636;  908.626
489.808;  140.722;  -11.036;  741.415
490.396;  150.422;  -10.246;  914.645
490.984;  156.267;   -8.556;  830.161
491.572;  166.980;   -5.886;  940.315
492.160;  173.052;   -9.486;  919.081
492.748;  186.728;  -10.976;  884.341
493.336;  210.927;   -8.776; 1019.693
493.924;  238.498;   -5.465;  958.077
494.512;  268.880;   -9.986; 1066.638
495.100;  308.574;  -10.636; 1103.280
495.687;  367.734;  -10.885; 1206.373
496.275;  436.018;   -8.126; 1150.796
496.863;  509.997;  -10.586; 1281.171
497.451;  619.306;  -11.926; 1386.805
498.038;  756.722;  -10.885; 1556.729
498.626;  870.591;   -6.315; 1741.407
499.214; 1029.539;   -7.326; 2016.609
499.801; 1241.410;  -11.906; 2220.633
500.389; 1507.768;  -10.466; 2312.494
500.976; 1829.875;   -5.236; 2744.849
501.564; 2295.168;   -8.936; 3148.565
502.151; 2679.236;  -13.176; 3515.999
502.738; 3137.628;  -10.646; 3971.274
503.326; 3541.325;   -9.525; 4403.796
503.913; 3925.642;  -10.856; 5161.749
504.500; 4299.923;  -11.586; 5986.420
505.088; 4730.921;  -10.336; 6381.201
505.675; 5268.275;   -6.355; 6925.547
506.262; 5996.378;   -9.046; 7619.060
506.849; 6713.038;  -10.416; 8733.969
507.436; 7199.954;  -10.305; 9790.121
508.023; 7795.023;   -5.496; 9985.472
508.610; 8063.363;   -7.856;10434.618
509.197; 8706.429;  -10.097;11198.435
509.784;10118.689;  -10.886;12391.194
510.371;11167.762;   -9.315;13603.713
510.958;11863.428;   -9.936;14426.586
511.545;12636.699;   -9.326;15243.775
512.132;13447.353;  -10.075;15945.876
512.719;13951.344;   -7.796;16340.369
513.305;14865.979;  -10.606;18011.766
513.892;15552.187;  -11.486;19754.971
514.479;16864.100;   -9.126;20967.805
515.066;18473.145;   -6.026;22299.793
515.652;19870.982;   -8.466;22908.660
516.239;21018.104;  -10.886;23798.875
516.825;21843.236;  -11.496;25567.275
517.412;22762.924;   -5.796;28154.959
517.998;23407.414;  -10.506;28344.111
518.585;23653.289;  -10.076;27134.219
519.171;24084.518;   -8.315;27268.576
519.758;25409.809;   -8.596;28964.129
520.344;27146.340;   -8.466;30664.494
520.930;27206.746;  -11.006;32550.605
521.516;28510.092;  -10.495;35422.895
522.103;30534.045;   -5.526;38280.004
522.689;30780.406;   -8.746;37835.117
523.275;30264.439;  -11.376;37288.613
523.861;31648.947;  -11.156;37281.395
524.447;33134.426;   -8.135;37846.949
525.033;32896.539;   -7.896;38321.949
525.619;32823.469;  -12.476;38579.285
526.205;34459.840;   -9.516;40622.875
526.791;36708.574;   -6.926;42258.836
527.377;36930.914;   -8.346;42966.902
527.963;38307.230;   -8.717;42018.949
528.549;36769.145;  -11.016;42476.828
529.135;35544.750;   -8.536;41854.852
529.721;34886.988;   -9.666;41237.711
530.306;34216.941;  -10.066;41259.445
530.892;33902.652;  -11.356;41506.047
531.478;35413.691;   -6.596;43559.613
532.063;38126.980;   -8.836;47695.563
532.649;38632.801;  -10.047;50808.324
533.235;39572.535;   -9.746;51787.500
533.820;40005.613;   -6.566;52145.035
534.406;41456.617;  -10.817;51133.488
534.991;41210.273;   -9.416;49996.805
535.576;39592.953;   -9.036;48882.852
536.162;40024.121;   -6.156;46942.285
536.747;40990.715;  -11.607;45711.746
537.333;44653.594;  -11.787;48510.180
537.918;47465.590;  -12.437;50439.891
538.503;46085.695;   -7.196;50863.711
539.088;42750.684;  -10.556;50906.922
539.673;42503.961;   -8.767;52621.965
540.259;42538.625;  -10.026;52368.094
540.844;40481.203;   -7.416;50879.109
541.429;41999.609;   -9.467;52077.777
542.014;44534.590;   -9.527;52716.695
542.599;43657.926;   -9.946;52363.281
543.184;41625.000;   -7.927;53187.137
543.769;43224.340;   -9.297;54697.605
544.354;42565.055;  -10.127;53913.914
544.938;41298.500;   -9.267;49680.164
545.523;43167.023;   -6.506;47386.277
546.108;46052.598;   -9.787;49151.949
546.693;48012.828;  -11.587;51384.637
547.278;47671.973;  -10.986;51853.254
547.862;45062.609;   -8.206;51173.750
548.447;40959.262;  -10.067;51691.395
549.031;40492.449;   -9.637;52456.703
549.616;45111.617;   -9.926;52714.516
550.201;44519.969;   -6.347;52414.598
550.785;45694.195;   -7.917;52355.059
551.370;44476.102;  -10.867;54589.453
551.954;43947.699;   -9.047;58267.348
552.538;44715.309;   -7.827;59062.176
553.123;43258.660;  -10.287;58115.285
553.707;41043.512;  -12.178;56556.285
554.291;42421.172;   -8.717;56201.668
554.876;44766.465;   -7.457;55335.762
555.460;45178.688;  -10.387;54155.703
556.044;46212.836;   -9.618;53721.484
556.628;44988.535;  -11.567;53731.016
557.212;43863.828;   -8.097;54312.531
557.796;42441.188;  -11.077;53797.773
558.380;42697.488;  -11.108;56145.984
558.964;43071.035;   -9.057;57277.930
559.548;44256.020;   -6.977;56459.641
560.132;42635.699;  -11.457;54434.543
560.716;41164.063;  -11.378;54800.617
561.300;42019.824;   -9.577;57606.945
561.884;43038.148;   -7.127;58972.445
562.467;41560.250;   -7.118;57327.570
563.051;41127.797;  -13.358;54962.434
563.635;42105.211;  -10.178;52594.473
564.219;42217.922;   -7.837;50610.410
564.802;43300.711;  -11.398;49551.180
565.386;43325.602;  -12.788;48370.953
565.969;42615.535;   -9.077;48178.871
566.553;41745.910;   -6.207;49957.305
567.136;42371.820;   -8.568;50369.594
567.720;39024.332;  -11.868;49492.004
568.303;36908.902;   -8.268;50616.352
568.887;36967.133;   -8.698;50727.148
569.470;37278.105;   -6.808;51698.379
570.053;36073.910;  -13.188;52122.078
570.637;34584.816;  -12.037;52536.438
571.220;34452.063;   -8.577;51186.098
571.803;35033.488;   -8.498;51032.762
572.386;37314.090;  -10.498;49609.887
572.969;39764.910;   -9.388;48285.926
573.552;37958.625;   -8.338;47624.285
574.135;36426.395;   -8.518;45498.641
574.718;33963.297;  -13.628;41970.434
575.301;32976.348;  -10.893;41447.137
575.884;31989.398;   -8.158;40923.836
576.467;32610.410;  -10.328;45267.723
577.050;33659.012;  -13.058;48175.543
577.633;34518.246;   -9.458;47729.328
578.216;34371.813;   -8.928;47579.793
578.799;34617.301;   -9.358;47820.996
579.381;34180.211;  -11.388;48115.551
579.964;32795.375;  -11.718;47333.766
580.547;34389.746;   -8.588;46668.969
581.129;35529.227;   -8.859;44466.141
581.712;36409.297;  -10.729;44164.922
582.294;37090.527;  -11.118;46477.855
582.877;36846.340;   -5.218;48244.254
583.459;34581.605;   -8.679;47437.895
584.042;32661.611;  -10.709;46943.219
584.624;32998.355;  -11.669;46792.227
585.206;32372.014;   -8.218;46557.250
585.789;32192.857;  -10.569;45793.773
586.371;34936.027;  -11.859;43836.391
586.953;35328.957;  -10.719;42972.492
587.536;36671.230;   -7.198;42487.211
588.118;36523.992;   -8.720;42086.414
588.700;32356.145;  -10.439;43389.930
589.282;30335.021;   -9.198;43646.039
589.864;29191.789;   -9.199;43438.109
590.446;28572.488;  -11.319;43151.926
591.028;29156.184;  -11.159;42781.867
591.610;30667.410;  -11.779;42839.098
592.192;30275.709;   -7.668;42820.402
592.774;29733.002;  -11.949;40724.277
593.356;28659.525;  -12.129;39874.789
593.937;27674.811;  -10.669;39980.648
594.519;29790.383;   -6.509;42069.633
595.101;31967.463;  -10.849;42976.031
595.683;32163.613;  -11.679;44084.441
596.264;33254.414;   -9.049;43478.797
596.846;32750.012;   -8.849;43803.672
597.427;32841.477;   -9.570;42986.934
598.009;34554.836;  -12.620;42832.219
598.591;34944.785;  -10.039;42580.086
599.172;34125.684;  -10.369;43061.805
599.753;34219.414;   -9.140;41691.469
600.335;35667.133;  -11.430;40692.520
600.916;33647.301;   -9.939;39982.422
601.498;31037.746;   -8.479;40318.617
602.079;29608.764;  -10.920;40670.609
602.660;29559.031;  -11.480;41450.898
603.241;31166.555;  -11.699;41137.738
603.823;29909.158;   -9.579;38868.797
604.404;29276.340;  -10.620;38182.785
604.985;30846.295;  -10.450;38078.047
605.566;30801.508;   -9.129;38056.633
606.147;30981.666;   -7.510;37020.418
606.728;32361.871;  -10.660;37883.359
607.309;30940.057;  -11.740;38748.273
607.890;30491.693;   -9.759;38850.230
608.471;29876.207;   -8.250;37457.918
609.051;29050.383;   -9.240;36066.457
609.632;28038.859;  -12.120;35991.074
610.213;28737.893;   -9.110;37402.641
610.794;29371.305;   -8.030;38383.363
611.374;28847.832;   -8.110;40562.387
611.955;29574.137;  -13.560;38533.727
612.536;30991.180;  -11.400;36951.789
613.116;30787.314;   -8.070;37197.891
613.697;30958.229;  -10.830;38411.125
614.277;29418.082;  -11.641;38673.938
614.858;30428.107;  -13.310;37075.863
615.438;29448.820;   -7.460;35092.906
616.019;26831.277;   -7.601;33666.301
616.599;27703.135;  -12.020;34189.023
617.179;29577.996;  -11.780;36952.047
617.760;30609.785;   -8.570;39582.574
618.340;31680.818;  -11.471;38943.977
618.920;32879.781;  -11.170;37594.156
619.500;32557.887;  -11.071;37866.938
620.080;31601.641;   -7.750;37869.043
620.660;32727.844;  -12.711;36868.617
621.241;33926.074;  -10.211;36352.309
621.821;34252.820;  -10.961;35459.520
622.401;33353.328;   -7.720;35207.414
622.980;32665.105;   -8.981;35980.422
623.560;31260.779;   -9.331;37351.328
624.140;29896.063;   -9.850;34388.582
624.720;24758.658;   -7.451;32368.764
625.300;21312.732;   -9.070;32638.629
625.880;24595.396;  -12.601;34599.035
626.459;28380.271;  -11.751;36831.738
627.039;31388.592;   -9.281;38299.098
627.619;31270.906;   -8.801;38289.574
628.198;29822.291;  -12.071;37220.695
628.778;29207.475;   -9.461;37632.563
629.357;29834.609;   -8.491;38003.012
629.937;29635.055;   -9.721;38402.039
630.516;29185.564;   -9.951;37868.801
631.096;29006.680;  -11.731;35760.410
631.675;31569.100;   -8.572;35225.219
632.254;36581.234;  -11.282;35130.289
632.834;35966.934;  -13.322;35794.570
633.413;33976.621;  -10.301;35788.922
633.992;31362.943;   -8.582;34532.863
634.571;32254.305;   -8.352;33590.113
635.151;35389.207;  -11.912;34943.863
635.730;33630.543;  -10.511;35352.523
636.309;30022.436;   -7.731;35366.605
636.888;27489.439;   -9.952;36165.637
637.467;28120.885;  -11.672;37515.902
638.046;29728.137;   -8.901;39288.695
638.625;32765.395;   -7.912;38279.699
639.204;32501.385;  -10.022;37741.598
639.782;31291.246;  -12.252;38364.551
640.361;27932.068;  -10.041;36740.621
640.940;25323.199;  -11.161;34950.082
641.519;25969.771;   -9.701;34137.398
642.097;28467.762;  -11.271;35654.258
642.676;31281.170;   -8.651;35637.957
643.255;31876.064;   -8.711;36567.074
643.833;31001.611;   -9.581;37809.434
644.412;30830.014;  -13.711;37337.293
644.990;29811.730;  -11.811;37018.531
645.569;29596.988;   -9.411;36518.469
646.147;28574.295;  -10.291;36186.430
646.726;28626.928;  -12.401;36267.688
647.304;30019.125;  -10.411;36647.625
647.882;31878.334;   -9.651;39286.742
648.461;33379.234;   -9.631;39157.703
649.039;31552.008;  -11.881;35412.883
649.617;30999.338;   -9.661;34744.918
650.195;30690.705;   -9.301;35403.098
650.773;29260.541;  -10.511;35053.797
651.352;26736.869;  -11.521;33756.816
651.930;24372.598;  -12.211;31868.773
652.508;22924.465;   -9.171;33121.551
653.086;26736.006;   -9.371;33564.793
653.663;29516.521;  -13.161;34054.668
654.241;28360.396;  -13.031;35693.309
654.819;30039.674;   -9.371;36422.906
655.397;30300.023;  -10.511;38213.484
655.975;29807.205;  -10.371;39507.625
656.553;29682.082;  -10.051;39498.223
657.130;28214.391;  -10.061;40395.480
657.708;27509.820;   -9.561;39242.020
658.286;27668.498;  -11.511;38920.020
658.863;29008.732;  -10.261;40202.898
659.441;31951.592;   -7.531;39677.938
660.018;31432.990;   -9.501;40413.355
660.596;30269.270;  -13.301;39931.414
661.173;32171.896;  -11.211;39604.531
661.750;32275.639;   -9.951;39700.070
662.328;30831.043;   -9.390;39292.809
662.905;30125.416;  -11.330;38235.648
663.482;26130.828;   -9.050;36212.305
664.060;24328.383;   -8.240;35944.945
664.637;26949.238;  -10.050;35170.785
665.214;28647.500;  -11.760;34197.523
665.791;30163.525;  -10.530;34549.520
666.368;29097.896;   -9.690;35118.578
666.945;29811.770;   -9.320;36019.418
667.522;31334.322;  -11.860;36048.438
668.099;30930.984;  -10.770;36243.914
668.676;29777.471;   -6.260;35958.875
669.253;28710.434;   -7.000;37384.730
669.830;29450.559;  -10.190;36779.629
670.407;28982.760;   -9.550;35231.289
670.984;28817.070;   -9.260;35544.270
671.560;29521.924;   -9.280;35466.867
672.137;28929.520;  -11.810;34280.863
672.714;29741.422;  -11.490;34632.863
673.290;30237.121;   -7.740;35135.422
673.867;30381.934;  -10.660;36114.480
674.443;30282.658;  -12.230;36152.859
675.020;28751.111;  -10.450;35327.238
675.596;29871.377;   -9.260;35795.176
676.173;30128.588;  -10.780;35430.355
676.749;29848.621;  -13.690;33549.516
677.326;29886.014;  -11.980;32210.012
677.902;29850.891;   -8.630;32068.871
678.478;29203.537;  -10.730;32583.891
679.054;28583.047;  -10.520;32088.928
679.631;28833.180;  -11.920;30978.848
680.207;30457.527;   -7.490;33160.887
680.783;32070.307;   -9.860;35570.363
681.359;31111.047;  -13.380;36125.184
681.935;30565.822;  -12.480;35240.922
682.511;29842.334;   -7.900;34429.961
683.087;30044.689;   -7.710;34463.680
683.663;29521.842;  -11.480;34648.898
684.239;28164.297;  -14.090;34546.457
684.815;27891.326;   -7.560;35586.375
685.390;28406.525;   -9.910;35821.895
685.966;28985.143;  -11.159;35085.871
686.542;31318.682;  -11.169;34198.230
687.118;33433.449;   -5.959;32847.707
687.693;33666.750;  -10.329;32794.027
688.269;33334.211;  -12.059;33072.367
688.844;31531.104;  -10.909;33141.664
689.420;29451.830;   -8.019;33965.742
689.995;27224.762;   -8.399;34655.523
690.571;25881.729;  -10.949;33576.742
691.146;26337.957;   -9.619;32657.219
691.722;25838.852;   -8.999;32526.979
692.297;25509.686;  -11.589;33014.617
692.872;27328.576;  -11.739;34012.254
693.448;26930.619;  -11.059;34237.434
694.023;26046.902;  -10.139;34142.672
694.598;28064.098;   -9.029;34132.031
695.173;28426.898;  -13.319;34205.250
695.748;27600.584;  -10.169;32882.488
696.323;27870.422;   -8.339;32864.906
696.898;28257.781;   -8.169;33170.004
697.473;28010.293;  -12.309;32432.984
698.048;27307.838;  -10.989;31649.303
698.623;27074.076;   -9.329;30778.141
699.198;28956.250;   -9.849;31140.119
699.773;29802.229;  -12.329;31764.299
700.348;28160.869;  -10.389;31780.816
700.922;28377.215;   -9.269;32046.375
701.497;29376.396;   -9.329;32603.574
702.072;29588.924;  -10.789;34799.871
702.646;28094.268;  -10.839;35793.172
703.221;26112.113;   -9.099;35201.590
703.795;28261.418;  -10.939;34764.527
704.370;28517.379;  -12.859;34307.367
704.944;28901.766;  -11.559;33509.887
705.519;29700.961;   -7.939;31388.584
706.093;31135.803;  -10.499;31340.104
706.668;31597.711;  -11.289;32630.281
707.242;30465.811;  -11.509;32728.779
707.816;28874.336;   -9.639;32947.238
708.390;27536.439;  -11.429;33277.855
708.965;27969.041;  -11.869;33834.336
709.539;27805.672;  -11.689;33709.273
710.113;28274.576;  -10.478;33044.313
710.687;27763.938;  -10.228;31953.992
711.261;26325.656;  -13.698;30505.949
711.835;26096.271;  -13.378;30262.369
712.409;26717.924;   -9.698;31254.447
712.983;28634.766;  -11.898;32754.986
713.557;29600.646;  -15.138;34018.824
714.131;29125.725;  -14.098;34579.625
714.704;27998.865;   -9.958;33890.262
715.278;25716.705;  -10.028;33531.102
715.852;24699.154;  -11.148;33601.660
716.425;25604.564;   -9.068;33515.117
716.999;26468.820;  -10.038;33185.555
717.573;27608.305;   -9.798;33905.996
718.146;28780.389;  -12.378;35199.293
718.720;28971.742;  -11.918;35060.551
719.293;28497.268;   -8.088;34973.230
719.867;31323.053;  -10.888;36394.449
720.440;30975.158;  -11.938;36663.008
721.013;29269.852;  -12.818;35102.426
721.587;27813.018;  -10.298;33985.266
722.160;26803.240;  -10.048;33524.965
722.733;25730.326;  -12.108;32987.043
723.306;25980.148;  -10.818;33066.301
723.880;28546.039;   -8.908;33399.500
724.453;30657.928;   -9.878;33468.297
725.026;29649.287;  -11.188;33816.637
725.599;26838.623;  -11.678;32797.996
726.172;27232.639;   -9.618;33187.434
726.745;28280.377;   -8.258;35136.613
727.318;29519.309;  -12.978;35751.730
727.891;30149.850;  -12.148;35890.430
728.463;30072.221;   -8.968;34822.090
729.036;29119.146;  -10.188;32895.086
729.609;29463.846;  -11.788;31823.225
730.182;26323.309;  -11.788;31445.283
730.754;23714.492;  -10.268;32373.223
731.327;23740.074;   -9.998;33676.820
731.900;23999.514;  -12.228;33417.000
732.472;25394.633;  -13.848;31978.498
733.045;27311.625;   -8.698;30368.777
733.617;27323.762;  -10.607;30574.215
734.190;26910.590;  -11.507;31280.975
734.762;24151.994;  -13.647;31674.412
735.334;22461.395;   -9.767;31247.291
735.907;23035.115;   -9.897;29876.211
736.479;23168.506;  -11.637;29808.488
737.051;22992.230;   -9.567;30233.547
737.623;23984.059;   -8.187;31469.086
738.195;24697.773;  -11.187;31784.225
738.768;26547.453;  -12.337;32120.523
739.340;26867.578;  -12.227;32094.342
739.912;25817.502;  -11.057;31312.680
740.484;24297.189;  -10.207;31946.238
741.056;23137.553;  -10.047;32984.059
741.628;24937.988;  -13.627;33897.715
742.199;26928.334;   -7.177;33213.016
742.771;25242.580;  -10.797;31369.113
743.343;23089.701;  -11.997;31865.473
743.915;22104.221;  -12.867;32388.631
744.487;22208.928;   -7.617;31079.568
745.058;22492.068;   -9.557;30570.107
745.630;22998.188;   -9.877;29970.127
746.201;23882.291;  -14.177;29186.766
746.773;24354.941;   -9.237;28805.723
747.344;24132.016;   -9.847;29591.223
747.916;22653.689;  -11.657;31412.201
748.487;22906.480;  -10.587;32194.898
749.059;24032.809;   -8.707;32533.719
749.630;24647.844;  -10.537;32158.518
750.201;23517.578;  -11.687;30855.395
750.773;21761.697;  -11.647;28622.555
751.344;21716.834;   -7.147;28405.732
751.915;22965.635;   -9.757;28461.551
752.486;22941.779;  -12.427;27842.850
753.057;20642.398;  -12.227;27845.008
753.628;19459.889;  -10.417;27728.107
754.199;20634.541;  -11.767;27381.086
754.770;21644.006;  -11.187;25882.203
755.341;21705.533;  -10.507;25886.184
755.912;21681.863;   -9.387;26050.861
756.483;21149.645;  -10.647;26798.779
757.054;19371.629;  -11.837;27048.238
757.625;18108.736;  -12.716;26294.838
758.195;17735.396;   -9.666;26142.076
758.766;17403.355;   -8.656;26392.234
759.337;18263.092;  -12.856;26334.594
759.907;19960.377;  -13.366;27579.652
760.478;20819.824;   -8.576;28352.770
761.048;20173.756;  -10.526;27325.088
761.619;19393.770;  -11.116;26460.428
762.189;19471.340;  -12.136;26029.826
762.760;20510.529;   -9.456;26430.145
763.330;21653.127;   -7.136;26670.902
763.900;21056.531;  -11.786;26603.021
764.471;18501.781;  -11.546;25542.740
765.041;17292.031;   -8.096;24358.459
765.611;17321.113;   -8.876;23991.297
766.181;17647.492;  -12.196;24470.236
766.751;18520.734;  -11.636;24845.975
767.321;18335.875;  -10.156;24533.633
767.891;16559.717;  -11.766;24916.492
768.461;16065.496;  -14.936;24776.771
769.031;16613.455;  -12.356;24757.988
769.601;18132.777;   -7.526;24181.088
770.171;17853.953;  -10.766;23670.387
770.741;17025.037;  -13.176;22960.045
771.311;17131.813;  -10.616;22917.523
771.880;17423.045;   -9.576;23562.941
772.450;17054.248;  -10.336;24216.500
773.020;16974.193;  -13.516;24140.398
773.589;16348.002;  -13.466;24414.857
774.159;15803.000;   -8.686;23858.717
774.729;15532.835;   -9.476;22942.135
775.298;15058.922;  -13.666;22324.033
775.867;14633.149;  -11.716;21140.313
776.437;14753.297;   -9.906;20838.092
777.006;14628.059;  -12.166;20599.510
777.576;14461.774;  -12.356;20508.809
778.145;14442.038;  -11.646;20732.947
778.714;14184.049;   -8.226;21062.465
779.283;13374.584;   -9.556;20949.664
779.853;12902.778;  -14.116;20508.623
780.422;13349.026;  -11.506;20649.082
780.991;12929.028;   -9.556;21527.520
781.560;11830.680;   -9.095;22632.658
782.129;11742.695;  -12.135;23048.277
782.698;11830.513;  -10.865;23438.555
783.267;11391.468;   -9.335;23267.734
783.836;11292.831;  -11.045;22415.133
784.404;12272.428;  -13.865;20443.152
784.973;12821.067;  -13.095;19699.150
785.542;12676.839;  -11.575;19763.828
786.111;12437.775;   -9.705;20341.408
786.679;11919.485;  -12.105;20207.967
787.248;11686.021;  -12.455;19516.465
787.817;11524.747;  -11.535;18900.363
788.385;11170.828;   -9.765;17879.121
788.954;10659.513;  -14.005;17658.301
789.522;10171.132;  -11.955;17788.879
790.090;10746.406;  -10.135;18118.277
790.659;11104.241;  -10.975;18338.736
791.227;10571.925;  -13.375;18508.615
791.795;10932.577;  -12.375;17898.254
792.364;11286.347;  -10.725;17295.133
792.932;11616.596;   -9.715;16822.051
793.500;11706.131;  -12.675;17040.148
794.068;11842.027;  -13.495;17179.787
794.636;11924.832;  -10.885;16664.246
795.204;11372.233;  -11.045;16524.545
795.772;11435.775;  -13.175;17274.564
796.340;10984.581;  -12.445;17891.002
796.908;10797.055;   -9.735;17648.561
797.476;10641.611;   -9.815;17064.080
798.044;10193.527;  -13.985;16672.777
798.612; 9408.970;  -13.115;17023.996
799.180; 9051.793;  -10.185;16561.615
799.747; 9024.729;   -9.055;15962.773
800.315; 8806.960;  -12.385;15296.992
800.883; 8435.709;  -15.035;14801.771
801.450; 8391.080;  -10.365;14534.430
802.018; 8451.592;   -9.855;14173.248
802.585; 8593.305;  -11.905;14029.547
803.153; 8620.186;  -11.585;13836.846
803.720; 8426.951;   -9.095;13567.324
804.287; 8000.047;   -9.135;13360.622
804.855; 7614.746;  -11.604;13681.981
805.422; 7499.557;  -11.794;13536.560
805.989; 7507.310;  -10.734;13355.958
806.556; 7638.707;  -10.444;13747.896
807.124; 7830.163;  -12.764;13987.376
807.691; 7807.423;  -12.964;14038.674
808.258; 7647.664;  -11.134;14120.152
808.825; 7407.072;   -9.854;13860.111
809.392; 7459.245;  -10.504;13268.790
809.959; 6957.579;  -13.054;12680.389
810.526; 6541.378;   -8.294;12427.308
811.093; 6659.724;   -8.394;12030.105
811.659; 7320.063;  -12.304;11653.664
812.226; 7812.098;  -13.944;11637.183
812.793; 7513.739;  -10.484;11611.521
813.360; 6908.657;  -10.144;11885.181
813.926; 6614.880;  -11.684;12770.539
814.493; 6362.220;  -13.644;12677.638
815.060; 5964.033;   -9.724;11974.336
815.626; 5996.813;   -9.854;11594.715
816.193; 6400.279;  -13.254;11579.474
816.759; 6458.898;  -13.204;11666.972
817.325; 6581.777;   -9.434;11325.530
817.892; 6989.129;  -10.134;11105.369
818.458; 7412.885;  -13.474;10843.928
819.024; 7028.922;  -11.854;10714.406
819.591; 6721.407;  -10.244;10469.165
820.157; 6492.304;  -10.704;10235.523
820.723; 6009.705;  -12.324;10847.563
821.289; 5739.618;   -9.444;11040.980
821.855; 5677.725;   -8.374;10357.100
822.421; 5709.239;  -10.234; 9978.918
822.987; 5768.070;  -13.294; 9754.177
823.553; 5489.431;  -10.884;10065.755
824.119; 5317.402;   -8.884;10036.294
824.685; 5415.167;   -6.784;10029.192
825.251; 5511.909;  -12.004;10199.230
825.816; 5460.866;  -11.474; 9820.189
826.382; 5234.051;   -9.174; 9297.248
826.948; 5467.912;   -9.214; 9381.347
827.513; 5892.718;  -10.774; 9450.726
828.079; 5730.186;  -11.924; 9472.444
828.645; 5175.880;  -10.543; 9292.643
829.210; 5103.097;  -10.533; 9065.341
829.776; 5103.184;  -10.753; 9132.620
830.341; 5017.154;  -10.173; 9092.878
830.906; 5242.791;  -10.743; 9078.557
831.472; 5622.460;  -11.113; 8534.535
832.037; 5360.132;  -10.603; 8677.874
832.602; 4816.064;  -13.323; 8628.692
833.167; 4566.954;  -10.823; 8879.031
833.733; 4512.685;  -10.113; 9189.790
834.298; 4679.443;  -13.583; 9052.608
834.863; 4779.429;  -12.703; 8895.087
835.428; 4782.386;  -10.523; 8824.266
835.993; 4642.132;   -6.963; 8845.385
836.558; 4484.705;  -10.763; 8888.563
837.123; 4631.104;   -9.903; 8966.582
837.688; 4887.452;   -9.913; 8617.860
838.253; 5160.472;  -10.283; 8590.699
838.817; 5362.416;  -12.963; 8443.797
839.382; 5244.152;  -14.243; 8799.356
839.947; 4934.027;  -10.733; 8810.595
840.511; 4635.819;   -9.383; 8796.394
841.076; 4246.504;  -12.563; 8347.231
841.641; 4314.666;  -12.953; 8224.330
842.205; 4418.922;   -7.043; 8223.349
842.770; 4528.002;   -8.163; 8622.107
843.334; 4671.899;  -12.503; 8410.386
843.898; 4558.440;  -11.693; 8337.465
844.463; 4547.824;  -10.203; 8506.283
845.027; 4304.874;   -9.533; 8280.962
845.591; 4142.596;  -13.443; 8231.141
846.156; 4144.434;  -13.143; 7969.179
846.720; 4021.992;   -9.433; 7768.278
847.284; 3898.515;  -11.033; 7630.957
847.848; 3765.640;  -10.403; 7472.395
848.412; 3664.588;  -11.553; 7437.394
848.976; 3692.280;   -8.393; 7674.592
849.540; 3596.617;   -8.713; 7836.011
850.104; 3726.029;  -12.463; 7913.669
850.668; 4096.546;  -12.973; 7694.508
851.232; 4173.917;  -10.793; 7756.887
851.796; 3982.567;  -10.662; 7926.545
852.359; 3676.970;  -13.082; 7827.844
852.923; 3485.070;  -12.192; 7641.163
853.487; 3270.656;  -11.912; 7342.501
854.050; 3219.001;  -10.892; 7042.820
854.614; 3360.254;  -13.992; 7151.338
855.177; 3490.441;  -11.732; 7105.077
855.741; 3505.037;   -8.962; 6989.675
856.304; 3353.844;   -9.442; 6596.634
856.868; 3290.511;  -14.192; 6356.272
857.431; 3371.909;  -12.702; 6468.571
857.995; 3479.474;   -9.942; 6373.210
858.558; 3474.243;   -9.112; 6324.448
859.121; 3189.283;  -12.932; 6408.327
859.684; 3061.082;  -13.442; 6347.886
860.247; 3161.613;  -10.632; 6321.264
860.810; 3149.241;  -11.272; 6301.903
861.374; 2879.836;   -9.832; 6607.881
861.937; 2630.335;  -11.762; 6408.200
862.500; 2636.879;   -9.722; 6572.639
863.062; 2810.674;  -10.512; 6387.297
863.625; 2971.174;  -11.232; 6190.836
864.188; 3113.778;  -14.112; 5807.254
864.751; 3149.404;  -11.302; 5682.413
865.314; 3016.122;  -10.112; 5547.492
865.876; 2808.329;  -12.182; 5500.150
866.439; 2788.938;  -10.722; 5415.909
867.002; 2733.911;   -9.252; 5501.567
867.564; 2539.387;   -9.572; 5413.946
868.127; 2335.929;  -13.142; 5160.325
868.689; 2247.694;  -12.902; 5133.183
869.252; 2149.242;   -9.732; 5252.382
869.814; 2055.715;   -9.432; 5297.141
870.377; 2067.286;  -11.552; 5390.919
870.939; 2126.700;   -9.052; 5599.898
871.501; 2180.665;  -10.982; 5248.336
872.063; 2178.885;  -12.292; 4854.235
872.626; 2144.988;  -14.912; 4817.074
873.188; 2177.541;  -13.112; 4987.732
873.750; 2151.507;  -13.442; 4868.651
874.312; 2057.324;   -9.402; 4779.330
874.874; 1970.508;  -11.062; 4866.348
875.436; 1886.880;  -13.931; 4718.887
875.998; 1875.464;   -9.561; 4660.005
876.560; 1899.979;  -11.321; 4462.964
877.122; 1840.952;  -12.221; 4145.042
877.683; 1752.497;  -12.191; 4056.481
878.245; 1696.140;  -12.101; 3950.740
878.807; 1755.699;   -8.971; 4058.958
879.369; 1784.001;  -12.071; 3954.677
879.930; 1682.921;  -14.621; 3941.495
880.492; 1618.890;  -10.311; 4067.014
881.053; 1585.063;  -10.901; 3859.633
881.615; 1484.929;  -14.411; 3776.071
882.176; 1391.330;  -13.761; 3734.750
882.738; 1344.933;   -9.181; 3678.489
883.299; 1323.376;  -11.791; 3405.407
883.860; 1331.058;  -13.121; 3351.106
884.422; 1332.398;  -11.211; 3394.044
884.983; 1284.707;  -10.091; 3166.443
885.544; 1208.498;   -8.461; 3189.802
886.105; 1126.616;  -12.361; 3160.360
886.666; 1056.013;  -14.141; 3093.059
887.227; 1000.867;  -11.361; 2941.957
887.788;  938.935;  -11.401; 2974.836
888.349;  878.588;  -13.791; 2721.214
888.910;  879.962;  -13.191; 2696.493
889.471;  888.660;   -9.881; 2560.172
890.032;  869.965;   -9.881; 2558.190
890.593;  849.914;  -10.371; 2567.669
891.153;  826.456;  -13.301; 2460.307
891.714;  773.779;  -11.431; 2372.046
892.275;  734.075;  -11.291; 2309.505
892.835;  693.826;  -11.471; 2382.543
893.396;  641.323;  -11.541; 2295.502
893.956;  585.018;  -11.181; 2162.420
894.517;  547.454;  -11.741; 2125.439
895.077;  540.574;  -11.671; 2086.978
895.638;  541.066;  -11.311; 2126.316
896.198;  511.274;   -9.831; 1838.275
896.758;  465.543;   -8.421; 1892.813
897.319;  433.346;  -12.351; 1792.232
897.879;  415.695;  -13.511; 1762.751
898.439;  387.487;  -12.001; 1661.149
898.999;  364.333;  -10.180; 1781.468
899.559;  355.180;  -12.030; 1703.347
900.119;  351.068;  -15.710; 1537.525
900.679;  346.827;   -8.900; 1638.384
901.239;  329.691;   -8.340; 1527.902
901.799;  317.778;  -13.910; 1456.441
902.359;  310.399;  -13.460; 1357.140
902.919;  304.266;  -11.490; 1331.118
903.479;  289.963;  -12.110; 1317.257
904.038;  268.541;  -11.720; 1262.595
904.598;  251.872;  -13.610; 1152.034
905.158;  249.326;  -11.040; 1240.893
905.717;  241.529;  -10.900; 1233.691
906.277;  229.642;  -15.080; 1217.330
906.836;  219.570;  -13.380; 1222.408
907.396;  210.053;  -10.780; 1193.047
907.955;  201.974;   -8.500; 1182.526
908.515;  195.643;  -12.760; 1099.364
909.074;  189.859;  -11.900; 1092.863
909.633;  184.364;   -8.950; 1069.121
910.192;  179.704;   -8.770; 1196.460
910.752;  173.507;  -12.390; 1029.960
911.311;  170.169;  -13.680; 1009.780
911.870;  167.063;  -12.370;  971.460
912.429;  168.819;  -10.900; 1094.080
912.988;  166.735;  -11.690; 1081.060
913.547;  161.862;  -13.240;  940.380
914.106;  156.325;  -11.990;  999.420
914.665;  152.608;   -9.990;  984.020
915.224;  152.213;  -12.880; 1035.760
915.782;  151.637;  -12.350;  922.560
916.341;  152.701;   -9.110; 1049.840
916.900;  148.385;   -9.270;  925.260
917.458;  145.858;  -13.240;  884.220
918.017;  145.604;  -13.550;  942.600
918.576;  145.790;  -12.320;  904.440
919.134;  143.482;  -11.490;  837.980
919.693;  141.267;  -13.670;  893.060
920.251;  139.523;  -15.470;  876.500
920.809;  138.842;  -11.290;  839.580
921.368;  138.838;  -10.210;  885.360
921.926;  137.548;  -12.140;  842.940
922.484;  134.993;  -13.080;  903.360
923.042;  135.243;  -11.720;  880.340
923.601;  138.354;   -7.480;  998.680
924.159;  136.754;  -11.570;  935.560
924.717;  131.855;  -13.840;  841.080
925.275;  132.861;  -10.640;  903.240
925.833;  133.750;  -11.540;  779.320
926.391;  134.331;  -12.960;  938.380
926.949;  132.316;  -14.130;  857.680
927.506;  132.740;  -11.750;  903.500
928.064;  132.699;  -10.250;  877.580
928.622;  132.046;  -13.030;  880.100
929.180;  131.639;  -13.400;  814.180
929.737;  133.966;  -10.700;  808.540
930.295;  136.716;  -10.070;  928.480
930.853;  138.340;  -11.960;  849.100
931.410;  138.919;  -13.120;  821.120
931.968;  138.678;  -10.770;  940.660
932.525;  138.256;  -10.680;  909.380
933.082;  138.537;  -13.130;  811.440
933.640;  139.476;  -13.210;  925.900
934.197;  137.842;  -11.060;  886.360
934.754;  139.000;   -9.580;  897.780
935.312;  141.400;  -14.000;  863.340
935.869;  145.311;  -10.710; 1012.980
936.426;  146.330;   -9.860;  872.800
936.983;  147.601;   -9.710;  889.020
937.540;  145.704;  -13.990;  838.280
938.097;  144.435;  -14.040;  940.120
938.654;  145.523;  -10.310;  898.860
939.211;  148.624;  -10.560;  952.480
939.768;  151.881;  -13.900;  915.420
940.324;  154.895;  -14.760;  904.200
940.881;  156.881;  -10.370;  878.500
941.438;  157.128;   -8.260; 1021.200
941.995;  153.792;  -12.540;  992.560
942.551;  150.319;  -14.670;  875.620
943.108;  151.332;  -10.450;  937.920
943.664;  154.180;  -10.750;  869.340
944.221;  156.805;  -11.550; 1088.140
944.777;  154.325;  -14.770;  869.680
945.334;  154.535;  -12.820;  884.840
945.890;  156.873;  -10.130;  946.480
946.446;  157.131;  -13.470;  947.020
947.003;  158.954;  -12.120;  964.940
947.559;  162.125;   -9.980; 1063.040
948.115;  161.348;   -9.080; 1026.540
948.671;  159.495;  -10.830;  967.300
949.227;  155.856;  -12.440;  859.560
949.783;  153.344;  -12.910;  858.900
950.339;  156.130;  -10.270;  991.000
950.895;  154.725;  -13.630; 1023.840
951.451;  155.333;  -15.100;  925.280
952.007;  155.933;  -11.330;  998.540
952.563;  157.085;  -10.580;  937.780
953.118;  156.386;  -13.440;  904.940
953.674;  154.898;  -12.710;  935.780
954.230;  155.438;  -10.350;  949.640
954.785;  152.151;   -9.190;  936.640
955.341;  149.835;  -11.200;  998.160
955.897;  148.263;  -16.560;  834.660
956.452;  150.227;  -12.570;  953.840
957.008;  149.724;   -7.970; 1083.640
957.563;  146.164;  -11.940; 1009.540
958.118;  141.209;  -13.450;  877.700
958.674;  142.141;  -12.030;  946.780
959.229;  143.760;   -9.410; 1013.980
959.784;  140.757;  -12.000;  832.400
960.339;  141.540;  -14.780; 1001.280
960.894;  138.026;   -9.860;  963.760
961.449;  134.266;   -9.970;  859.960
962.004;  133.913;  -10.900; 1212.840
962.559;  128.744;  -13.150;  860.140
963.114;  125.888;  -13.740;  742.480
963.669;  126.484;   -9.820;  915.500
964.224;  124.736;  -13.890;  874.340
964.779;  124.271;  -12.600;  828.420
965.334;  124.696;  -10.950; 1017.860
965.888;  125.084;  -11.170;  875.360
966.443;  128.600;  -12.540;  972.380
966.998;  126.982;  -15.780;  819.460
967.552;  125.514;   -9.760;  908.380
968.107;  122.358;   -9.060;  868.300
968.661;  123.793;  -11.950;  922.440
969.216;  126.354;  -12.800;  856.280
969.770;  129.240;  -11.210;  917.200
970.324;  127.643;  -11.610;  923.140
970.879;  121.204;  -11.370;  947.180
971.433;  110.487;  -12.540;  952.720
971.987;   98.035;  -11.320;  895.340
972.541;   89.028;  -10.720;  917.100
973.095;   84.831;   -9.680; 1009.460
973.649;   81.782;  -11.440;  809.480
974.203;   83.692;  -11.210;  829.040
974.757;   85.637;  -10.240;  855.220
975.311;   88.891;  -13.720;  872.600
975.865;   89.494;  -13.770;  881.820
976.419;   88.677;  -11.690;  857.400
976.973;   90.030;   -9.510;  849.620
977.526;   91.757;  -12.620;  949.920
978.080;   92.831;  -12.010;  796.780
978.634;   94.246;  -10.170;  921.320
979.187;   92.489;   -9.020;  905.400
979.741;   89.999;   -9.820; 1018.380
980.294;   84.669;  -14.870;  789.160
980.848;   84.620;  -12.380;  717.220
981.401;   86.629;  -10.350;  816.540
981.955;   88.949;  -13.720;  844.300
982.508;   87.831;  -11.490;  746.340
983.061;   88.857;  -10.000;  915.260
983.615;   84.694;  -11.480;  798.800
984.168;   81.735;  -13.220;  770.080
984.721;   81.129;  -13.960;  880.760
985.274;   81.245;  -10.870;  867.500
985.827;   79.476;   -9.790;  834.220
986.380;   77.771;  -13.120;  721.340
986.933;   77.013;  -12.450;  864.800
987.486;   75.996;  -10.210;  861.920
988.039;   75.527;   -8.430;  863.100
988.591;   73.349;  -10.520;  893.260
989.144;   71.410;  -14.860;  737.260
989.697;   70.450;  -13.080;  758.740
990.250;   71.853;  -10.150;  858.100
990.802;   69.977;  -13.430;  755.860
991.355;   70.993;  -12.750;  974.880
991.907;   69.100;  -12.040;  864.320
992.460;   67.206;  -11.330;  753.760
993.012;   66.418;  -13.610;  749.540
993.565;   65.585;  -13.460;  711.360
994.117;   66.919;   -9.360;  950.780
994.669;   63.618;  -11.300;  701.320
995.221;   61.107;  -13.540;  791.920
995.774;   59.034;  -13.430;  787.580
996.326;   57.387;  -12.520;  740.220
996.878;   58.111;  -10.950;  838.420
997.430;   55.756;  -14.300;  699.860
997.982;   55.202;  -13.760;  750.140
998.534;   55.025;  -11.530;  739.060
999.086;   53.359;  -10.310;  738.220
999.638;   51.001;  -12.530;  661.380
1000.190;   49.583;  -11.840;  699.320
1000.741;   48.477;  -10.260;  742.700
1001.293;   47.603;   -8.860;  686.020
1001.845;   46.140;  -13.700;  676.640
1002.396;   46.431;  -12.100;  743.400
1002.948;   48.110;  -12.760;  737.400
1003.500;   46.136;  -10.380;  723.780
1004.051;   46.301;  -11.900;  907.580
1004.603;   45.030;  -12.250;  791.820
1005.154;   42.092;  -13.210;  608.980
1005.705;   41.123;  -10.950;  723.960
1006.257;   40.758;  -13.880;  707.220
1006.808;   39.917;  -12.840;  685.460
1007.359;   40.149;  -10.570;  763.240
1007.910;   38.974;   -9.620;  646.640
1008.461;   38.726;  -13.630;  732.940
1009.013;   37.257;  -17.200;  588.340
1009.564;   39.021;  -10.200;  793.520
1010.115;   36.750;  -12.570;  597.040
1010.665;   36.305;  -15.150;  602.160
1011.216;   35.986;  -14.480;  667.920
1011.767;   35.778;  -11.340;  697.920
1012.318;   36.373;   -9.780;  736.980
1012.869;   34.999;  -12.380;  679.000
1013.419;   34.127;  -15.560;  603.120
1013.970;   35.330;  -11.010;  666.640
1014.521;   34.457;  -11.610;  620.620
1015.071;   34.734;  -13.450;  670.380
1015.622;   33.783;  -13.870;  635.460
1016.172;   33.287;  -11.610;  596.820
1016.723;   33.055;  -12.120;  614.380
1017.273;   32.861;  -13.620;  604.160
1017.823;   32.499;  -14.140;  650.340
1018.374;   32.285;  -12.800;  611.760
1018.924;   32.548;  -12.340;  716.880
1019.474;   32.969;  -11.410;  718.880
1020.024;   30.539;  -14.770;  657.580
1020.574;   32.418;   -9.780;  726.160
1021.124;   32.015;   -8.560;  673.580
1021.674;   30.788;  -15.190;  559.120
1022.224;   31.213;  -13.530;  708.940
1022.774;   31.961;  -13.280;  668.820
1023.324;   31.274;  -10.690;  753.520
1023.874;   32.159;  -10.240;  875.760
1024.423;   29.881;  -12.540;  613.700
1024.973;   29.746;  -10.010;  610.760
1025.523;   28.878;  -10.550;  620.960
1026.072;   28.446;  -13.560;  606.420
1026.622;   28.095;  -15.120;  675.740
1027.172;   30.496;  -11.260;  715.660
1027.721;   28.900;  -11.410;  601.220
1028.270;   28.533;  -13.530;  663.400
1028.820;   28.054;  -13.680;  638.080
1029.369;   28.259;  -13.520;  612.700
1029.918;   28.219;  -10.980;  649.840
1030.468;   27.947;  -13.530;  564.780
1031.017;   27.602;  -13.170;  634.800
1031.566;   27.497;  -12.200;  608.900
1032.115;   28.235;   -9.960;  694.500
1032.664;   25.865;  -13.210;  596.480
1033.213;   27.263;  -12.500;  735.420
1033.762;   27.060;  -11.910;  635.620
1034.311;   26.140;   -9.640;  677.220
1034.860;   26.827;  -13.310;  691.000
1035.408;   26.979;  -11.830;  722.720
1035.957;   27.145;  -12.000;  719.540
1036.506;   25.293;  -11.690;  530.800
1037.055;   26.893;  -10.990;  844.320
1037.603;   24.946;  -15.120;  664.000
1038.152;   24.172;  -12.450;  534.760
1038.700;   25.174;  -10.560;  585.740
1039.249;   24.109;  -11.080;  681.220
1039.797;   24.421;  -12.540;  633.360
1040.345;   25.211;  -11.920;  705.420
1040.894;   24.311;  -11.410;  625.300
1041.442;   24.220;  -14.320;  632.200
1041.990;   22.613;  -16.240;  559.160
1042.538;   23.080;  -11.680;  536.180
1043.087;   23.342;  -10.760;  570.860
1043.635;   24.615;  -11.850;  670.500
1044.183;   23.087;  -15.480;  586.400
1044.731;   23.156;  -11.770;  576.000
1045.279;   23.031;  -13.090;  674.920
1045.827;   24.332;  -12.440;  892.400
1046.374;   21.958;  -13.840;  515.420
1046.922;   21.159;  -13.220;  590.580
1047.470;   23.122;  -10.230;  691.300
1048.018;   22.274;  -14.590;  647.960
1048.565;   23.139;  -12.050;  708.600
1049.113;   21.121;  -11.650;  557.000
1049.660;   22.138;  -10.510;  629.660
1050.208;   22.076;  -13.310;  675.640
1050.755;   20.826;  -15.900;  606.580
1051.303;   21.514;  -11.430;  686.820
1051.850;   21.594;   -8.480;  635.120
1052.397;   19.360;  -15.010;  473.960
1052.945;   19.587;  -13.960;  617.760
1053.492;   21.692;  -13.150;  741.840
1054.039;   22.259;   -9.630;  720.180
1054.586;   19.548;  -13.680;  557.240
1055.133;   20.259;  -14.570;  693.140
1055.680;   20.923;  -13.820;  646.620
1056.227;   19.770;  -11.730;  542.780
1056.774;   20.747;  -12.480;  794.980
1057.321;   19.235;  -13.930;  523.260
1057.868;   19.748;  -11.690;  651.320
1058.415;   19.457;   -9.520;  651.980
1058.961;   18.965;  -13.160;  678.940
1059.508;   18.377;  -12.920;  643.820
1060.055;   19.127;  -11.920;  581.780
1060.601;   19.097;  -11.500;  624.300
1061.148;   18.582;  -14.330;  616.820
1061.694;   17.455;  -16.870;  592.580
1062.241;   18.368;  -10.330;  596.320
1062.787;   18.642;  -10.620;  663.140
1063.334;   20.227;  -10.110;  808.560
1063.880;   18.283;  -13.400;  668.360
1064.426;   18.713;  -10.680;  706.820
1064.972;   17.228;   -9.920;  601.340
1065.518;   16.381;  -10.980;  566.640
1066.065;   17.700;  -14.890;  624.460
1066.611;   17.172;  -12.870;  598.800
1067.157;   17.924;  -12.950;  641.860
1067.703;   17.489;  -13.540;  668.480
1068.249;   16.249;  -13.540;  605.220
1068.794;   16.999;  -12.600;  626.880
1069.340;   15.905;  -10.620;  578.960
1069.886;   16.211;  -12.830;  590.700
1070.432;   15.269;  -14.870;  541.720
1070.977;   16.301;  -11.980;  601.080
1071.523;   16.578;   -8.200;  573.060
1072.068;   15.969;  -12.330;  582.000
1072.614;   15.589;  -16.370;  527.760
1073.160;   15.654;  -11.100;  687.040
1073.705;   15.153;  -10.480;  572.520
1074.250;   15.196;  -14.520;  559.900
1074.796;   16.411;  -11.460;  655.160
1075.341;   16.459;  -11.950;  664.100
1075.886;   15.104;  -11.460;  594.240
1076.431;   14.736;  -13.770;  649.880
1076.976;   14.288;  -12.680;  639.220
1077.521;   14.451;  -13.170;  583.080
1078.067;   14.232;  -10.860;  579.400
1078.612;   14.695;  -13.920;  661.620
1079.156;   13.966;  -13.880;  601.540
1079.701;   14.872;  -13.120;  693.260
1080.246;   14.908;   -9.940;  696.300
1080.791;   14.396;  -14.740;  625.020
1081.336;   13.873;  -13.750;  659.320
1081.880;   14.205;  -13.400;  649.680
1082.425;   12.999;  -12.220;  573.480
1082.970;   14.525;  -11.610;  717.040
1083.514;   13.074;  -13.580;  597.000
1084.059;   12.247;  -12.810;  586.720
1084.603;   13.199;  -12.320;  565.840
1085.147;   13.189;  -13.190;  645.220
1085.692;   13.273;  -12.480;  716.800
1086.236;   11.998;  -13.020;  503.140
1086.780;   13.786;   -9.190;  751.440
1087.325;   12.601;  -12.480;  654.620
1087.869;   12.771;  -12.450;  610.700
1088.413;   13.020;  -12.240;  705.040
1088.957;   11.268;   -9.020;  543.400
1089.501;   13.402;  -10.320;  766.640
1090.045;   11.881;  -12.720;  726.480
1090.589;   11.276;  -13.690;  569.920
1091.133;   11.964;  -10.020;  673.340
1091.676;   11.255;  -12.330;  591.940
1092.220;   12.170;  -14.970;  600.920
1092.764;   12.247;  -12.430;  706.960
1093.307;   12.566;   -9.800;  673.780
1093.851;   10.452;  -14.970;  556.540
1094.395;   11.672;  -15.310;  683.140
1094.938;   11.133;  -10.370;  632.520
1095.482;   10.576;  -11.050;  559.800
1096.025;   11.467;  -11.840;  710.880
1096.568;   11.873;  -12.840;  779.280
1097.112;    9.550;  -14.700;  508.180
1097.655;   11.625;   -8.720;  603.000
1098.198;    9.784;  -13.610;  600.180
1098.741;    9.086;  -13.350;  612.860
1099.285;   11.633;  -11.230;  657.300
1099.828;    8.598;  -11.840;  439.400
1100.371;   10.063;  -10.840;  608.160
1100.914;    9.546;  -14.190;  682.660
1101.457;    9.904;  -11.240;  679.900
1101.999;    8.294;  -11.270;  584.680
1102.542;    9.057;  -11.480;  641.440
1103.085;    8.303;  -11.750;  658.500
1103.628;    9.435;  -11.400;  762.060
1104.170;    8.675;  -10.490;  588.280
1104.713;    8.814;  -10.600;  646.700
1105.256;    8.002;  -14.360;  557.440
1105.798;    7.857;  -13.210;  499.980
1106.341;    9.988;  -10.270;  728.900
1106.883;    8.148;  -12.200;  521.340
1107.425;    8.517;  -13.110;  668.180
1107.968;    8.260;  -12.840;  612.380
1108.510;    8.739;   -6.480;  684.960
1109.052;    6.931;  -13.940;  612.620
1109.594;    7.201;  -13.690;  554.440
1110.136;    8.622;  -11.880;  643.220
1110.679;    7.361;   -9.500;  633.080
1111.221;    8.225;  -14.160;  604.460
1111.763;    6.397;  -13.980;  559.220
1112.304;    6.850;  -13.880;  547.140
1112.846;    8.268;  -12.210;  666.240
1113.388;    9.821;  -11.390;  942.180
1113.930;    7.108;  -14.540;  694.200
1114.472;    7.216;  -12.640;  606.540
1115.013;    5.964;  -11.620;  551.280
1115.555;    6.018;  -13.640;  587.100
1116.097;    5.519;  -15.380;  579.480
1116.638;    7.050;  -12.640;  684.600
1117.180;    6.386;   -9.850;  667.740
1117.721;    6.369;  -13.690;  568.580
1118.262;    7.109;  -12.680;  677.960
1118.804;    6.831;  -12.530;  637.340
1119.345;    5.607;  -11.690;  578.400
1119.886;    7.287;  -13.380;  704.040
1120.427;    6.004;  -14.070;  589.020
1120.969;    5.327;  -13.500;  597.920
1121.510;    5.496;  -11.480;  563.060
1122.051;    5.676;  -12.830;  723.580
1122.592;    4.531;  -14.290;  655.420
1123.133;    4.573;  -12.400;  547.940
1123.673;    6.570;  -10.130;  706.480
1124.214;    5.610;  -12.930;  612.460
1124.755;    5.352;  -14.380;  639.460
1125.296;    6.259;  -14.000;  627.320
1125.836;    6.067;  -10.070;  691.500
1126.377;    4.579;  -12.640;  599.660
1126.918;    5.486;  -12.960;  614.980
1127.458;    4.523;  -13.350;  622.220
1127.999;    5.330;  -10.750;  656.980
1128.539;    5.249;  -12.350;  694.240
1129.079;    3.981;  -14.860;  632.720
1129.620;    4.281;  -13.840;  558.100
1130.160;    3.766;  -12.330;  539.480
1130.700;    4.034;  -14.530;  640.840
1131.240;    4.887;  -12.530;  643.700
1131.781;    3.609;  -14.450;  619.680
1132.321;    4.398;   -9.790;  599.120
1132.861;    2.933;  -14.860;  564.200
1133.401;    2.408;  -14.290;  593.940
1133.941;    4.033;  -11.750;  626.280
1134.481;    3.169;   -9.920;  597.580
1135.020;    3.092;  -12.290;  609.160
1135.560;    3.459;  -11.650;  674.940
1136.100;    2.846;  -16.270;  501.160
1136.640;    2.650;  -10.890;  510.480
1137.179;    2.812;  -14.180;  537.960
1137.719;    2.856;  -16.250;  605.400
1138.258;    2.826;  -14.230;  587.360
1138.798;    4.070;   -9.090;  663.780
1139.337;    1.689;  -15.130;  482.840
1139.877;    2.494;  -13.680;  642.360
1140.416;    4.804;  -11.320;  878.060
1140.955;    2.133;  -10.860;  535.380
1141.494;    3.084;  -12.920;  669.280
1142.034;    1.574;  -13.930;  583.520
1142.573;    3.466;  -11.440;  646.280
1143.112;    2.553;  -12.000;  553.480
1143.651;    1.970;  -13.670;  536.480
1144.190;    2.689;  -12.730;  691.640
1144.729;    2.695;  -14.560;  607.420
1145.267;    2.208;  -11.830;  584.900
1145.806;    2.308;  -12.230;  637.040
1146.345;    1.663;  -14.130;  635.020
1146.884;    1.855;  -11.590;  622.500
1147.422;    0.907;  -12.550;  533.060
1147.961;    2.838;  -11.180;  708.460
1148.500;    1.611;  -11.510;  669.720
1149.038;    2.738;  -11.640;  632.500
1149.577;    2.651;  -10.130;  698.640
1150.115;   -0.499;  -13.970;  452.280
1150.653;    1.313;  -14.520;  607.340
1151.192;    1.220;  -12.810;  552.920
1151.730;    1.613;   -9.100;  652.560
1152.268;    0.451;  -12.220;  589.520
1152.806;    0.235;  -14.140;  571.180
1153.344;   -0.347;  -12.350;  577.640
1153.882;    1.107;   -8.980;  600.060
1154.421;   -0.590;  -15.190;  470.620
1154.958;    0.058;  -15.210;  595.240
1155.496;    2.067;  -12.850;  645.280
1156.034;    0.976;   -9.940;  721.880
1156.572;    1.601;  -13.570;  667.060
1157.110;   -0.599;  -14.590;  473.940
1157.647;    0.868;  -13.030;  676.960
1158.185;   -0.019;  -12.140;  564.320
1158.723;   -1.472;  -14.390;  509.200
1159.260;    0.852;  -14.090;  701.700
1159.798;    1.130;  -11.920;  658.160
1160.335;   -0.011;  -11.110;  631.820

