
Integration time [ms]:   3.276
Averaging Nr. [scans]: 1000
Smoothing Nr. [pixels]: 0
Data measured with spectrometer [name]: 7414430SP
Wave   ;Sample   ;Dark     ;Reference
[nm]   ;[counts] ;[counts] ;[counts] 

288.544;  150.544;    7.793;  793.890
289.143;  153.329;    7.462;  681.602
289.742;  153.333;    8.602;  828.814
290.341;  139.233;    1.321;  789.841
290.940;  128.531;   -0.709;  730.702
291.538;  128.462;    0.881;  881.108
292.137;  128.809;    0.122;  792.581
292.736;  133.885;   -1.929;  975.101
293.335;  130.382;   -8.229;  735.086
293.934;  129.570;   -5.279;  781.677
294.532;  128.081;   -1.369; 1031.958
295.131;  114.248;   -7.641;  834.394
295.730;  115.228;   -8.420;  809.588
296.328;  113.943;   -5.611;  783.442
296.927;  113.391;   -5.781;  779.652
297.525;  116.243;   -6.361;  781.236
298.124;  106.686;  -11.382;  654.009
298.722;  109.724;   -7.641;  761.933
299.321;  108.030;   -6.811;  708.597
299.919;  107.096;   -6.991;  751.918
300.518;  103.798;  -10.362;  689.338
301.116;  103.896;   -9.581;  691.381
301.715;  104.066;   -4.891;  730.222
302.313;  103.135;   -8.801;  704.943
302.911;   99.028;   -8.522;  733.830
303.509;  104.361;   -6.171;  925.627
304.108;  101.429;   -7.311;  760.383
304.706;  101.215;   -8.321;  801.664
305.304;   96.126;  -10.222;  796.707
305.902;  100.601;   -6.021;  784.484
306.500;   96.292;   -4.971;  728.200
307.098;   95.282;   -7.061;  746.560
307.696;   93.753;   -8.801;  780.432
308.294;   93.742;   -6.411;  731.359
308.892;   94.944;   -2.901;  759.769
309.490;   92.343;   -5.041;  712.161
310.088;   90.466;   -5.002;  788.444
310.686;   93.793;   -2.041;  821.749
311.284;   90.411;   -2.351;  766.040
311.882;   88.022;   -4.422;  731.225
312.480;   84.573;   -4.192;  697.167
313.078;   86.295;   -1.172;  808.331
313.675;   86.784;   -2.601;  691.600
314.273;   82.768;   -1.312;  797.837
314.871;   82.096;   -3.942;  589.829
315.468;   80.371;   -2.802;  652.090
316.066;   81.811;   -0.701;  694.427
316.664;   76.335;   -4.362;  656.351
317.261;   79.444;   -2.872;  910.128
317.859;   74.260;   -2.022;  768.735
318.456;   74.825;   -0.531;  830.096
319.054;   71.770;   -3.912;  787.828
319.651;   70.378;   -4.752;  759.928
320.249;   68.426;   -2.602;  810.188
320.846;   67.064;   -0.821;  714.286
321.443;   64.585;   -4.642;  832.135
322.041;   61.446;   -5.002;  812.315
322.638;   59.006;   -3.982;  701.456
323.235;   60.440;   -3.411;  665.683
323.833;   57.576;   -7.361;  740.354
324.430;   54.286;   -8.611;  615.900
325.027;   54.150;   -4.061;  876.855
325.624;   53.532;   -4.031;  644.532
326.221;   51.634;   -7.481;  689.717
326.818;   51.113;   -5.281;  818.332
327.415;   54.123;   -7.460;  748.828
328.012;   53.489;   -5.510;  690.585
328.609;   52.477;   -7.880;  731.389
329.206;   51.555;   -8.331;  778.621
329.803;   50.905;   -5.121;  737.841
330.400;   52.744;   -4.510;  704.260
330.997;   54.926;   -6.441;  817.147
331.594;   53.931;   -8.831;  788.185
332.191;   58.357;   -7.621;  728.722
332.787;   61.473;   -4.591;  844.463
333.384;   60.697;   -7.412;  763.093
333.981;   59.550;   -8.293;  815.687
334.578;   61.440;   -7.052;  708.378
335.174;   63.881;   -3.102;  731.469
335.771;   63.304;   -5.943;  836.456
336.367;   61.002;   -7.393;  710.631
336.964;   63.271;   -4.063;  793.266
337.561;   61.881;   -3.813;  731.112
338.157;   58.169;   -4.654;  911.916
338.754;   54.500;   -7.934;  796.589
339.350;   52.502;   -4.414;  722.493
339.946;   54.550;   -4.664;  773.135
340.543;   47.978;   -6.375;  846.136
341.139;   42.279;   -9.815;  720.836
341.735;   39.846;   -4.526;  772.593
342.332;   38.235;   -4.895;  691.472
342.928;   39.238;   -4.295;  795.394
343.524;   34.042;   -5.476;  761.684
344.120;   30.592;   -5.856;  738.562
344.716;   32.308;   -2.155;  723.717
345.313;   30.453;   -6.275;  795.342
345.909;   26.224;   -8.815;  627.336
346.505;   27.460;   -5.305;  740.247
347.101;   27.566;   -2.674;  827.864
347.697;   28.455;   -4.344;  785.398
348.293;   23.687;   -9.975;  627.244
348.889;   24.074;   -5.774;  745.914
349.485;   23.140;   -5.004;  688.205
350.081;   24.004;   -4.704;  772.592
350.676;   19.838;   -6.635;  691.606
351.272;   23.322;   -4.504;  809.530
351.868;   23.139;   -3.914;  780.497
352.464;   20.391;   -9.044;  723.932
353.059;   16.755;   -8.314;  646.017
353.655;   19.907;   -7.024;  777.063
354.251;   20.886;   -5.343;  759.845
354.846;   16.323;   -8.604;  740.646
355.442;   13.927;   -6.945;  753.071
356.038;   15.708;   -7.564;  751.708
356.633;   14.852;   -5.814;  728.594
357.229;   13.687;   -7.364;  724.757
357.824;   11.921;   -8.024;  703.600
358.420;   11.179;   -9.384;  679.726
359.015;   11.342;   -5.104;  695.357
359.610;   13.163;   -6.854;  763.920
360.206;    6.881;  -10.185;  603.240
360.801;    9.086;   -7.054;  646.503
361.396;   11.235;   -5.034;  725.975
361.992;    7.581;   -8.284;  668.220
362.587;    4.951;   -8.625;  670.160
363.182;    6.847;   -7.674;  689.631
363.777;    7.132;   -5.164;  738.242
364.372;    7.427;   -8.604;  737.314
364.967;    4.241;   -9.055;  680.744
365.563;    7.013;   -6.114;  815.567
366.158;    4.888;   -5.814;  685.161
366.753;    5.291;   -7.854;  649.263
367.348;    4.689;   -7.804;  746.056
367.942;    3.313;   -7.954;  697.298
368.537;    2.546;   -4.984;  754.245
369.132;    2.954;   -8.564;  703.428
369.727;   -0.724;   -8.855;  638.079
370.322;   -0.032;   -6.245;  580.186
370.917;   -0.701;   -6.425;  710.646
371.511;    3.314;   -6.294;  861.834
372.106;   -0.620;   -7.685;  776.964
372.701;   -3.214;   -7.335;  585.988
373.296;    1.869;   -4.564;  863.135
373.890;   -2.616;  -10.235;  647.840
374.485;   -4.858;   -7.885;  691.199
375.079;   -1.722;   -7.324;  738.685
375.674;    0.240;   -3.494;  812.970
376.268;   -3.592;   -8.525;  691.759
376.863;   -9.233;  -10.086;  580.327
377.457;   -4.161;   -7.025;  662.490
378.052;   -5.305;   -3.585;  764.884
378.646;   -6.028;   -7.595;  741.167
379.240;   -6.180;   -8.335;  721.176
379.835;   -6.447;   -5.785;  636.978
380.429;   -8.479;   -4.335;  562.557
381.023;   -7.664;   -6.805;  779.205
381.617;   -9.394;   -9.195;  680.106
382.212;   -6.818;   -6.905;  685.303
382.806;   -6.215;   -3.745;  760.690
383.400;   -9.513;   -7.745;  672.281
383.994;  -10.357;   -9.765;  664.870
384.588;   -7.035;   -6.564;  697.701
385.182;   -6.415;   -5.344;  726.624
385.776;   -6.801;   -8.514;  706.875
386.370;  -10.139;   -9.555;  681.968
386.964;   -9.181;   -8.715;  684.155
387.558;   -7.868;   -6.174;  598.360
388.152;  -10.616;   -8.725;  681.959
388.745;   -8.650;   -7.965;  814.707
389.339;   -7.072;   -5.924;  747.642
389.933;   -6.583;   -5.524;  695.370
390.527;   -7.413;   -7.114;  859.029
391.120;  -13.305;  -10.725;  595.318
391.714;  -10.770;   -8.035;  711.633
392.308;   -7.974;   -3.574;  780.253
392.901;  -10.941;   -7.245;  642.460
393.495;  -12.728;   -9.285;  595.414
394.089;  -11.048;   -5.895;  760.452
394.682;  -11.785;   -4.295;  697.188
395.275;  -11.520;   -9.875;  719.927
395.869;  -12.682;   -8.485;  667.314
396.462;  -11.513;   -7.455;  616.609
397.056;   -7.586;   -5.424;  776.621
397.649;  -12.162;   -6.605;  731.575
398.242;   -9.461;   -8.224;  712.645
398.836;   -9.027;   -7.474;  766.408
399.429;   -9.717;   -7.094;  631.041
400.022;  -13.026;   -9.475;  665.902
400.615;  -10.885;   -7.145;  805.609
401.208;   -9.120;   -7.174;  691.451
401.802;  -12.163;   -5.515;  699.329
402.395;  -12.180;   -9.875;  683.502
402.988;  -13.252;   -8.845;  696.627
403.581;  -10.450;   -8.874;  646.878
404.174;   -7.696;   -5.324;  686.568
404.767;  -10.525;   -9.575;  638.583
405.360;  -13.253;  -10.965;  621.445
405.953;   -7.579;   -8.764;  759.034
406.545;   -8.580;   -7.514;  725.342
407.138;  -11.266;  -10.025;  618.350
407.731;  -10.020;  -10.034;  613.303
408.324;   -6.400;   -9.374;  660.554
408.917;   -7.101;   -6.534;  681.864
409.509;   -8.480;   -8.004;  740.396
410.102;  -10.586;   -9.875;  643.948
410.695;   -4.807;   -8.604;  665.758
411.287;   -5.499;   -6.794;  599.821
411.880;   -6.473;   -9.334;  585.421
412.472;  -10.243;  -10.254;  613.092
413.065;   -7.499;   -6.714;  629.408
413.657;   -5.273;   -7.234;  576.678
414.250;   -4.745;  -10.544;  646.681
414.842;   -5.956;   -9.744;  676.353
415.434;   -4.703;   -6.994;  570.463
416.027;   -0.840;   -5.893;  652.196
416.619;   -2.386;   -7.264;  713.400
417.211;   -2.658;  -10.374;  599.352
417.804;    0.294;   -7.993;  628.499
418.396;   -3.165;   -7.234;  607.643
418.988;   -0.786;   -9.443;  659.238
419.580;   -4.520;  -10.724;  568.276
420.172;   -1.921;  -10.323;  536.196
420.764;    1.883;   -8.793;  672.482
421.356;    0.686;  -11.143;  636.898
421.948;    0.231;   -8.293;  677.661
422.540;    5.269;   -7.893;  680.027
423.132;    4.602;   -7.082;  600.641
423.724;    1.478;   -8.653;  561.267
424.316;    2.823;  -10.213;  621.345
424.908;    5.597;   -9.762;  591.517
425.500;    7.657;   -5.572;  647.978
426.092;    7.006;   -8.422;  648.268
426.683;    6.491;   -9.283;  684.836
427.275;   10.340;   -7.852;  641.471
427.867;   10.698;   -5.272;  668.948
428.458;   11.628;   -7.682;  732.344
429.050;   10.275;  -10.612;  680.749
429.642;   12.251;   -9.882;  743.124
430.233;   12.438;   -6.962;  569.356
430.825;   13.884;   -6.842;  724.809
431.416;   12.539;   -9.672;  698.241
432.008;   15.462;   -6.552;  651.723
432.599;   15.523;   -6.891;  656.073
433.190;   13.395;  -10.912;  637.670
433.782;   12.743;  -11.172;  590.395
434.373;   19.316;   -6.061;  884.765
434.964;   17.830;   -8.251;  602.920
435.556;   16.185;   -9.722;  634.537
436.147;   19.699;   -9.082;  758.490
436.738;   18.945;   -8.041;  701.099
437.329;   23.629;   -7.341;  721.723
437.920;   17.277;   -8.162;  666.688
438.511;   17.999;  -11.802;  564.526
439.103;   23.485;  -10.191;  623.998
439.694;   24.734;   -7.601;  681.583
440.285;   25.928;   -8.541;  764.432
440.876;   25.027;   -9.751;  845.738
441.466;   23.239;   -9.401;  575.162
442.057;   29.597;   -7.760;  665.814
442.648;   28.652;   -9.971;  746.255
443.239;   26.573;  -11.001;  620.477
443.830;   31.585;   -7.990;  704.958
444.421;   32.985;   -7.910;  655.474
445.011;   30.256;   -8.131;  693.619
445.602;   29.580;   -7.111;  743.126
446.193;   31.216;  -10.920;  488.117
446.783;   35.784;   -6.500;  640.397
447.374;   31.280;   -8.671;  692.759
447.964;   32.366;  -10.781;  713.770
448.555;   39.785;   -9.650;  822.742
449.145;   36.665;   -8.660;  662.853
449.736;   37.612;   -8.990;  803.179
450.326;   38.875;   -9.500;  713.626
450.917;   43.041;   -8.680;  675.324
451.507;   41.349;   -7.520;  600.661
452.097;   42.306;   -8.590;  746.267
452.688;   44.343;  -11.340;  742.160
453.278;   43.012;  -10.100;  566.840
453.868;   47.623;   -6.019;  793.550
454.458;   46.287;   -9.440;  651.141
455.048;   47.070;  -10.560;  711.783
455.639;   47.819;  -11.799;  567.096
456.229;   50.502;   -6.899;  710.694
456.819;   53.678;   -7.389;  751.158
457.409;   53.280;  -11.119;  773.993
457.999;   56.536;   -9.289;  737.505
458.589;   55.440;   -6.139;  686.606
459.179;   56.172;   -8.729;  717.658
459.769;   54.913;   -9.789;  627.099
460.358;   59.405;  -10.259;  797.262
460.948;   59.248;   -7.299;  689.503
461.538;   61.393;  -10.289;  660.677
462.128;   58.881;  -11.269;  664.934
462.717;   65.607;   -9.368;  710.326
463.307;   68.435;   -7.908;  705.846
463.897;   64.759;   -9.599;  656.942
464.486;   64.233;   -9.769;  837.128
465.076;   68.412;   -8.048;  733.776
465.666;   71.701;   -9.358;  652.900
466.255;   69.865;   -7.919;  785.651
466.845;   68.973;  -11.689;  666.749
467.434;   71.448;   -7.818;  725.873
468.023;   72.566;   -7.678;  658.357
468.613;   70.941;  -10.939;  713.946
469.202;   75.458;  -10.118;  646.507
469.791;   79.550;   -9.108;  737.811
470.381;   80.864;   -6.058;  742.813
470.970;   80.522;  -10.428;  711.099
471.559;   81.086;  -10.268;  733.291
472.148;   83.459;   -8.448;  675.737
472.738;   85.983;   -6.917;  765.466
473.327;   86.535;  -11.978;  637.529
473.916;   86.030;  -11.888;  737.446
474.505;   90.593;   -9.437;  751.703
475.094;   92.597;   -6.747;  806.570
475.683;   92.930;   -9.367;  797.699
476.272;   93.663;  -12.637;  730.632
476.861;   96.522;  -10.027;  706.754
477.449;  103.128;   -8.716;  728.487
478.038;   97.879;   -9.577;  692.513
478.627;   98.296;   -9.718;  714.852
479.216;  105.214;   -8.947;  769.441
479.805;  108.166;   -6.256;  783.375
480.393;  108.636;   -7.937; 1008.945
480.982;  107.198;   -7.717;  874.501
481.571;  114.492;   -9.266;  858.333
482.159;  115.040;   -7.636;  705.386
482.748;  114.957;   -9.667;  821.385
483.336;  119.033;  -10.376;  858.209
483.925;  120.466;   -7.147;  774.373
484.513;  126.231;   -7.996;  758.962
485.102;  123.738;  -10.027;  810.965
485.690;  132.602;  -10.446; 1011.050
486.278;  134.719;   -8.446;  979.329
486.867;  136.613;   -6.356;  809.662
487.455;  137.554;   -9.136;  898.229
488.043;  139.369;  -10.646;  748.361
488.631;  149.185;   -7.456; 1005.079
489.220;  152.996;   -6.636;  908.626
489.808;  154.876;  -11.036;  741.415
490.396;  162.797;  -10.246;  914.645
490.984;  169.874;   -8.556;  830.161
491.572;  180.811;   -5.886;  940.315
492.160;  189.157;   -9.486;  919.081
492.748;  203.096;  -10.976;  884.341
493.336;  229.407;   -8.776; 1019.693
493.924;  260.842;   -5.465;  958.077
494.512;  294.815;   -9.986; 1066.638
495.100;  339.299;  -10.636; 1103.280
495.687;  401.989;  -10.885; 1206.373
496.275;  476.102;   -8.126; 1150.796
496.863;  560.171;  -10.586; 1281.171
497.451;  679.655;  -11.926; 1386.805
498.038;  830.184;  -10.885; 1556.729
498.626;  955.353;   -6.315; 1741.407
499.214; 1130.663;   -7.326; 2016.609
499.801; 1360.856;  -11.906; 2220.633
500.389; 1652.716;  -10.466; 2312.494
500.976; 2004.019;   -5.236; 2744.849
501.564; 2514.312;   -8.936; 3148.565
502.151; 2936.488;  -13.176; 3515.999
502.738; 3440.989;  -10.646; 3971.274
503.326; 3891.904;   -9.525; 4403.796
503.913; 4336.110;  -10.856; 5161.749
504.500; 4748.317;  -11.586; 5986.420
505.088; 5209.443;  -10.336; 6381.201
505.675; 5799.812;   -6.355; 6925.547
506.262; 6602.178;   -9.046; 7619.060
506.849; 7403.810;  -10.416; 8733.969
507.436; 7920.228;  -10.305; 9790.121
508.023; 8537.714;   -5.496; 9985.472
508.610; 8817.695;   -7.856;10434.618
509.197; 9515.485;  -10.097;11198.435
509.784;11044.690;  -10.886;12391.194
510.371;12222.441;   -9.315;13603.713
510.958;13008.364;   -9.936;14426.586
511.545;13822.815;   -9.326;15243.775
512.132;14700.637;  -10.075;15945.876
512.719;15292.492;   -7.796;16340.369
513.305;16324.289;  -10.606;18011.766
513.892;17150.363;  -11.486;19754.971
514.479;18572.879;   -9.126;20967.805
515.066;20193.109;   -6.026;22299.793
515.652;21722.396;   -8.466;22908.660
516.239;23053.068;  -10.886;23798.875
516.825;23949.504;  -11.496;25567.275
517.412;24975.336;   -5.796;28154.959
517.998;25630.705;  -10.506;28344.111
518.585;25683.025;  -10.076;27134.219
519.171;26149.195;   -8.315;27268.576
519.758;27735.627;   -8.596;28964.129
520.344;29705.813;   -8.466;30664.494
520.930;29673.145;  -11.006;32550.605
521.516;31050.686;  -10.495;35422.895
522.103;33357.816;   -5.526;38280.004
522.689;33830.145;   -8.746;37835.117
523.275;33322.418;  -11.376;37288.613
523.861;34715.066;  -11.156;37281.395
524.447;36264.328;   -8.135;37846.949
525.033;36060.160;   -7.896;38321.949
525.619;36114.426;  -12.476;38579.285
526.205;37713.723;   -9.516;40622.875
526.791;40157.551;   -6.926;42258.836
527.377;40261.953;   -8.346;42966.902
527.963;41666.105;   -8.717;42018.949
528.549;40105.508;  -11.016;42476.828
529.135;38710.578;   -8.536;41854.852
529.721;37933.035;   -9.666;41237.711
530.306;37191.711;  -10.066;41259.445
530.892;36928.891;  -11.356;41506.047
531.478;38356.027;   -6.596;43559.613
532.063;41429.031;   -8.836;47695.563
532.649;42001.078;  -10.047;50808.324
533.235;42886.574;   -9.746;51787.500
533.820;43479.461;   -6.566;52145.035
534.406;44910.109;  -10.817;51133.488
534.991;44464.512;   -9.416;49996.805
535.576;42789.980;   -9.036;48882.852
536.162;43357.859;   -6.156;46942.285
536.747;44409.188;  -11.607;45711.746
537.333;48166.242;  -11.787;48510.180
537.918;51291.516;  -12.437;50439.891
538.503;50170.344;   -7.196;50863.711
539.088;46606.410;  -10.556;50906.922
539.673;46262.207;   -8.767;52621.965
540.259;46328.070;  -10.026;52368.094
540.844;43915.586;   -7.416;50879.109
541.429;45415.047;   -9.467;52077.777
542.014;48154.883;   -9.527;52716.695
542.599;47303.195;   -9.946;52363.281
543.184;44772.137;   -7.927;53187.137
543.769;46237.520;   -9.297;54697.605
544.354;45806.523;  -10.127;53913.914
544.938;44453.969;   -9.267;49680.164
545.523;46429.004;   -6.506;47386.277
546.108;49490.438;   -9.787;49151.949
546.693;51661.059;  -11.587;51384.637
547.278;51370.910;  -10.986;51853.254
547.862;48312.195;   -8.206;51173.750
548.447;43787.117;  -10.067;51691.395
549.031;43284.125;   -9.637;52456.703
549.616;48382.410;   -9.926;52714.516
550.201;47773.043;   -6.347;52414.598
550.785;48824.746;   -7.917;52355.059
551.370;47725.504;  -10.867;54589.453
551.954;47317.441;   -9.047;58267.348
552.538;48353.336;   -7.827;59062.176
553.123;46744.000;  -10.287;58115.285
553.707;44370.277;  -12.178;56556.285
554.291;45854.793;   -8.717;56201.668
554.876;48417.277;   -7.457;55335.762
555.460;48680.949;  -10.387;54155.703
556.044;49432.719;   -9.618;53721.484
556.628;48078.043;  -11.567;53731.016
557.212;46966.664;   -8.097;54312.531
557.796;45497.836;  -11.077;53797.773
558.380;45562.305;  -11.108;56145.984
558.964;46027.031;   -9.057;57277.930
559.548;47256.293;   -6.977;56459.641
560.132;45504.887;  -11.457;54434.543
560.716;43984.781;  -11.378;54800.617
561.300;44958.676;   -9.577;57606.945
561.884;46224.809;   -7.127;58972.445
562.467;44689.367;   -7.118;57327.570
563.051;43996.008;  -13.358;54962.434
563.635;44973.141;  -10.178;52594.473
564.219;45330.539;   -7.837;50610.410
564.802;46299.934;  -11.398;49551.180
565.386;46146.734;  -12.788;48370.953
565.969;45354.133;   -9.077;48178.871
566.553;44584.855;   -6.207;49957.305
567.136;45271.734;   -8.568;50369.594
567.720;41637.418;  -11.868;49492.004
568.303;39536.016;   -8.268;50616.352
568.887;39503.445;   -8.698;50727.148
569.470;39944.125;   -6.808;51698.379
570.053;38625.309;  -13.188;52122.078
570.637;36926.445;  -12.037;52536.438
571.220;36795.918;   -8.577;51186.098
571.803;37438.379;   -8.498;51032.762
572.386;39725.281;  -10.498;49609.887
572.969;42481.203;   -9.388;48285.926
573.552;40717.047;   -8.338;47624.285
574.135;39132.539;   -8.518;45498.641
574.718;36570.422;  -13.628;41970.434
575.301;35627.273;  -10.893;41447.137
575.884;34684.121;   -8.158;40923.836
576.467;35940.234;  -10.328;45267.723
577.050;38019.957;  -13.058;48175.543
577.633;39367.781;   -9.458;47729.328
578.216;38429.102;   -8.928;47579.793
578.799;37463.980;   -9.358;47820.996
579.381;36189.941;  -11.388;48115.551
579.964;34339.629;  -11.718;47333.766
580.547;36065.590;   -8.588;46668.969
581.129;37272.488;   -8.859;44466.141
581.712;38202.477;  -10.729;44164.922
582.294;38926.809;  -11.118;46477.855
582.877;38781.109;   -5.218;48244.254
583.459;36336.148;   -8.679;47437.895
584.042;34245.996;  -10.709;46943.219
584.624;34704.785;  -11.669;46792.227
585.206;34324.137;   -8.218;46557.250
585.789;34273.152;  -10.569;45793.773
586.371;37083.734;  -11.859;43836.391
586.953;37623.941;  -10.719;42972.492
587.536;39203.801;   -7.198;42487.211
588.118;39489.313;   -8.720;42086.414
588.700;35536.531;  -10.439;43389.930
589.282;34401.836;   -9.198;43646.039
589.864;35396.938;   -9.199;43438.109
590.446;36567.406;  -11.319;43151.926
591.028;36400.938;  -11.159;42781.867
591.610;35203.629;  -11.779;42839.098
592.192;32554.850;   -7.668;42820.402
592.774;31098.014;  -11.949;40724.277
593.356;29754.689;  -12.129;39874.789
593.937;28670.635;  -10.669;39980.648
594.519;30899.979;   -6.509;42069.633
595.101;33113.777;  -10.849;42976.031
595.683;33270.852;  -11.679;44084.441
596.264;34391.203;   -9.049;43478.797
596.846;33818.738;   -8.849;43803.672
597.427;33754.203;   -9.570;42986.934
598.009;35379.301;  -12.620;42832.219
598.591;35733.824;  -10.039;42580.086
599.172;34969.137;  -10.369;43061.805
599.753;35175.039;   -9.140;41691.469
600.335;36855.121;  -11.430;40692.520
600.916;34909.012;   -9.939;39982.422
601.498;32197.053;   -8.479;40318.617
602.079;30599.648;  -10.920;40670.609
602.660;30561.117;  -11.480;41450.898
603.241;32229.844;  -11.699;41137.738
603.823;30927.021;   -9.579;38868.797
604.404;30296.840;  -10.620;38182.785
604.985;31958.828;  -10.450;38078.047
605.566;31747.893;   -9.129;38056.633
606.147;31891.191;   -7.510;37020.418
606.728;33484.719;  -10.660;37883.359
607.309;32037.848;  -11.740;38748.273
607.890;31594.365;   -9.759;38850.230
608.471;31033.547;   -8.250;37457.918
609.051;30046.518;   -9.240;36066.457
609.632;28901.285;  -12.120;35991.074
610.213;29648.037;   -9.110;37402.641
610.794;30368.316;   -8.030;38383.363
611.374;29996.252;   -8.110;40562.387
611.955;30688.803;  -13.560;38533.727
612.536;32055.740;  -11.400;36951.789
613.116;31843.445;   -8.070;37197.891
613.697;32069.813;  -10.830;38411.125
614.277;30423.342;  -11.641;38673.938
614.858;31316.018;  -13.310;37075.863
615.438;30398.750;   -7.460;35092.906
616.019;27728.008;   -7.601;33666.301
616.599;28379.230;  -12.020;34189.023
617.179;30243.141;  -11.780;36952.047
617.760;31349.129;   -8.570;39582.574
618.340;32417.465;  -11.471;38943.977
618.920;33601.664;  -11.170;37594.156
619.500;33251.625;  -11.071;37866.938
620.080;32237.945;   -7.750;37869.043
620.660;33488.691;  -12.711;36868.617
621.241;34840.867;  -10.211;36352.309
621.821;35076.512;  -10.961;35459.520
622.401;34167.098;   -7.720;35207.414
622.980;33444.023;   -8.981;35980.422
623.560;31968.971;   -9.331;37351.328
624.140;30637.029;   -9.850;34388.582
624.720;25454.656;   -7.451;32368.764
625.300;21861.799;   -9.070;32638.629
625.880;25196.869;  -12.601;34599.035
626.459;29192.078;  -11.751;36831.738
627.039;32236.891;   -9.281;38299.098
627.619;31994.027;   -8.801;38289.574
628.198;30439.723;  -12.071;37220.695
628.778;29703.576;   -9.461;37632.563
629.357;30365.758;   -8.491;38003.012
629.937;30247.988;   -9.721;38402.039
630.516;29732.059;   -9.951;37868.801
631.096;29404.480;  -11.731;35760.410
631.675;32019.898;   -8.572;35225.219
632.254;37103.094;  -11.282;35130.289
632.834;36533.402;  -13.322;35794.570
633.413;34651.715;  -10.301;35788.922
633.992;31920.803;   -8.582;34532.863
634.571;32794.277;   -8.352;33590.113
635.151;35888.414;  -11.912;34943.863
635.730;33981.965;  -10.511;35352.523
636.309;30386.285;   -7.731;35366.605
636.888;27914.098;   -9.952;36165.637
637.467;28532.990;  -11.672;37515.902
638.046;30251.035;   -8.901;39288.695
638.625;33442.875;   -7.912;38279.699
639.204;33225.797;  -10.022;37741.598
639.782;31791.773;  -12.252;38364.551
640.361;28087.326;  -10.041;36740.621
640.940;25315.941;  -11.161;34950.082
641.519;26024.705;   -9.701;34137.398
642.097;28746.971;  -11.271;35654.258
642.676;31539.754;   -8.651;35637.957
643.255;32301.064;   -8.711;36567.074
643.833;31507.193;   -9.581;37809.434
644.412;31443.805;  -13.711;37337.293
644.990;30424.840;  -11.811;37018.531
645.569;30278.646;   -9.411;36518.469
646.147;29278.266;  -10.291;36186.430
646.726;29228.270;  -12.401;36267.688
647.304;30589.400;  -10.411;36647.625
647.882;32272.521;   -9.651;39286.742
648.461;33718.289;   -9.631;39157.703
649.039;31927.777;  -11.881;35412.883
649.617;31335.697;   -9.661;34744.918
650.195;31053.574;   -9.301;35403.098
650.773;29641.789;  -10.511;35053.797
651.352;27172.398;  -11.521;33756.816
651.930;24844.152;  -12.211;31868.773
652.508;23337.910;   -9.171;33121.551
653.086;27244.607;   -9.371;33564.793
653.663;30110.277;  -13.161;34054.668
654.241;28783.018;  -13.031;35693.309
654.819;30438.570;   -9.371;36422.906
655.397;30639.980;  -10.511;38213.484
655.975;30208.721;  -10.371;39507.625
656.553;30006.500;  -10.051;39498.223
657.130;28454.297;  -10.061;40395.480
657.708;27789.250;   -9.561;39242.020
658.286;27878.109;  -11.511;38920.020
658.863;29136.914;  -10.261;40202.898
659.441;32101.180;   -7.531;39677.938
660.018;31612.695;   -9.501;40413.355
660.596;30454.857;  -13.301;39931.414
661.173;32435.127;  -11.211;39604.531
661.750;32509.057;   -9.951;39700.070
662.328;31145.025;   -9.390;39292.809
662.905;30415.230;  -11.330;38235.648
663.482;26369.156;   -9.050;36212.305
664.060;24601.482;   -8.240;35944.945
664.637;27313.328;  -10.050;35170.785
665.214;29035.408;  -11.760;34197.523
665.791;30545.891;  -10.530;34549.520
666.368;29379.420;   -9.690;35118.578
666.945;30052.686;   -9.320;36019.418
667.522;31595.877;  -11.860;36048.438
668.099;31254.355;  -10.770;36243.914
668.676;30041.559;   -6.260;35958.875
669.253;28879.279;   -7.000;37384.730
669.830;29502.979;  -10.190;36779.629
670.407;29127.922;   -9.550;35231.289
670.984;29031.020;   -9.260;35544.270
671.560;29626.666;   -9.280;35466.867
672.137;28999.666;  -11.810;34280.863
672.714;29897.230;  -11.490;34632.863
673.290;30428.137;   -7.740;35135.422
673.867;30598.861;  -10.660;36114.480
674.443;30489.246;  -12.230;36152.859
675.020;28763.838;  -10.450;35327.238
675.596;29950.500;   -9.260;35795.176
676.173;30328.672;  -10.780;35430.355
676.749;29999.232;  -13.690;33549.516
677.326;30014.291;  -11.980;32210.012
677.902;30023.250;   -8.630;32068.871
678.478;29342.014;  -10.730;32583.891
679.054;28772.172;  -10.520;32088.928
679.631;29043.256;  -11.920;30978.848
680.207;30473.213;   -7.490;33160.887
680.783;31989.943;   -9.860;35570.363
681.359;31100.199;  -13.380;36125.184
681.935;30561.143;  -12.480;35240.922
682.511;29860.908;   -7.900;34429.961
683.087;29965.721;   -7.710;34463.680
683.663;29510.600;  -11.480;34648.898
684.239;28227.881;  -14.090;34546.457
684.815;27806.920;   -7.560;35586.375
685.390;28185.588;   -9.910;35821.895
685.966;28770.676;  -11.159;35085.871
686.542;31236.914;  -11.169;34198.230
687.118;33491.590;   -5.959;32847.707
687.693;33678.164;  -10.329;32794.027
688.269;33303.844;  -12.059;33072.367
688.844;31418.568;  -10.909;33141.664
689.420;29288.061;   -8.019;33965.742
689.995;27121.908;   -8.399;34655.523
690.571;25741.354;  -10.949;33576.742
691.146;26068.057;   -9.619;32657.219
691.722;25611.549;   -8.999;32526.979
692.297;25410.338;  -11.589;33014.617
692.872;27215.473;  -11.739;34012.254
693.448;26893.605;  -11.059;34237.434
694.023;25927.740;  -10.139;34142.672
694.598;27768.203;   -9.029;34132.031
695.173;28140.084;  -13.319;34205.250
695.748;27382.760;  -10.169;32882.488
696.323;27612.383;   -8.339;32864.906
696.898;27921.244;   -8.169;33170.004
697.473;27805.545;  -12.309;32432.984
698.048;27154.215;  -10.989;31649.303
698.623;26927.738;   -9.329;30778.141
699.198;28826.412;   -9.849;31140.119
699.773;29789.143;  -12.329;31764.299
700.348;28126.588;  -10.389;31780.816
700.922;28240.033;   -9.269;32046.375
701.497;29235.748;   -9.329;32603.574
702.072;29402.018;  -10.789;34799.871
702.646;27954.047;  -10.839;35793.172
703.221;25970.496;   -9.099;35201.590
703.795;28017.969;  -10.939;34764.527
704.370;28428.570;  -12.859;34307.367
704.944;28927.598;  -11.559;33509.887
705.519;29724.279;   -7.939;31388.584
706.093;31087.736;  -10.499;31340.104
706.668;31358.635;  -11.289;32630.281
707.242;30186.686;  -11.509;32728.779
707.816;28687.111;   -9.639;32947.238
708.390;27285.393;  -11.429;33277.855
708.965;27805.002;  -11.869;33834.336
709.539;27809.676;  -11.689;33709.273
710.113;28238.590;  -10.478;33044.313
710.687;27619.109;  -10.228;31953.992
711.261;26010.711;  -13.698;30505.949
711.835;25831.723;  -13.378;30262.369
712.409;26539.264;   -9.698;31254.447
712.983;28440.125;  -11.898;32754.986
713.557;29385.469;  -15.138;34018.824
714.131;28977.281;  -14.098;34579.625
714.704;27920.139;   -9.958;33890.262
715.278;25708.006;  -10.028;33531.102
715.852;24715.238;  -11.148;33601.660
716.425;25525.100;   -9.068;33515.117
716.999;26320.203;  -10.038;33185.555
717.573;27319.781;   -9.798;33905.996
718.146;28382.174;  -12.378;35199.293
718.720;28517.252;  -11.918;35060.551
719.293;28086.086;   -8.088;34973.230
719.867;30869.209;  -10.888;36394.449
720.440;30578.186;  -11.938;36663.008
721.013;28975.902;  -12.818;35102.426
721.587;27472.072;  -10.298;33985.266
722.160;26379.961;  -10.048;33524.965
722.733;25353.842;  -12.108;32987.043
723.306;25633.855;  -10.818;33066.301
723.880;28087.502;   -8.908;33399.500
724.453;30155.221;   -9.878;33468.297
725.026;29214.184;  -11.188;33816.637
725.599;26425.004;  -11.678;32797.996
726.172;26728.080;   -9.618;33187.434
726.745;27760.551;   -8.258;35136.613
727.318;29014.098;  -12.978;35751.730
727.891;29575.350;  -12.148;35890.430
728.463;29372.682;   -8.968;34822.090
729.036;28328.160;  -10.188;32895.086
729.609;28727.545;  -11.788;31823.225
730.182;25675.025;  -11.788;31445.283
730.754;23218.703;  -10.268;32373.223
731.327;23380.779;   -9.998;33676.820
731.900;23697.102;  -12.228;33417.000
732.472;24952.750;  -13.848;31978.498
733.045;26836.619;   -8.698;30368.777
733.617;26873.295;  -10.607;30574.215
734.190;26548.492;  -11.507;31280.975
734.762;23782.514;  -13.647;31674.412
735.334;22033.537;   -9.767;31247.291
735.907;22659.504;   -9.897;29876.211
736.479;22755.281;  -11.637;29808.488
737.051;22480.725;   -9.567;30233.547
737.623;23455.410;   -8.187;31469.086
738.195;24136.322;  -11.187;31784.225
738.768;25924.164;  -12.337;32120.523
739.340;26276.045;  -12.227;32094.342
739.912;25193.422;  -11.057;31312.680
740.484;23722.039;  -10.207;31946.238
741.056;22635.297;  -10.047;32984.059
741.628;24345.238;  -13.627;33897.715
742.199;26400.250;   -7.177;33213.016
742.771;24796.426;  -10.797;31369.113
743.343;22602.703;  -11.997;31865.473
743.915;21599.559;  -12.867;32388.631
744.487;21686.064;   -7.617;31079.568
745.058;21929.756;   -9.557;30570.107
745.630;22377.885;   -9.877;29970.127
746.201;23267.559;  -14.177;29186.766
746.773;23896.451;   -9.237;28805.723
747.344;23792.307;   -9.847;29591.223
747.916;22305.828;  -11.657;31412.201
748.487;22444.205;  -10.587;32194.898
749.059;23619.203;   -8.707;32533.719
749.630;24277.021;  -10.537;32158.518
750.201;23254.182;  -11.687;30855.395
750.773;21482.279;  -11.647;28622.555
751.344;21378.809;   -7.147;28405.732
751.915;22633.656;   -9.757;28461.551
752.486;22611.666;  -12.427;27842.850
753.057;20384.945;  -12.227;27845.008
753.628;19208.672;  -10.417;27728.107
754.199;20293.240;  -11.767;27381.086
754.770;21299.844;  -11.187;25882.203
755.341;21338.801;  -10.507;25886.184
755.912;21379.928;   -9.387;26050.861
756.483;20952.938;  -10.647;26798.779
757.054;19203.186;  -11.837;27048.238
757.625;17863.660;  -12.716;26294.838
758.195;17464.973;   -9.666;26142.076
758.766;17142.730;   -8.656;26392.234
759.337;17974.859;  -12.856;26334.594
759.907;19633.047;  -13.366;27579.652
760.478;20488.598;   -8.576;28352.770
761.048;19863.887;  -10.526;27325.088
761.619;19056.240;  -11.116;26460.428
762.189;19131.621;  -12.136;26029.826
762.760;20174.543;   -9.456;26430.145
763.330;21248.475;   -7.136;26670.902
763.900;20671.543;  -11.786;26603.021
764.471;18099.859;  -11.546;25542.740
765.041;16834.658;   -8.096;24358.459
765.611;16919.814;   -8.876;23991.297
766.181;17338.754;  -12.196;24470.236
766.751;18259.545;  -11.636;24845.975
767.321;17959.564;  -10.156;24533.633
767.891;16092.419;  -11.766;24916.492
768.461;15581.170;  -14.936;24776.771
769.031;16096.144;  -12.356;24757.988
769.601;17627.590;   -7.526;24181.088
770.171;17464.930;  -10.766;23670.387
770.741;16692.129;  -13.176;22960.045
771.311;16791.092;  -10.616;22917.523
771.880;17133.326;   -9.576;23562.941
772.450;16839.088;  -10.336;24216.500
773.020;16769.711;  -13.516;24140.398
773.589;16011.892;  -13.466;24414.857
774.159;15399.717;   -8.686;23858.717
774.729;15136.416;   -9.476;22942.135
775.298;14709.179;  -13.666;22324.033
775.867;14290.668;  -11.716;21140.313
776.437;14356.729;   -9.906;20838.092
777.006;14193.302;  -12.166;20599.510
777.576;14022.252;  -12.356;20508.809
778.145;14049.184;  -11.646;20732.947
778.714;13879.025;   -8.226;21062.465
779.283;13171.989;   -9.556;20949.664
779.853;12705.554;  -14.116;20508.623
780.422;13144.103;  -11.506;20649.082
780.991;12719.994;   -9.556;21527.520
781.560;11625.336;   -9.095;22632.658
782.129;11519.871;  -12.135;23048.277
782.698;11560.194;  -10.865;23438.555
783.267;11136.452;   -9.335;23267.734
783.836;11040.543;  -11.045;22415.133
784.404;11951.130;  -13.865;20443.152
784.973;12482.756;  -13.095;19699.150
785.542;12380.782;  -11.575;19763.828
786.111;12159.225;   -9.705;20341.408
786.679;11672.689;  -12.105;20207.967
787.248;11429.783;  -12.455;19516.465
787.817;11252.739;  -11.535;18900.363
788.385;10889.655;   -9.765;17879.121
788.954;10356.813;  -14.005;17658.301
789.522; 9841.969;  -11.955;17788.879
790.090;10338.016;  -10.135;18118.277
790.659;10713.485;  -10.975;18338.736
791.227;10239.207;  -13.375;18508.615
791.795;10637.539;  -12.375;17898.254
792.364;10980.860;  -10.725;17295.133
792.932;11267.362;   -9.715;16822.051
793.500;11365.234;  -12.675;17040.148
794.068;11518.232;  -13.495;17179.787
794.636;11628.012;  -10.885;16664.246
795.204;11064.080;  -11.045;16524.545
795.772;11089.343;  -13.175;17274.564
796.340;10658.023;  -12.445;17891.002
796.908;10488.877;   -9.735;17648.561
797.476;10366.396;   -9.815;17064.080
798.044; 9939.672;  -13.985;16672.777
798.612; 9163.431;  -13.115;17023.996
799.180; 8787.146;  -10.185;16561.615
799.747; 8734.488;   -9.055;15962.773
800.315; 8509.313;  -12.385;15296.992
800.883; 8197.887;  -15.035;14801.771
801.450; 8196.968;  -10.365;14534.430
802.018; 8232.571;   -9.855;14173.248
802.585; 8320.460;  -11.905;14029.547
803.153; 8332.540;  -11.585;13836.846
803.720; 8162.027;   -9.095;13567.324
804.287; 7748.573;   -9.135;13360.622
804.855; 7370.421;  -11.604;13681.981
805.422; 7273.048;  -11.794;13536.560
805.989; 7279.774;  -10.734;13355.958
806.556; 7423.130;  -10.444;13747.896
807.124; 7623.962;  -12.764;13987.376
807.691; 7604.909;  -12.964;14038.674
808.258; 7419.656;  -11.134;14120.152
808.825; 7140.248;   -9.854;13860.111
809.392; 7193.864;  -10.504;13268.790
809.959; 6743.574;  -13.054;12680.389
810.526; 6358.989;   -8.294;12427.308
811.093; 6427.977;   -8.394;12030.105
811.659; 7010.914;  -12.304;11653.664
812.226; 7469.053;  -13.944;11637.183
812.793; 7198.404;  -10.484;11611.521
813.360; 6643.876;  -10.144;11885.181
813.926; 6373.400;  -11.684;12770.539
814.493; 6169.265;  -13.644;12677.638
815.060; 5795.463;   -9.724;11974.336
815.626; 5792.777;   -9.854;11594.715
816.193; 6166.475;  -13.254;11579.474
816.759; 6204.318;  -13.204;11666.972
817.325; 6294.622;   -9.434;11325.530
817.892; 6658.015;  -10.134;11105.369
818.458; 7050.944;  -13.474;10843.928
819.024; 6697.044;  -11.854;10714.406
819.591; 6427.145;  -10.244;10469.165
820.157; 6222.407;  -10.704;10235.523
820.723; 5759.778;  -12.324;10847.563
821.289; 5501.880;   -9.444;11040.980
821.855; 5447.308;   -8.374;10357.100
822.421; 5464.735;  -10.234; 9978.918
822.987; 5501.650;  -13.294; 9754.177
823.553; 5219.267;  -10.884;10065.755
824.119; 5053.668;   -8.884;10036.294
824.685; 5146.724;   -6.784;10029.192
825.251; 5249.378;  -12.004;10199.230
825.816; 5238.865;  -11.474; 9820.189
826.382; 5042.276;   -9.174; 9297.248
826.948; 5257.280;   -9.214; 9381.347
827.513; 5651.469;  -10.774; 9450.726
828.079; 5496.855;  -11.924; 9472.444
828.645; 4945.629;  -10.543; 9292.643
829.210; 4856.498;  -10.533; 9065.341
829.776; 4860.876;  -10.753; 9132.620
830.341; 4791.608;  -10.173; 9092.878
830.906; 5017.806;  -10.743; 9078.557
831.472; 5395.487;  -11.113; 8534.535
832.037; 5160.071;  -10.603; 8677.874
832.602; 4625.518;  -13.323; 8628.692
833.167; 4370.825;  -10.823; 8879.031
833.733; 4320.511;  -10.113; 9189.790
834.298; 4481.007;  -13.583; 9052.608
834.863; 4583.807;  -12.703; 8895.087
835.428; 4593.766;  -10.523; 8824.266
835.993; 4450.846;   -6.963; 8845.385
836.558; 4282.312;  -10.763; 8888.563
837.123; 4418.190;   -9.903; 8966.582
837.688; 4670.733;   -9.913; 8617.860
838.253; 4948.151;  -10.283; 8590.699
838.817; 5161.877;  -12.963; 8443.797
839.382; 5070.339;  -14.243; 8799.356
839.947; 4754.241;  -10.733; 8810.595
840.511; 4457.507;   -9.383; 8796.394
841.076; 4078.330;  -12.563; 8347.231
841.641; 4138.172;  -12.953; 8224.330
842.205; 4240.078;   -7.043; 8223.349
842.770; 4348.652;   -8.163; 8622.107
843.334; 4513.221;  -12.503; 8410.386
843.898; 4430.959;  -11.693; 8337.465
844.463; 4417.915;  -10.203; 8506.283
845.027; 4174.253;   -9.533; 8280.962
845.591; 3992.759;  -13.443; 8231.141
846.156; 3981.385;  -13.143; 7969.179
846.720; 3873.738;   -9.433; 7768.278
847.284; 3759.424;  -11.033; 7630.957
847.848; 3632.924;  -10.403; 7472.395
848.412; 3528.832;  -11.553; 7437.394
848.976; 3555.674;   -8.393; 7674.592
849.540; 3474.106;   -8.713; 7836.011
850.104; 3584.003;  -12.463; 7913.669
850.668; 3931.305;  -12.973; 7694.508
851.232; 4010.423;  -10.793; 7756.887
851.796; 3837.255;  -10.662; 7926.545
852.359; 3532.115;  -13.082; 7827.844
852.923; 3347.175;  -12.192; 7641.163
853.487; 3158.491;  -11.912; 7342.501
854.050; 3110.800;  -10.892; 7042.820
854.614; 3236.715;  -13.992; 7151.338
855.177; 3360.165;  -11.732; 7105.077
855.741; 3377.021;   -8.962; 6989.675
856.304; 3237.617;   -9.442; 6596.634
856.868; 3180.821;  -14.192; 6356.272
857.431; 3254.809;  -12.702; 6468.571
857.995; 3352.612;   -9.942; 6373.210
858.558; 3348.011;   -9.112; 6324.448
859.121; 3071.267;  -12.932; 6408.327
859.684; 2938.396;  -13.442; 6347.886
860.247; 3035.021;  -10.632; 6321.264
860.810; 3027.285;  -11.272; 6301.903
861.374; 2772.945;   -9.832; 6607.881
861.937; 2525.433;  -11.762; 6408.200
862.500; 2522.788;   -9.722; 6572.639
863.062; 2685.223;  -10.512; 6387.297
863.625; 2826.787;  -11.232; 6190.836
864.188; 2957.436;  -14.112; 5807.254
864.751; 3001.343;  -11.302; 5682.413
865.314; 2887.107;  -10.112; 5547.492
865.876; 2683.418;  -12.182; 5500.150
866.439; 2672.187;  -10.722; 5415.909
867.002; 2620.954;   -9.252; 5501.567
867.564; 2434.709;   -9.572; 5413.946
868.127; 2236.262;  -13.142; 5160.325
868.689; 2146.354;  -12.902; 5133.183
869.252; 2051.967;   -9.732; 5252.382
869.814; 1966.354;   -9.432; 5297.141
870.377; 1977.724;  -11.552; 5390.919
870.939; 2037.427;   -9.052; 5599.898
871.501; 2091.787;  -10.982; 5248.336
872.063; 2091.011;  -12.292; 4854.235
872.626; 2051.804;  -14.912; 4817.074
873.188; 2075.664;  -13.112; 4987.732
873.750; 2048.096;  -13.442; 4868.651
874.312; 1958.907;   -9.402; 4779.330
874.874; 1875.988;  -11.062; 4866.348
875.436; 1796.773;  -13.931; 4718.887
875.998; 1789.772;   -9.561; 4660.005
876.560; 1816.500;  -11.321; 4462.964
877.122; 1765.268;  -12.221; 4145.042
877.683; 1678.593;  -12.191; 4056.481
878.245; 1620.584;  -12.101; 3950.740
878.807; 1666.437;   -8.971; 4058.958
879.369; 1689.433;  -12.071; 3954.677
879.930; 1595.151;  -14.621; 3941.495
880.492; 1537.067;  -10.311; 4067.014
881.053; 1504.493;  -10.901; 3859.633
881.615; 1412.660;  -14.411; 3776.071
882.176; 1324.313;  -13.761; 3734.750
882.738; 1279.758;   -9.181; 3678.489
883.299; 1258.887;  -11.791; 3405.407
883.860; 1264.268;  -13.121; 3351.106
884.422; 1261.062;  -11.211; 3394.044
884.983; 1221.786;  -10.091; 3166.443
885.544; 1149.079;   -8.461; 3189.802
886.105; 1071.511;  -12.361; 3160.360
886.666; 1009.331;  -14.141; 3093.059
887.227;  957.759;  -11.361; 2941.957
887.788;  899.154;  -11.401; 2974.836
888.349;  841.136;  -13.791; 2721.214
888.910;  840.648;  -13.191; 2696.493
889.471;  849.005;   -9.881; 2560.172
890.032;  831.049;   -9.881; 2558.190
890.593;  813.631;  -10.371; 2567.669
891.153;  788.396;  -13.301; 2460.307
891.714;  740.648;  -11.431; 2372.046
892.275;  703.227;  -11.291; 2309.505
892.835;  664.628;  -11.471; 2382.543
893.396;  614.311;  -11.541; 2295.502
893.956;  558.976;  -11.181; 2162.420
894.517;  522.695;  -11.741; 2125.439
895.077;  517.867;  -11.671; 2086.978
895.638;  518.905;  -11.311; 2126.316
896.198;  489.360;   -9.831; 1838.275
896.758;  443.937;   -8.421; 1892.813
897.319;  415.054;  -12.351; 1792.232
897.879;  398.602;  -13.511; 1762.751
898.439;  372.169;  -12.001; 1661.149
898.999;  347.755;  -10.180; 1781.468
899.559;  340.742;  -12.030; 1703.347
900.119;  336.190;  -15.710; 1537.525
900.679;  331.282;   -8.900; 1638.384
901.239;  316.064;   -8.340; 1527.902
901.799;  305.383;  -13.910; 1456.441
902.359;  299.509;  -13.460; 1357.140
902.919;  292.337;  -11.490; 1331.118
903.479;  279.172;  -12.110; 1317.257
904.038;  258.047;  -11.720; 1262.595
904.598;  243.502;  -13.610; 1152.034
905.158;  239.028;  -11.040; 1240.893
905.717;  231.723;  -10.900; 1233.691
906.277;  221.434;  -15.080; 1217.330
906.836;  211.680;  -13.380; 1222.408
907.396;  201.961;  -10.780; 1193.047
907.955;  194.497;   -8.500; 1182.526
908.515;  189.651;  -12.760; 1099.364
909.074;  183.358;  -11.900; 1092.863
909.633;  177.922;   -8.950; 1069.121
910.192;  172.885;   -8.770; 1196.460
910.752;  168.167;  -12.390; 1029.960
911.311;  164.252;  -13.680; 1009.780
911.870;  161.427;  -12.370;  971.460
912.429;  161.932;  -10.900; 1094.080
912.988;  161.596;  -11.690; 1081.060
913.547;  156.873;  -13.240;  940.380
914.106;  151.494;  -11.990;  999.420
914.665;  147.714;   -9.990;  984.020
915.224;  147.722;  -12.880; 1035.760
915.782;  148.072;  -12.350;  922.560
916.341;  148.155;   -9.110; 1049.840
916.900;  143.639;   -9.270;  925.260
917.458;  141.277;  -13.240;  884.220
918.017;  141.477;  -13.550;  942.600
918.576;  140.383;  -12.320;  904.440
919.134;  138.981;  -11.490;  837.980
919.693;  136.135;  -13.670;  893.060
920.251;  134.522;  -15.470;  876.500
920.809;  133.416;  -11.290;  839.580
921.368;  134.304;  -10.210;  885.360
921.926;  132.328;  -12.140;  842.940
922.484;  131.603;  -13.080;  903.360
923.042;  131.274;  -11.720;  880.340
923.601;  134.110;   -7.480;  998.680
924.159;  132.548;  -11.570;  935.560
924.717;  129.435;  -13.840;  841.080
925.275;  128.826;  -10.640;  903.240
925.833;  128.128;  -11.540;  779.320
926.391;  129.994;  -12.960;  938.380
926.949;  128.138;  -14.130;  857.680
927.506;  128.349;  -11.750;  903.500
928.064;  127.544;  -10.250;  877.580
928.622;  127.581;  -13.030;  880.100
929.180;  126.983;  -13.400;  814.180
929.737;  128.233;  -10.700;  808.540
930.295;  131.952;  -10.070;  928.480
930.853;  133.516;  -11.960;  849.100
931.410;  134.518;  -13.120;  821.120
931.968;  132.796;  -10.770;  940.660
932.525;  132.941;  -10.680;  909.380
933.082;  133.289;  -13.130;  811.440
933.640;  134.477;  -13.210;  925.900
934.197;  131.918;  -11.060;  886.360
934.754;  132.205;   -9.580;  897.780
935.312;  136.144;  -14.000;  863.340
935.869;  139.806;  -10.710; 1012.980
936.426;  140.077;   -9.860;  872.800
936.983;  141.721;   -9.710;  889.020
937.540;  140.558;  -13.990;  838.280
938.097;  139.732;  -14.040;  940.120
938.654;  140.145;  -10.310;  898.860
939.211;  141.116;  -10.560;  952.480
939.768;  145.209;  -13.900;  915.420
940.324;  149.054;  -14.760;  904.200
940.881;  150.223;  -10.370;  878.500
941.438;  149.814;   -8.260; 1021.200
941.995;  146.833;  -12.540;  992.560
942.551;  143.557;  -14.670;  875.620
943.108;  144.325;  -10.450;  937.920
943.664;  146.937;  -10.750;  869.340
944.221;  149.988;  -11.550; 1088.140
944.777;  147.599;  -14.770;  869.680
945.334;  147.999;  -12.820;  884.840
945.890;  148.623;  -10.130;  946.480
946.446;  150.187;  -13.470;  947.020
947.003;  152.262;  -12.120;  964.940
947.559;  153.083;   -9.980; 1063.040
948.115;  152.634;   -9.080; 1026.540
948.671;  151.428;  -10.830;  967.300
949.227;  148.733;  -12.440;  859.560
949.783;  145.988;  -12.910;  858.900
950.339;  147.833;  -10.270;  991.000
950.895;  147.794;  -13.630; 1023.840
951.451;  147.134;  -15.100;  925.280
952.007;  147.199;  -11.330;  998.540
952.563;  147.465;  -10.580;  937.780
953.118;  147.237;  -13.440;  904.940
953.674;  146.589;  -12.710;  935.780
954.230;  145.557;  -10.350;  949.640
954.785;  142.964;   -9.190;  936.640
955.341;  141.809;  -11.200;  998.160
955.897;  139.030;  -16.560;  834.660
956.452;  140.351;  -12.570;  953.840
957.008;  140.260;   -7.970; 1083.640
957.563;  137.644;  -11.940; 1009.540
958.118;  133.013;  -13.450;  877.700
958.674;  132.508;  -12.030;  946.780
959.229;  133.563;   -9.410; 1013.980
959.784;  132.210;  -12.000;  832.400
960.339;  131.863;  -14.780; 1001.280
960.894;  127.574;   -9.860;  963.760
961.449;  124.518;   -9.970;  859.960
962.004;  125.152;  -10.900; 1212.840
962.559;  119.293;  -13.150;  860.140
963.114;  116.407;  -13.740;  742.480
963.669;  116.278;   -9.820;  915.500
964.224;  115.942;  -13.890;  874.340
964.779;  114.541;  -12.600;  828.420
965.334;  115.049;  -10.950; 1017.860
965.888;  114.174;  -11.170;  875.360
966.443;  117.896;  -12.540;  972.380
966.998;  116.727;  -15.780;  819.460
967.552;  115.364;   -9.760;  908.380
968.107;  112.499;   -9.060;  868.300
968.661;  113.357;  -11.950;  922.440
969.216;  113.727;  -12.800;  856.280
969.770;  113.760;  -11.210;  917.200
970.324;  113.080;  -11.610;  923.140
970.879;  110.530;  -11.370;  947.180
971.433;  107.243;  -12.540;  952.720
971.987;  101.959;  -11.320;  895.340
972.541;   99.217;  -10.720;  917.100
973.095;   99.659;   -9.680; 1009.460
973.649;   97.662;  -11.440;  809.480
974.203;   96.671;  -11.210;  829.040
974.757;   95.917;  -10.240;  855.220
975.311;   96.353;  -13.720;  872.600
975.865;   95.936;  -13.770;  881.820
976.419;   94.213;  -11.690;  857.400
976.973;   94.700;   -9.510;  849.620
977.526;   96.169;  -12.620;  949.920
978.080;   95.098;  -12.010;  796.780
978.634;   96.249;  -10.170;  921.320
979.187;   93.716;   -9.020;  905.400
979.741;   91.406;   -9.820; 1018.380
980.294;   87.277;  -14.870;  789.160
980.848;   85.342;  -12.380;  717.220
981.401;   86.857;  -10.350;  816.540
981.955;   89.341;  -13.720;  844.300
982.508;   88.109;  -11.490;  746.340
983.061;   88.441;  -10.000;  915.260
983.615;   83.999;  -11.480;  798.800
984.168;   81.501;  -13.220;  770.080
984.721;   81.019;  -13.960;  880.760
985.274;   79.998;  -10.870;  867.500
985.827;   78.653;   -9.790;  834.220
986.380;   76.556;  -13.120;  721.340
986.933;   76.090;  -12.450;  864.800
987.486;   74.481;  -10.210;  861.920
988.039;   73.585;   -8.430;  863.100
988.591;   72.646;  -10.520;  893.260
989.144;   70.043;  -14.860;  737.260
989.697;   68.913;  -13.080;  758.740
990.250;   69.321;  -10.150;  858.100
990.802;   68.429;  -13.430;  755.860
991.355;   69.831;  -12.750;  974.880
991.907;   67.410;  -12.040;  864.320
992.460;   64.990;  -11.330;  753.760
993.012;   64.154;  -13.610;  749.540
993.565;   63.369;  -13.460;  711.360
994.117;   64.720;   -9.360;  950.780
994.669;   61.289;  -11.300;  701.320
995.221;   59.558;  -13.540;  791.920
995.774;   58.314;  -13.430;  787.580
996.326;   56.312;  -12.520;  740.220
996.878;   55.780;  -10.950;  838.420
997.430;   53.949;  -14.300;  699.860
997.982;   53.228;  -13.760;  750.140
998.534;   52.739;  -11.530;  739.060
999.086;   50.980;  -10.310;  738.220
999.638;   50.468;  -12.530;  661.380
1000.190;   49.809;  -11.840;  699.320
1000.741;   49.362;  -10.260;  742.700
1001.293;   49.052;   -8.860;  686.020
1001.845;   47.512;  -13.700;  676.640
1002.396;   47.955;  -12.100;  743.400
1002.948;   47.594;  -12.760;  737.400
1003.500;   45.102;  -10.380;  723.780
1004.051;   46.527;  -11.900;  907.580
1004.603;   44.679;  -12.250;  791.820
1005.154;   40.423;  -13.210;  608.980
1005.705;   40.217;  -10.950;  723.960
1006.257;   40.230;  -13.880;  707.220
1006.808;   39.267;  -12.840;  685.460
1007.359;   39.167;  -10.570;  763.240
1007.910;   37.258;   -9.620;  646.640
1008.461;   37.989;  -13.630;  732.940
1009.013;   36.410;  -17.200;  588.340
1009.564;   37.865;  -10.200;  793.520
1010.115;   35.564;  -12.570;  597.040
1010.665;   35.517;  -15.150;  602.160
1011.216;   35.577;  -14.480;  667.920
1011.767;   34.554;  -11.340;  697.920
1012.318;   34.964;   -9.780;  736.980
1012.869;   34.340;  -12.380;  679.000
1013.419;   33.538;  -15.560;  603.120
1013.970;   33.167;  -11.010;  666.640
1014.521;   33.379;  -11.610;  620.620
1015.071;   33.346;  -13.450;  670.380
1015.622;   33.186;  -13.870;  635.460
1016.172;   31.650;  -11.610;  596.820
1016.723;   31.687;  -12.120;  614.380
1017.273;   31.025;  -13.620;  604.160
1017.823;   31.128;  -14.140;  650.340
1018.374;   30.443;  -12.800;  611.760
1018.924;   30.050;  -12.340;  716.880
1019.474;   31.522;  -11.410;  718.880
1020.024;   30.598;  -14.770;  657.580
1020.574;   30.810;   -9.780;  726.160
1021.124;   30.335;   -8.560;  673.580
1021.674;   29.399;  -15.190;  559.120
1022.224;   31.049;  -13.530;  708.940
1022.774;   29.997;  -13.280;  668.820
1023.324;   30.342;  -10.690;  753.520
1023.874;   31.832;  -10.240;  875.760
1024.423;   29.663;  -12.540;  613.700
1024.973;   28.661;  -10.010;  610.760
1025.523;   27.940;  -10.550;  620.960
1026.072;   27.669;  -13.560;  606.420
1026.622;   27.829;  -15.120;  675.740
1027.172;   29.248;  -11.260;  715.660
1027.721;   27.971;  -11.410;  601.220
1028.270;   28.011;  -13.530;  663.400
1028.820;   27.809;  -13.680;  638.080
1029.369;   27.423;  -13.520;  612.700
1029.918;   26.954;  -10.980;  649.840
1030.468;   27.012;  -13.530;  564.780
1031.017;   27.209;  -13.170;  634.800
1031.566;   26.102;  -12.200;  608.900
1032.115;   26.447;   -9.960;  694.500
1032.664;   25.562;  -13.210;  596.480
1033.213;   26.413;  -12.500;  735.420
1033.762;   25.525;  -11.910;  635.620
1034.311;   24.963;   -9.640;  677.220
1034.860;   26.398;  -13.310;  691.000
1035.408;   26.069;  -11.830;  722.720
1035.957;   25.851;  -12.000;  719.540
1036.506;   23.638;  -11.690;  530.800
1037.055;   26.205;  -10.990;  844.320
1037.603;   24.810;  -15.120;  664.000
1038.152;   22.990;  -12.450;  534.760
1038.700;   22.838;  -10.560;  585.740
1039.249;   23.574;  -11.080;  681.220
1039.797;   24.904;  -12.540;  633.360
1040.345;   23.924;  -11.920;  705.420
1040.894;   23.471;  -11.410;  625.300
1041.442;   23.666;  -14.320;  632.200
1041.990;   23.095;  -16.240;  559.160
1042.538;   21.801;  -11.680;  536.180
1043.087;   22.052;  -10.760;  570.860
1043.635;   23.830;  -11.850;  670.500
1044.183;   22.511;  -15.480;  586.400
1044.731;   21.657;  -11.770;  576.000
1045.279;   21.885;  -13.090;  674.920
1045.827;   24.628;  -12.440;  892.400
1046.374;   21.439;  -13.840;  515.420
1046.922;   19.963;  -13.220;  590.580
1047.470;   21.960;  -10.230;  691.300
1048.018;   22.102;  -14.590;  647.960
1048.565;   22.070;  -12.050;  708.600
1049.113;   20.130;  -11.650;  557.000
1049.660;   20.523;  -10.510;  629.660
1050.208;   20.582;  -13.310;  675.640
1050.755;   21.109;  -15.900;  606.580
1051.303;   20.210;  -11.430;  686.820
1051.850;   20.156;   -8.480;  635.120
1052.397;   18.336;  -15.010;  473.960
1052.945;   19.353;  -13.960;  617.760
1053.492;   20.854;  -13.150;  741.840
1054.039;   20.323;   -9.630;  720.180
1054.586;   19.434;  -13.680;  557.240
1055.133;   20.068;  -14.570;  693.140
1055.680;   20.215;  -13.820;  646.620
1056.227;   18.496;  -11.730;  542.780
1056.774;   19.977;  -12.480;  794.980
1057.321;   18.949;  -13.930;  523.260
1057.868;   18.315;  -11.690;  651.320
1058.415;   17.948;   -9.520;  651.980
1058.961;   18.892;  -13.160;  678.940
1059.508;   18.768;  -12.920;  643.820
1060.055;   18.325;  -11.920;  581.780
1060.601;   17.781;  -11.500;  624.300
1061.148;   18.782;  -14.330;  616.820
1061.694;   17.925;  -16.870;  592.580
1062.241;   17.496;  -10.330;  596.320
1062.787;   17.023;  -10.620;  663.140
1063.334;   18.825;  -10.110;  808.560
1063.880;   18.016;  -13.400;  668.360
1064.426;   16.643;  -10.680;  706.820
1064.972;   16.353;   -9.920;  601.340
1065.518;   15.874;  -10.980;  566.640
1066.065;   17.309;  -14.890;  624.460
1066.611;   15.291;  -12.870;  598.800
1067.157;   16.336;  -12.950;  641.860
1067.703;   16.488;  -13.540;  668.480
1068.249;   16.260;  -13.540;  605.220
1068.794;   15.981;  -12.600;  626.880
1069.340;   14.632;  -10.620;  578.960
1069.886;   16.011;  -12.830;  590.700
1070.432;   14.997;  -14.870;  541.720
1070.977;   15.111;  -11.980;  601.080
1071.523;   14.929;   -8.200;  573.060
1072.068;   15.105;  -12.330;  582.000
1072.614;   15.511;  -16.370;  527.760
1073.160;   15.648;  -11.100;  687.040
1073.705;   14.686;  -10.480;  572.520
1074.250;   14.445;  -14.520;  559.900
1074.796;   15.821;  -11.460;  655.160
1075.341;   14.568;  -11.950;  664.100
1075.886;   14.476;  -11.460;  594.240
1076.431;   14.172;  -13.770;  649.880
1076.976;   14.756;  -12.680;  639.220
1077.521;   13.400;  -13.170;  583.080
1078.067;   13.178;  -10.860;  579.400
1078.612;   13.520;  -13.920;  661.620
1079.156;   13.548;  -13.880;  601.540
1079.701;   14.183;  -13.120;  693.260
1080.246;   13.905;   -9.940;  696.300
1080.791;   13.649;  -14.740;  625.020
1081.336;   13.720;  -13.750;  659.320
1081.880;   13.181;  -13.400;  649.680
1082.425;   11.858;  -12.220;  573.480
1082.970;   13.965;  -11.610;  717.040
1083.514;   12.914;  -13.580;  597.000
1084.059;   11.678;  -12.810;  586.720
1084.603;   11.692;  -12.320;  565.840
1085.147;   12.653;  -13.190;  645.220
1085.692;   13.623;  -12.480;  716.800
1086.236;   11.554;  -13.020;  503.140
1086.780;   13.585;   -9.190;  751.440
1087.325;   12.480;  -12.480;  654.620
1087.869;   12.005;  -12.450;  610.700
1088.413;   12.319;  -12.240;  705.040
1088.957;   10.634;   -9.020;  543.400
1089.501;   12.754;  -10.320;  766.640
1090.045;   12.242;  -12.720;  726.480
1090.589;    9.888;  -13.690;  569.920
1091.133;   11.292;  -10.020;  673.340
1091.676;   11.849;  -12.330;  591.940
1092.220;   11.625;  -14.970;  600.920
1092.764;   12.047;  -12.430;  706.960
1093.307;   11.049;   -9.800;  673.780
1093.851;    9.562;  -14.970;  556.540
1094.395;   10.909;  -15.310;  683.140
1094.938;    9.529;  -10.370;  632.520
1095.482;    9.739;  -11.050;  559.800
1096.025;   10.416;  -11.840;  710.880
1096.568;   11.167;  -12.840;  779.280
1097.112;    8.331;  -14.700;  508.180
1097.655;    9.753;   -8.720;  603.000
1098.198;    8.896;  -13.610;  600.180
1098.741;    9.278;  -13.350;  612.860
1099.285;   10.127;  -11.230;  657.300
1099.828;    7.915;  -11.840;  439.400
1100.371;    9.464;  -10.840;  608.160
1100.914;    9.440;  -14.190;  682.660
1101.457;    9.127;  -11.240;  679.900
1101.999;    8.271;  -11.270;  584.680
1102.542;    8.720;  -11.480;  641.440
1103.085;    8.548;  -11.750;  658.500
1103.628;    9.097;  -11.400;  762.060
1104.170;    8.003;  -10.490;  588.280
1104.713;    8.967;  -10.600;  646.700
1105.256;    8.200;  -14.360;  557.440
1105.798;    7.183;  -13.210;  499.980
1106.341;    8.702;  -10.270;  728.900
1106.883;    7.994;  -12.200;  521.340
1107.425;    8.023;  -13.110;  668.180
1107.968;    7.453;  -12.840;  612.380
1108.510;    8.296;   -6.480;  684.960
1109.052;    6.018;  -13.940;  612.620
1109.594;    7.061;  -13.690;  554.440
1110.136;    8.141;  -11.880;  643.220
1110.679;    6.779;   -9.500;  633.080
1111.221;    7.388;  -14.160;  604.460
1111.763;    7.055;  -13.980;  559.220
1112.304;    6.488;  -13.880;  547.140
1112.846;    7.165;  -12.210;  666.240
1113.388;    9.030;  -11.390;  942.180
1113.930;    7.377;  -14.540;  694.200
1114.472;    5.480;  -12.640;  606.540
1115.013;    4.979;  -11.620;  551.280
1115.555;    5.742;  -13.640;  587.100
1116.097;    5.201;  -15.380;  579.480
1116.638;    6.011;  -12.640;  684.600
1117.180;    6.301;   -9.850;  667.740
1117.721;    6.636;  -13.690;  568.580
1118.262;    6.823;  -12.680;  677.960
1118.804;    6.434;  -12.530;  637.340
1119.345;    5.232;  -11.690;  578.400
1119.886;    6.159;  -13.380;  704.040
1120.427;    5.364;  -14.070;  589.020
1120.969;    4.089;  -13.500;  597.920
1121.510;    4.520;  -11.480;  563.060
1122.051;    5.179;  -12.830;  723.580
1122.592;    4.619;  -14.290;  655.420
1123.133;    3.505;  -12.400;  547.940
1123.673;    6.188;  -10.130;  706.480
1124.214;    4.935;  -12.930;  612.460
1124.755;    5.357;  -14.380;  639.460
1125.296;    4.653;  -14.000;  627.320
1125.836;    4.985;  -10.070;  691.500
1126.377;    3.845;  -12.640;  599.660
1126.918;    5.627;  -12.960;  614.980
1127.458;    4.365;  -13.350;  622.220
1127.999;    4.525;  -10.750;  656.980
1128.539;    4.836;  -12.350;  694.240
1129.079;    3.777;  -14.860;  632.720
1129.620;    3.357;  -13.840;  558.100
1130.160;    3.330;  -12.330;  539.480
1130.700;    4.497;  -14.530;  640.840
1131.240;    4.804;  -12.530;  643.700
1131.781;    4.070;  -14.450;  619.680
1132.321;    3.940;   -9.790;  599.120
1132.861;    2.937;  -14.860;  564.200
1133.401;    2.709;  -14.290;  593.940
1133.941;    3.235;  -11.750;  626.280
1134.481;    2.094;   -9.920;  597.580
1135.020;    2.643;  -12.290;  609.160
1135.560;    3.219;  -11.650;  674.940
1136.100;    2.474;  -16.270;  501.160
1136.640;    1.400;  -10.890;  510.480
1137.179;    2.545;  -14.180;  537.960
1137.719;    2.586;  -16.250;  605.400
1138.258;    2.350;  -14.230;  587.360
1138.798;    2.118;   -9.090;  663.780
1139.337;    1.386;  -15.130;  482.840
1139.877;    3.252;  -13.680;  642.360
1140.416;    3.439;  -11.320;  878.060
1140.955;    1.492;  -10.860;  535.380
1141.494;    2.280;  -12.920;  669.280
1142.034;    1.910;  -13.930;  583.520
1142.573;    3.298;  -11.440;  646.280
1143.112;    0.821;  -12.000;  553.480
1143.651;    1.142;  -13.670;  536.480
1144.190;    2.295;  -12.730;  691.640
1144.729;    0.821;  -14.560;  607.420
1145.267;    1.717;  -11.830;  584.900
1145.806;    2.641;  -12.230;  637.040
1146.345;    1.203;  -14.130;  635.020
1146.884;    0.636;  -11.590;  622.500
1147.422;    0.404;  -12.550;  533.060
1147.961;    2.094;  -11.180;  708.460
1148.500;    1.633;  -11.510;  669.720
1149.038;    1.894;  -11.640;  632.500
1149.577;    1.278;  -10.130;  698.640
1150.115;   -0.590;  -13.970;  452.280
1150.653;    1.139;  -14.520;  607.340
1151.192;    1.192;  -12.810;  552.920
1151.730;    0.156;   -9.100;  652.560
1152.268;    0.633;  -12.220;  589.520
1152.806;    0.480;  -14.140;  571.180
1153.344;   -1.124;  -12.350;  577.640
1153.882;   -0.263;   -8.980;  600.060
1154.421;   -0.774;  -15.190;  470.620
1154.958;    0.021;  -15.210;  595.240
1155.496;    1.260;  -12.850;  645.280
1156.034;   -0.025;   -9.940;  721.880
1156.572;    1.526;  -13.570;  667.060
1157.110;   -0.365;  -14.590;  473.940
1157.647;    0.748;  -13.030;  676.960
1158.185;   -1.134;  -12.140;  564.320
1158.723;   -2.059;  -14.390;  509.200
1159.260;    0.341;  -14.090;  701.700
1159.798;    0.229;  -11.920;  658.160
1160.335;   -1.203;  -11.110;  631.820

