
Integration time [ms]:   3.276
Averaging Nr. [scans]: 1000
Smoothing Nr. [pixels]: 0
Data measured with spectrometer [name]: 7414430SP
Wave   ;Sample   ;Dark     ;Reference
[nm]   ;[counts] ;[counts] ;[counts] 

288.544;  151.152;    7.793;  793.890
289.143;  153.797;    7.462;  681.602
289.742;  154.305;    8.602;  828.814
290.341;  140.568;    1.321;  789.841
290.940;  129.246;   -0.709;  730.702
291.538;  129.656;    0.881;  881.108
292.137;  130.006;    0.122;  792.581
292.736;  135.153;   -1.929;  975.101
293.335;  131.641;   -8.229;  735.086
293.934;  130.266;   -5.279;  781.677
294.532;  128.911;   -1.369; 1031.958
295.131;  115.685;   -7.641;  834.394
295.730;  117.018;   -8.420;  809.588
296.328;  114.538;   -5.611;  783.442
296.927;  115.648;   -5.781;  779.652
297.525;  117.416;   -6.361;  781.236
298.124;  107.738;  -11.382;  654.009
298.722;  110.317;   -7.641;  761.933
299.321;  109.134;   -6.811;  708.597
299.919;  107.323;   -6.991;  751.918
300.518;  103.743;  -10.362;  689.338
301.116;  104.642;   -9.581;  691.381
301.715;  105.321;   -4.891;  730.222
302.313;  104.444;   -8.801;  704.943
302.911;  100.355;   -8.522;  733.830
303.509;  104.438;   -6.171;  925.627
304.108;  102.716;   -7.311;  760.383
304.706;  102.461;   -8.321;  801.664
305.304;   96.609;  -10.222;  796.707
305.902;  100.865;   -6.021;  784.484
306.500;   97.280;   -4.971;  728.200
307.098;   96.251;   -7.061;  746.560
307.696;   94.791;   -8.801;  780.432
308.294;   94.566;   -6.411;  731.359
308.892;   96.794;   -2.901;  759.769
309.490;   92.749;   -5.041;  712.161
310.088;   91.910;   -5.002;  788.444
310.686;   94.164;   -2.041;  821.749
311.284;   90.400;   -2.351;  766.040
311.882;   89.748;   -4.422;  731.225
312.480;   85.889;   -4.192;  697.167
313.078;   86.563;   -1.172;  808.331
313.675;   87.564;   -2.601;  691.600
314.273;   83.211;   -1.312;  797.837
314.871;   83.269;   -3.942;  589.829
315.468;   79.569;   -2.802;  652.090
316.066;   83.095;   -0.701;  694.427
316.664;   76.026;   -4.362;  656.351
317.261;   80.828;   -2.872;  910.128
317.859;   75.466;   -2.022;  768.735
318.456;   75.826;   -0.531;  830.096
319.054;   73.212;   -3.912;  787.828
319.651;   71.688;   -4.752;  759.928
320.249;   69.694;   -2.602;  810.188
320.846;   68.007;   -0.821;  714.286
321.443;   65.712;   -4.642;  832.135
322.041;   62.882;   -5.002;  812.315
322.638;   59.690;   -3.982;  701.456
323.235;   61.672;   -3.411;  665.683
323.833;   59.575;   -7.361;  740.354
324.430;   54.227;   -8.611;  615.900
325.027;   54.943;   -4.061;  876.855
325.624;   54.446;   -4.031;  644.532
326.221;   52.925;   -7.481;  689.717
326.818;   51.838;   -5.281;  818.332
327.415;   54.732;   -7.460;  748.828
328.012;   54.172;   -5.510;  690.585
328.609;   53.353;   -7.880;  731.389
329.206;   51.563;   -8.331;  778.621
329.803;   50.310;   -5.121;  737.841
330.400;   53.834;   -4.510;  704.260
330.997;   55.878;   -6.441;  817.147
331.594;   53.516;   -8.831;  788.185
332.191;   58.632;   -7.621;  728.722
332.787;   61.444;   -4.591;  844.463
333.384;   60.293;   -7.412;  763.093
333.981;   59.871;   -8.293;  815.687
334.578;   61.205;   -7.052;  708.378
335.174;   63.838;   -3.102;  731.469
335.771;   64.833;   -5.943;  836.456
336.367;   61.647;   -7.393;  710.631
336.964;   64.137;   -4.063;  793.266
337.561;   62.589;   -3.813;  731.112
338.157;   59.235;   -4.654;  911.916
338.754;   56.048;   -7.934;  796.589
339.350;   53.420;   -4.414;  722.493
339.946;   56.254;   -4.664;  773.135
340.543;   48.574;   -6.375;  846.136
341.139;   43.580;   -9.815;  720.836
341.735;   40.309;   -4.526;  772.593
342.332;   39.057;   -4.895;  691.472
342.928;   39.859;   -4.295;  795.394
343.524;   34.204;   -5.476;  761.684
344.120;   30.149;   -5.856;  738.562
344.716;   34.335;   -2.155;  723.717
345.313;   31.921;   -6.275;  795.342
345.909;   26.462;   -8.815;  627.336
346.505;   27.217;   -5.305;  740.247
347.101;   27.949;   -2.674;  827.864
347.697;   29.871;   -4.344;  785.398
348.293;   23.573;   -9.975;  627.244
348.889;   23.668;   -5.774;  745.914
349.485;   23.425;   -5.004;  688.205
350.081;   24.894;   -4.704;  772.592
350.676;   20.277;   -6.635;  691.606
351.272;   23.756;   -4.504;  809.530
351.868;   22.585;   -3.914;  780.497
352.464;   21.080;   -9.044;  723.932
353.059;   18.143;   -8.314;  646.017
353.655;   20.047;   -7.024;  777.063
354.251;   21.580;   -5.343;  759.845
354.846;   16.597;   -8.604;  740.646
355.442;   14.052;   -6.945;  753.071
356.038;   15.809;   -7.564;  751.708
356.633;   16.145;   -5.814;  728.594
357.229;   14.629;   -7.364;  724.757
357.824;   12.487;   -8.024;  703.600
358.420;   11.055;   -9.384;  679.726
359.015;   11.783;   -5.104;  695.357
359.610;   13.476;   -6.854;  763.920
360.206;    7.652;  -10.185;  603.240
360.801;    9.063;   -7.054;  646.503
361.396;   11.132;   -5.034;  725.975
361.992;    7.717;   -8.284;  668.220
362.587;    5.381;   -8.625;  670.160
363.182;    6.903;   -7.674;  689.631
363.777;    6.864;   -5.164;  738.242
364.372;    7.767;   -8.604;  737.314
364.967;    3.452;   -9.055;  680.744
365.563;    7.992;   -6.114;  815.567
366.158;    5.160;   -5.814;  685.161
366.753;    5.633;   -7.854;  649.263
367.348;    3.937;   -7.804;  746.056
367.942;    3.301;   -7.954;  697.298
368.537;    2.003;   -4.984;  754.245
369.132;    3.509;   -8.564;  703.428
369.727;   -0.788;   -8.855;  638.079
370.322;   -0.027;   -6.245;  580.186
370.917;    0.119;   -6.425;  710.646
371.511;    3.441;   -6.294;  861.834
372.106;   -0.663;   -7.685;  776.964
372.701;   -4.061;   -7.335;  585.988
373.296;    1.411;   -4.564;  863.135
373.890;   -1.613;  -10.235;  647.840
374.485;   -4.791;   -7.885;  691.199
375.079;   -1.818;   -7.324;  738.685
375.674;    0.533;   -3.494;  812.970
376.268;   -3.886;   -8.525;  691.759
376.863;   -9.530;  -10.086;  580.327
377.457;   -3.788;   -7.025;  662.490
378.052;   -5.823;   -3.585;  764.884
378.646;   -5.263;   -7.595;  741.167
379.240;   -5.694;   -8.335;  721.176
379.835;   -5.844;   -5.785;  636.978
380.429;   -7.995;   -4.335;  562.557
381.023;   -6.892;   -6.805;  779.205
381.617;   -8.725;   -9.195;  680.106
382.212;   -7.088;   -6.905;  685.303
382.806;   -4.965;   -3.745;  760.690
383.400;   -9.017;   -7.745;  672.281
383.994;   -9.756;   -9.765;  664.870
384.588;   -6.872;   -6.564;  697.701
385.182;   -5.473;   -5.344;  726.624
385.776;   -6.544;   -8.514;  706.875
386.370;   -9.780;   -9.555;  681.968
386.964;   -9.636;   -8.715;  684.155
387.558;   -7.550;   -6.174;  598.360
388.152;  -10.191;   -8.725;  681.959
388.745;   -8.347;   -7.965;  814.707
389.339;   -7.334;   -5.924;  747.642
389.933;   -6.654;   -5.524;  695.370
390.527;   -6.883;   -7.114;  859.029
391.120;  -13.077;  -10.725;  595.318
391.714;  -11.166;   -8.035;  711.633
392.308;   -7.908;   -3.574;  780.253
392.901;  -11.315;   -7.245;  642.460
393.495;  -12.369;   -9.285;  595.414
394.089;  -11.182;   -5.895;  760.452
394.682;  -12.080;   -4.295;  697.188
395.275;  -10.975;   -9.875;  719.927
395.869;  -12.974;   -8.485;  667.314
396.462;  -11.783;   -7.455;  616.609
397.056;   -7.971;   -5.424;  776.621
397.649;  -11.557;   -6.605;  731.575
398.242;   -9.605;   -8.224;  712.645
398.836;   -8.767;   -7.474;  766.408
399.429;   -9.733;   -7.094;  631.041
400.022;  -12.756;   -9.475;  665.902
400.615;  -10.857;   -7.145;  805.609
401.208;   -9.362;   -7.174;  691.451
401.802;  -11.511;   -5.515;  699.329
402.395;  -11.845;   -9.875;  683.502
402.988;  -12.800;   -8.845;  696.627
403.581;  -10.097;   -8.874;  646.878
404.174;   -8.647;   -5.324;  686.568
404.767;  -10.737;   -9.575;  638.583
405.360;  -12.885;  -10.965;  621.445
405.953;   -8.142;   -8.764;  759.034
406.545;   -7.797;   -7.514;  725.342
407.138;  -10.993;  -10.025;  618.350
407.731;  -10.295;  -10.034;  613.303
408.324;   -6.758;   -9.374;  660.554
408.917;   -7.084;   -6.534;  681.864
409.509;   -7.738;   -8.004;  740.396
410.102;  -10.897;   -9.875;  643.948
410.695;   -4.840;   -8.604;  665.758
411.287;   -6.321;   -6.794;  599.821
411.880;   -6.407;   -9.334;  585.421
412.472;  -10.024;  -10.254;  613.092
413.065;   -7.427;   -6.714;  629.408
413.657;   -5.397;   -7.234;  576.678
414.250;   -4.219;  -10.544;  646.681
414.842;   -5.531;   -9.744;  676.353
415.434;   -4.757;   -6.994;  570.463
416.027;   -0.303;   -5.893;  652.196
416.619;   -2.434;   -7.264;  713.400
417.211;   -2.210;  -10.374;  599.352
417.804;    0.581;   -7.993;  628.499
418.396;   -3.877;   -7.234;  607.643
418.988;   -0.302;   -9.443;  659.238
419.580;   -3.559;  -10.724;  568.276
420.172;   -2.548;  -10.323;  536.196
420.764;    1.769;   -8.793;  672.482
421.356;    2.116;  -11.143;  636.898
421.948;    0.230;   -8.293;  677.661
422.540;    4.616;   -7.893;  680.027
423.132;    3.594;   -7.082;  600.641
423.724;    1.598;   -8.653;  561.267
424.316;    3.376;  -10.213;  621.345
424.908;    5.921;   -9.762;  591.517
425.500;    6.818;   -5.572;  647.978
426.092;    8.805;   -8.422;  648.268
426.683;    7.990;   -9.283;  684.836
427.275;    9.426;   -7.852;  641.471
427.867;   11.091;   -5.272;  668.948
428.458;   12.032;   -7.682;  732.344
429.050;   10.654;  -10.612;  680.749
429.642;   12.023;   -9.882;  743.124
430.233;   12.222;   -6.962;  569.356
430.825;   14.238;   -6.842;  724.809
431.416;   11.921;   -9.672;  698.241
432.008;   15.346;   -6.552;  651.723
432.599;   15.062;   -6.891;  656.073
433.190;   14.134;  -10.912;  637.670
433.782;   12.397;  -11.172;  590.395
434.373;   19.460;   -6.061;  884.765
434.964;   17.700;   -8.251;  602.920
435.556;   16.934;   -9.722;  634.537
436.147;   19.664;   -9.082;  758.490
436.738;   19.065;   -8.041;  701.099
437.329;   24.227;   -7.341;  721.723
437.920;   17.809;   -8.162;  666.688
438.511;   18.078;  -11.802;  564.526
439.103;   23.803;  -10.191;  623.998
439.694;   25.313;   -7.601;  681.583
440.285;   27.151;   -8.541;  764.432
440.876;   26.010;   -9.751;  845.738
441.466;   24.680;   -9.401;  575.162
442.057;   29.448;   -7.760;  665.814
442.648;   28.827;   -9.971;  746.255
443.239;   27.247;  -11.001;  620.477
443.830;   31.239;   -7.990;  704.958
444.421;   33.674;   -7.910;  655.474
445.011;   30.546;   -8.131;  693.619
445.602;   30.869;   -7.111;  743.126
446.193;   30.873;  -10.920;  488.117
446.783;   35.297;   -6.500;  640.397
447.374;   32.193;   -8.671;  692.759
447.964;   32.923;  -10.781;  713.770
448.555;   40.063;   -9.650;  822.742
449.145;   36.725;   -8.660;  662.853
449.736;   38.866;   -8.990;  803.179
450.326;   38.812;   -9.500;  713.626
450.917;   42.656;   -8.680;  675.324
451.507;   42.132;   -7.520;  600.661
452.097;   43.116;   -8.590;  746.267
452.688;   44.816;  -11.340;  742.160
453.278;   43.391;  -10.100;  566.840
453.868;   48.494;   -6.019;  793.550
454.458;   46.647;   -9.440;  651.141
455.048;   47.233;  -10.560;  711.783
455.639;   47.335;  -11.799;  567.096
456.229;   52.025;   -6.899;  710.694
456.819;   54.689;   -7.389;  751.158
457.409;   54.378;  -11.119;  773.993
457.999;   56.197;   -9.289;  737.505
458.589;   56.013;   -6.139;  686.606
459.179;   57.112;   -8.729;  717.658
459.769;   55.358;   -9.789;  627.099
460.358;   59.209;  -10.259;  797.262
460.948;   58.965;   -7.299;  689.503
461.538;   62.598;  -10.289;  660.677
462.128;   59.066;  -11.269;  664.934
462.717;   65.260;   -9.368;  710.326
463.307;   68.414;   -7.908;  705.846
463.897;   65.687;   -9.599;  656.942
464.486;   65.317;   -9.769;  837.128
465.076;   68.831;   -8.048;  733.776
465.666;   71.657;   -9.358;  652.900
466.255;   70.572;   -7.919;  785.651
466.845;   69.456;  -11.689;  666.749
467.434;   72.096;   -7.818;  725.873
468.023;   73.208;   -7.678;  658.357
468.613;   71.668;  -10.939;  713.946
469.202;   76.105;  -10.118;  646.507
469.791;   79.216;   -9.108;  737.811
470.381;   81.836;   -6.058;  742.813
470.970;   82.176;  -10.428;  711.099
471.559;   81.944;  -10.268;  733.291
472.148;   84.214;   -8.448;  675.737
472.738;   86.120;   -6.917;  765.466
473.327;   87.851;  -11.978;  637.529
473.916;   86.137;  -11.888;  737.446
474.505;   90.767;   -9.437;  751.703
475.094;   93.665;   -6.747;  806.570
475.683;   93.431;   -9.367;  797.699
476.272;   94.867;  -12.637;  730.632
476.861;   97.040;  -10.027;  706.754
477.449;  102.123;   -8.716;  728.487
478.038;   98.661;   -9.577;  692.513
478.627;   99.670;   -9.718;  714.852
479.216;  105.366;   -8.947;  769.441
479.805;  108.331;   -6.256;  783.375
480.393;  109.558;   -7.937; 1008.945
480.982;  107.800;   -7.717;  874.501
481.571;  113.652;   -9.266;  858.333
482.159;  114.298;   -7.636;  705.386
482.748;  116.402;   -9.667;  821.385
483.336;  119.657;  -10.376;  858.209
483.925;  120.259;   -7.147;  774.373
484.513;  125.876;   -7.996;  758.962
485.102;  124.434;  -10.027;  810.965
485.690;  133.220;  -10.446; 1011.050
486.278;  134.584;   -8.446;  979.329
486.867;  135.277;   -6.356;  809.662
487.455;  138.094;   -9.136;  898.229
488.043;  139.151;  -10.646;  748.361
488.631;  148.128;   -7.456; 1005.079
489.220;  151.945;   -6.636;  908.626
489.808;  153.281;  -11.036;  741.415
490.396;  160.754;  -10.246;  914.645
490.984;  166.983;   -8.556;  830.161
491.572;  176.603;   -5.886;  940.315
492.160;  184.322;   -9.486;  919.081
492.748;  197.036;  -10.976;  884.341
493.336;  220.653;   -8.776; 1019.693
493.924;  249.901;   -5.465;  958.077
494.512;  280.262;   -9.986; 1066.638
495.100;  320.797;  -10.636; 1103.280
495.687;  378.442;  -10.885; 1206.373
496.275;  449.000;   -8.126; 1150.796
496.863;  523.735;  -10.586; 1281.171
497.451;  631.854;  -11.926; 1386.805
498.038;  772.802;  -10.885; 1556.729
498.626;  888.016;   -6.315; 1741.407
499.214; 1048.785;   -7.326; 2016.609
499.801; 1265.757;  -11.906; 2220.633
500.389; 1521.561;  -10.466; 2312.494
500.976; 1853.098;   -5.236; 2744.849
501.564; 2323.310;   -8.936; 3148.565
502.151; 2723.836;  -13.176; 3515.999
502.738; 3182.530;  -10.646; 3971.274
503.326; 3580.758;   -9.525; 4403.796
503.913; 4003.491;  -10.856; 5161.749
504.500; 4408.780;  -11.586; 5986.420
505.088; 4804.917;  -10.336; 6381.201
505.675; 5382.231;   -6.355; 6925.547
506.262; 6134.271;   -9.046; 7619.060
506.849; 6908.087;  -10.416; 8733.969
507.436; 7491.169;  -10.305; 9790.121
508.023; 8135.580;   -5.496; 9985.472
508.610; 8353.753;   -7.856;10434.618
509.197; 8979.920;  -10.097;11198.435
509.784;10412.551;  -10.886;12391.194
510.371;11623.143;   -9.315;13603.713
510.958;12414.770;   -9.936;14426.586
511.545;13182.162;   -9.326;15243.775
512.132;14134.397;  -10.075;15945.876
512.719;14821.171;   -7.796;16340.369
513.305;16021.240;  -10.606;18011.766
513.892;16799.545;  -11.486;19754.971
514.479;18021.441;   -9.126;20967.805
515.066;19444.766;   -6.026;22299.793
515.652;20922.346;   -8.466;22908.660
516.239;22435.760;  -10.886;23798.875
516.825;23599.121;  -11.496;25567.275
517.412;24818.615;   -5.796;28154.959
517.998;25520.908;  -10.506;28344.111
518.585;25455.379;  -10.076;27134.219
519.171;26052.350;   -8.315;27268.576
519.758;28052.719;   -8.596;28964.129
520.344;30089.549;   -8.466;30664.494
520.930;29737.703;  -11.006;32550.605
521.516;31118.082;  -10.495;35422.895
522.103;33364.230;   -5.526;38280.004
522.689;34175.242;   -8.746;37835.117
523.275;33486.270;  -11.376;37288.613
523.861;34660.004;  -11.156;37281.395
524.447;36487.617;   -8.135;37846.949
525.033;36351.094;   -7.896;38321.949
525.619;36492.215;  -12.476;38579.285
526.205;37963.809;   -9.516;40622.875
526.791;40869.133;   -6.926;42258.836
527.377;40823.777;   -8.346;42966.902
527.963;42238.555;   -8.717;42018.949
528.549;41170.563;  -11.016;42476.828
529.135;39823.719;   -8.536;41854.852
529.721;38732.699;   -9.666;41237.711
530.306;38229.809;  -10.066;41259.445
530.892;38067.934;  -11.356;41506.047
531.478;39240.281;   -6.596;43559.613
532.063;42479.570;   -8.836;47695.563
532.649;43261.988;  -10.047;50808.324
533.235;43968.086;   -9.746;51787.500
533.820;44606.168;   -6.566;52145.035
534.406;45983.012;  -10.817;51133.488
534.991;45980.797;   -9.416;49996.805
535.576;44319.434;   -9.036;48882.852
536.162;45037.195;   -6.156;46942.285
536.747;46465.984;  -11.607;45711.746
537.333;50044.227;  -11.787;48510.180
537.918;52906.352;  -12.437;50439.891
538.503;51693.703;   -7.196;50863.711
539.088;48476.305;  -10.556;50906.922
539.673;48655.637;   -8.767;52621.965
540.259;48518.410;  -10.026;52368.094
540.844;45654.395;   -7.416;50879.109
541.429;47312.148;   -9.467;52077.777
542.014;49941.535;   -9.527;52716.695
542.599;49105.367;   -9.946;52363.281
543.184;46226.273;   -7.927;53187.137
543.769;47730.215;   -9.297;54697.605
544.354;47460.039;  -10.127;53913.914
544.938;45893.492;   -9.267;49680.164
545.523;47542.117;   -6.506;47386.277
546.108;50300.469;   -9.787;49151.949
546.693;52687.270;  -11.587;51384.637
547.278;52878.820;  -10.986;51853.254
547.862;49587.930;   -8.206;51173.750
548.447;44855.309;  -10.067;51691.395
549.031;44054.863;   -9.637;52456.703
549.616;49032.148;   -9.926;52714.516
550.201;48392.414;   -6.347;52414.598
550.785;49761.922;   -7.917;52355.059
551.370;49012.863;  -10.867;54589.453
551.954;48792.594;   -9.047;58267.348
552.538;49515.875;   -7.827;59062.176
553.123;47811.164;  -10.287;58115.285
553.707;45754.113;  -12.178;56556.285
554.291;47062.281;   -8.717;56201.668
554.876;49628.199;   -7.457;55335.762
555.460;49885.770;  -10.387;54155.703
556.044;50621.145;   -9.618;53721.484
556.628;48531.801;  -11.567;53731.016
557.212;47238.957;   -8.097;54312.531
557.796;45890.559;  -11.077;53797.773
558.380;45870.578;  -11.108;56145.984
558.964;46019.793;   -9.057;57277.930
559.548;46851.652;   -6.977;56459.641
560.132;45050.273;  -11.457;54434.543
560.716;43815.777;  -11.378;54800.617
561.300;45180.809;   -9.577;57606.945
561.884;46188.227;   -7.127;58972.445
562.467;44305.363;   -7.118;57327.570
563.051;43385.750;  -13.358;54962.434
563.635;44815.469;  -10.178;52594.473
564.219;45433.570;   -7.837;50610.410
564.802;46041.676;  -11.398;49551.180
565.386;45937.223;  -12.788;48370.953
565.969;45556.836;   -9.077;48178.871
566.553;44476.719;   -6.207;49957.305
567.136;44954.688;   -8.568;50369.594
567.720;41302.762;  -11.868;49492.004
568.303;39049.508;   -8.268;50616.352
568.887;39000.820;   -8.698;50727.148
569.470;39611.012;   -6.808;51698.379
570.053;38702.090;  -13.188;52122.078
570.637;36370.266;  -12.037;52536.438
571.220;35769.441;   -8.577;51186.098
571.803;36666.555;   -8.498;51032.762
572.386;39507.770;  -10.498;49609.887
572.969;42028.063;   -9.388;48285.926
573.552;40000.473;   -8.338;47624.285
574.135;38393.961;   -8.518;45498.641
574.718;35763.168;  -13.628;41970.434
575.301;34894.203;  -10.893;41447.137
575.884;34025.238;   -8.158;40923.836
576.467;35107.078;  -10.328;45267.723
577.050;36973.313;  -13.058;48175.543
577.633;38397.313;   -9.458;47729.328
578.216;37590.918;   -8.928;47579.793
578.799;36686.848;   -9.358;47820.996
579.381;35624.176;  -11.388;48115.551
579.964;33824.996;  -11.718;47333.766
580.547;35577.113;   -8.588;46668.969
581.129;36331.406;   -8.859;44466.141
581.712;36962.410;  -10.729;44164.922
582.294;37494.195;  -11.118;46477.855
582.877;37716.445;   -5.218;48244.254
583.459;35766.918;   -8.679;47437.895
584.042;33561.344;  -10.709;46943.219
584.624;33628.438;  -11.669;46792.227
585.206;33206.371;   -8.218;46557.250
585.789;33707.195;  -10.569;45793.773
586.371;36276.852;  -11.859;43836.391
586.953;36788.242;  -10.719;42972.492
587.536;37818.688;   -7.198;42487.211
588.118;37968.496;   -8.720;42086.414
588.700;34489.891;  -10.439;43389.930
589.282;33588.082;   -9.198;43646.039
589.864;34415.742;   -9.199;43438.109
590.446;35353.141;  -11.319;43151.926
591.028;34996.844;  -11.159;42781.867
591.610;33753.957;  -11.779;42839.098
592.192;31182.188;   -7.668;42820.402
592.774;29967.855;  -11.949;40724.277
593.356;29017.809;  -12.129;39874.789
593.937;28229.145;  -10.669;39980.648
594.519;30526.318;   -6.509;42069.633
595.101;32520.330;  -10.849;42976.031
595.683;32527.377;  -11.679;44084.441
596.264;33657.160;   -9.049;43478.797
596.846;33195.660;   -8.849;43803.672
597.427;32781.633;   -9.570;42986.934
598.009;34023.207;  -12.620;42832.219
598.591;34494.684;  -10.039;42580.086
599.172;33955.723;  -10.369;43061.805
599.753;34081.020;   -9.140;41691.469
600.335;35226.953;  -11.430;40692.520
600.916;33343.016;   -9.939;39982.422
601.498;31273.820;   -8.479;40318.617
602.079;29836.576;  -10.920;40670.609
602.660;29790.746;  -11.480;41450.898
603.241;31548.707;  -11.699;41137.738
603.823;30191.842;   -9.579;38868.797
604.404;29790.607;  -10.620;38182.785
604.985;31378.676;  -10.450;38078.047
605.566;31108.717;   -9.129;38056.633
606.147;31124.410;   -7.510;37020.418
606.728;32818.188;  -10.660;37883.359
607.309;31530.674;  -11.740;38748.273
607.890;31084.373;   -9.759;38850.230
608.471;30619.604;   -8.250;37457.918
609.051;29903.924;   -9.240;36066.457
609.632;28580.135;  -12.120;35991.074
610.213;29002.064;   -9.110;37402.641
610.794;29924.402;   -8.030;38383.363
611.374;29781.762;   -8.110;40562.387
611.955;30322.055;  -13.560;38533.727
612.536;31650.092;  -11.400;36951.789
613.116;31597.262;   -8.070;37197.891
613.697;31767.492;  -10.830;38411.125
614.277;29943.529;  -11.641;38673.938
614.858;30887.541;  -13.310;37075.863
615.438;30396.482;   -7.460;35092.906
616.019;27776.951;   -7.601;33666.301
616.599;28076.746;  -12.020;34189.023
617.179;29711.662;  -11.780;36952.047
617.760;30683.434;   -8.570;39582.574
618.340;31591.645;  -11.471;38943.977
618.920;32697.305;  -11.170;37594.156
619.500;32819.191;  -11.071;37866.938
620.080;32223.514;   -7.750;37869.043
620.660;33402.625;  -12.711;36868.617
621.241;35000.238;  -10.211;36352.309
621.821;35092.848;  -10.961;35459.520
622.401;33878.730;   -7.720;35207.414
622.980;32968.012;   -8.981;35980.422
623.560;31572.465;   -9.331;37351.328
624.140;30354.074;   -9.850;34388.582
624.720;25170.373;   -7.451;32368.764
625.300;21617.709;   -9.070;32638.629
625.880;25154.164;  -12.601;34599.035
626.459;29358.313;  -11.751;36831.738
627.039;32414.340;   -9.281;38299.098
627.619;32423.756;   -8.801;38289.574
628.198;30715.934;  -12.071;37220.695
628.778;29567.945;   -9.461;37632.563
629.357;30283.631;   -8.491;38003.012
629.937;30439.766;   -9.721;38402.039
630.516;29864.027;   -9.951;37868.801
631.096;29419.811;  -11.731;35760.410
631.675;32141.854;   -8.572;35225.219
632.254;37374.789;  -11.282;35130.289
632.834;36895.629;  -13.322;35794.570
633.413;34979.121;  -10.301;35788.922
633.992;32163.398;   -8.582;34532.863
634.571;32781.980;   -8.352;33590.113
635.151;35502.504;  -11.912;34943.863
635.730;34107.156;  -10.511;35352.523
636.309;30851.201;   -7.731;35366.605
636.888;28388.555;   -9.952;36165.637
637.467;29147.350;  -11.672;37515.902
638.046;30661.273;   -8.901;39288.695
638.625;33610.832;   -7.912;38279.699
639.204;33353.988;  -10.022;37741.598
639.782;32171.068;  -12.252;38364.551
640.361;28182.918;  -10.041;36740.621
640.940;25429.199;  -11.161;34950.082
641.519;26078.520;   -9.701;34137.398
642.097;28961.947;  -11.271;35654.258
642.676;32000.354;   -8.651;35637.957
643.255;32825.789;   -8.711;36567.074
643.833;31968.826;   -9.581;37809.434
644.412;32199.918;  -13.711;37337.293
644.990;31371.209;  -11.811;37018.531
645.569;31386.703;   -9.411;36518.469
646.147;30681.441;  -10.291;36186.430
646.726;30318.287;  -12.401;36267.688
647.304;31049.916;  -10.411;36647.625
647.882;32756.164;   -9.651;39286.742
648.461;34631.941;   -9.631;39157.703
649.039;32795.406;  -11.881;35412.883
649.617;31767.123;   -9.661;34744.918
650.195;31172.150;   -9.301;35403.098
650.773;29762.445;  -10.511;35053.797
651.352;27534.439;  -11.521;33756.816
651.930;25276.547;  -12.211;31868.773
652.508;23572.043;   -9.171;33121.551
653.086;27376.451;   -9.371;33564.793
653.663;30189.658;  -13.161;34054.668
654.241;29162.158;  -13.031;35693.309
654.819;30799.701;   -9.371;36422.906
655.397;30779.145;  -10.511;38213.484
655.975;30366.908;  -10.371;39507.625
656.553;29821.680;  -10.051;39498.223
657.130;28303.068;  -10.061;40395.480
657.708;27930.143;   -9.561;39242.020
658.286;28112.561;  -11.511;38920.020
658.863;29098.221;  -10.261;40202.898
659.441;32311.957;   -7.531;39677.938
660.018;32152.891;   -9.501;40413.355
660.596;30786.162;  -13.301;39931.414
661.173;32540.203;  -11.211;39604.531
661.750;33011.063;   -9.951;39700.070
662.328;32059.799;   -9.390;39292.809
662.905;31019.813;  -11.330;38235.648
663.482;26416.746;   -9.050;36212.305
664.060;24517.301;   -8.240;35944.945
664.637;27467.137;  -10.050;35170.785
665.214;29018.271;  -11.760;34197.523
665.791;30417.934;  -10.530;34549.520
666.368;29456.963;   -9.690;35118.578
666.945;30217.965;   -9.320;36019.418
667.522;31651.084;  -11.860;36048.438
668.099;31419.213;  -10.770;36243.914
668.676;30229.643;   -6.260;35958.875
669.253;28937.822;   -7.000;37384.730
669.830;29465.805;  -10.190;36779.629
670.407;29345.340;   -9.550;35231.289
670.984;29339.863;   -9.260;35544.270
671.560;29944.996;   -9.280;35466.867
672.137;28908.514;  -11.810;34280.863
672.714;29770.348;  -11.490;34632.863
673.290;30858.371;   -7.740;35135.422
673.867;30981.260;  -10.660;36114.480
674.443;30679.785;  -12.230;36152.859
675.020;28773.861;  -10.450;35327.238
675.596;29891.859;   -9.260;35795.176
676.173;30611.035;  -10.780;35430.355
676.749;30256.367;  -13.690;33549.516
677.326;30012.662;  -11.980;32210.012
677.902;29953.457;   -8.630;32068.871
678.478;29191.445;  -10.730;32583.891
679.054;28345.453;  -10.520;32088.928
679.631;28698.172;  -11.920;30978.848
680.207;30150.645;   -7.490;33160.887
680.783;31683.596;   -9.860;35570.363
681.359;30841.174;  -13.380;36125.184
681.935;30549.289;  -12.480;35240.922
682.511;30130.818;   -7.900;34429.961
683.087;30446.436;   -7.710;34463.680
683.663;29870.082;  -11.480;34648.898
684.239;28326.328;  -14.090;34546.457
684.815;27703.166;   -7.560;35586.375
685.390;27960.402;   -9.910;35821.895
685.966;28499.115;  -11.159;35085.871
686.542;31200.207;  -11.169;34198.230
687.118;33321.023;   -5.959;32847.707
687.693;33430.172;  -10.329;32794.027
688.269;33118.957;  -12.059;33072.367
688.844;31372.043;  -10.909;33141.664
689.420;29374.850;   -8.019;33965.742
689.995;27366.693;   -8.399;34655.523
690.571;26010.000;  -10.949;33576.742
691.146;26192.801;   -9.619;32657.219
691.722;25934.313;   -8.999;32526.979
692.297;25891.889;  -11.589;33014.617
692.872;27500.279;  -11.739;34012.254
693.448;27105.504;  -11.059;34237.434
694.023;26143.063;  -10.139;34142.672
694.598;28165.000;   -9.029;34132.031
695.173;28736.033;  -13.319;34205.250
695.748;27864.080;  -10.169;32882.488
696.323;27690.711;   -8.339;32864.906
696.898;27929.223;   -8.169;33170.004
697.473;27987.277;  -12.309;32432.984
698.048;27269.383;  -10.989;31649.303
698.623;27144.418;   -9.329;30778.141
699.198;28829.180;   -9.849;31140.119
699.773;29934.248;  -12.329;31764.299
700.348;28547.213;  -10.389;31780.816
700.922;28345.006;   -9.269;32046.375
701.497;29003.572;   -9.329;32603.574
702.072;29110.932;  -10.789;34799.871
702.646;27964.197;  -10.839;35793.172
703.221;26197.705;   -9.099;35201.590
703.795;28220.539;  -10.939;34764.527
704.370;28560.400;  -12.859;34307.367
704.944;28652.236;  -11.559;33509.887
705.519;29357.994;   -7.939;31388.584
706.093;30777.650;  -10.499;31340.104
706.668;31095.064;  -11.289;32630.281
707.242;29973.715;  -11.509;32728.779
707.816;28633.590;   -9.639;32947.238
708.390;27132.869;  -11.429;33277.855
708.965;27720.113;  -11.869;33834.336
709.539;27914.014;  -11.689;33709.273
710.113;28092.229;  -10.478;33044.313
710.687;27467.035;  -10.228;31953.992
711.261;25856.607;  -13.698;30505.949
711.835;25786.725;  -13.378;30262.369
712.409;26420.393;   -9.698;31254.447
712.983;28329.463;  -11.898;32754.986
713.557;29452.389;  -15.138;34018.824
714.131;29071.791;  -14.098;34579.625
714.704;28038.887;   -9.958;33890.262
715.278;25715.424;  -10.028;33531.102
715.852;24677.535;  -11.148;33601.660
716.425;25733.863;   -9.068;33515.117
716.999;26765.830;  -10.038;33185.555
717.573;27729.973;   -9.798;33905.996
718.146;28728.490;  -12.378;35199.293
718.720;28581.289;  -11.918;35060.551
719.293;28274.033;   -8.088;34973.230
719.867;31191.111;  -10.888;36394.449
720.440;30856.764;  -11.938;36663.008
721.013;29000.781;  -12.818;35102.426
721.587;27512.865;  -10.298;33985.266
722.160;26506.770;  -10.048;33524.965
722.733;25609.705;  -12.108;32987.043
723.306;25953.900;  -10.818;33066.301
723.880;27957.463;   -8.908;33399.500
724.453;29739.508;   -9.878;33468.297
725.026;28881.434;  -11.188;33816.637
725.599;26421.588;  -11.678;32797.996
726.172;26777.076;   -9.618;33187.434
726.745;27892.268;   -8.258;35136.613
727.318;29267.857;  -12.978;35751.730
727.891;29712.092;  -12.148;35890.430
728.463;29141.400;   -8.968;34822.090
729.036;27939.588;  -10.188;32895.086
729.609;28387.609;  -11.788;31823.225
730.182;25582.414;  -11.788;31445.283
730.754;23151.883;  -10.268;32373.223
731.327;23393.732;   -9.998;33676.820
731.900;23924.436;  -12.228;33417.000
732.472;25011.348;  -13.848;31978.498
733.045;26532.432;   -8.698;30368.777
733.617;26486.939;  -10.607;30574.215
734.190;26433.432;  -11.507;31280.975
734.762;23932.381;  -13.647;31674.412
735.334;22233.846;   -9.767;31247.291
735.907;22684.803;   -9.897;29876.211
736.479;22800.943;  -11.637;29808.488
737.051;22423.785;   -9.567;30233.547
737.623;23040.951;   -8.187;31469.086
738.195;23687.592;  -11.187;31784.225
738.768;25916.875;  -12.337;32120.523
739.340;26341.332;  -12.227;32094.342
739.912;25216.043;  -11.057;31312.680
740.484;23862.367;  -10.207;31946.238
741.056;22489.896;  -10.047;32984.059
741.628;23860.781;  -13.627;33897.715
742.199;26086.582;   -7.177;33213.016
742.771;24740.852;  -10.797;31369.113
743.343;22666.129;  -11.997;31865.473
743.915;21776.887;  -12.867;32388.631
744.487;21835.775;   -7.617;31079.568
745.058;21803.869;   -9.557;30570.107
745.630;22275.912;   -9.877;29970.127
746.201;23305.168;  -14.177;29186.766
746.773;23851.004;   -9.237;28805.723
747.344;23716.572;   -9.847;29591.223
747.916;22102.135;  -11.657;31412.201
748.487;22228.359;  -10.587;32194.898
749.059;23515.941;   -8.707;32533.719
749.630;24374.248;  -10.537;32158.518
750.201;23597.389;  -11.687;30855.395
750.773;21811.676;  -11.647;28622.555
751.344;21571.836;   -7.147;28405.732
751.915;22445.459;   -9.757;28461.551
752.486;22316.678;  -12.427;27842.850
753.057;20327.777;  -12.227;27845.008
753.628;19228.592;  -10.417;27728.107
754.199;20172.170;  -11.767;27381.086
754.770;21153.039;  -11.187;25882.203
755.341;21370.613;  -10.507;25886.184
755.912;21411.008;   -9.387;26050.861
756.483;20850.426;  -10.647;26798.779
757.054;19014.566;  -11.837;27048.238
757.625;17668.943;  -12.716;26294.838
758.195;17602.895;   -9.666;26142.076
758.766;17425.588;   -8.656;26392.234
759.337;18019.035;  -12.856;26334.594
759.907;19496.754;  -13.366;27579.652
760.478;20329.750;   -8.576;28352.770
761.048;19697.549;  -10.526;27325.088
761.619;18798.645;  -11.116;26460.428
762.189;18927.064;  -12.136;26029.826
762.760;20045.053;   -9.456;26430.145
763.330;21162.113;   -7.136;26670.902
763.900;20664.557;  -11.786;26603.021
764.471;18135.189;  -11.546;25542.740
765.041;16708.021;   -8.096;24358.459
765.611;16572.459;   -8.876;23991.297
766.181;16967.785;  -12.196;24470.236
766.751;18081.215;  -11.636;24845.975
767.321;17863.555;  -10.156;24533.633
767.891;15852.243;  -11.766;24916.492
768.461;15330.762;  -14.936;24776.771
769.031;15904.564;  -12.356;24757.988
769.601;17444.303;   -7.526;24181.088
770.171;17347.707;  -10.766;23670.387
770.741;16546.818;  -13.176;22960.045
771.311;16776.203;  -10.616;22917.523
771.880;17237.510;   -9.576;23562.941
772.450;17054.141;  -10.336;24216.500
773.020;17129.080;  -13.516;24140.398
773.589;16466.090;  -13.466;24414.857
774.159;15824.979;   -8.686;23858.717
774.729;15386.013;   -9.476;22942.135
775.298;14909.388;  -13.666;22324.033
775.867;14460.021;  -11.716;21140.313
776.437;14572.179;   -9.906;20838.092
777.006;14360.270;  -12.166;20599.510
777.576;14125.726;  -12.356;20508.809
778.145;14197.830;  -11.646;20732.947
778.714;14178.617;   -8.226;21062.465
779.283;13575.850;   -9.556;20949.664
779.853;13071.584;  -14.116;20508.623
780.422;13470.470;  -11.506;20649.082
780.991;13089.374;   -9.556;21527.520
781.560;11889.915;   -9.095;22632.658
782.129;11654.441;  -12.135;23048.277
782.698;11660.119;  -10.865;23438.555
783.267;11269.773;   -9.335;23267.734
783.836;11230.900;  -11.045;22415.133
784.404;12235.600;  -13.865;20443.152
784.973;12843.328;  -13.095;19699.150
785.542;12915.183;  -11.575;19763.828
786.111;12794.927;   -9.705;20341.408
786.679;12216.529;  -12.105;20207.967
787.248;11919.179;  -12.455;19516.465
787.817;11776.673;  -11.535;18900.363
788.385;11407.290;   -9.765;17879.121
788.954;10866.104;  -14.005;17658.301
789.522;10309.579;  -11.955;17788.879
790.090;10759.522;  -10.135;18118.277
790.659;11266.904;  -10.975;18338.736
791.227;10814.334;  -13.375;18508.615
791.795;11167.929;  -12.375;17898.254
792.364;11445.555;  -10.725;17295.133
792.932;11747.346;   -9.715;16822.051
793.500;12037.481;  -12.675;17040.148
794.068;12331.644;  -13.495;17179.787
794.636;12457.558;  -10.885;16664.246
795.204;11865.913;  -11.045;16524.545
795.772;11919.897;  -13.175;17274.564
796.340;11449.919;  -12.445;17891.002
796.908;11217.087;   -9.735;17648.561
797.476;11065.190;   -9.815;17064.080
798.044;10642.357;  -13.985;16672.777
798.612; 9926.941;  -13.115;17023.996
799.180; 9530.546;  -10.185;16561.615
799.747; 9366.340;   -9.055;15962.773
800.315; 9120.353;  -12.385;15296.992
800.883; 8870.634;  -15.035;14801.771
801.450; 8980.178;  -10.365;14534.430
802.018; 9069.806;   -9.855;14173.248
802.585; 9116.306;  -11.905;14029.547
803.153; 9142.511;  -11.585;13836.846
803.720; 8950.524;   -9.095;13567.324
804.287; 8455.587;   -9.135;13360.622
804.855; 8017.427;  -11.604;13681.981
805.422; 7911.109;  -11.794;13536.560
805.989; 7951.537;  -10.734;13355.958
806.556; 8167.269;  -10.444;13747.896
807.124; 8448.921;  -12.764;13987.376
807.691; 8405.997;  -12.964;14038.674
808.258; 8197.069;  -11.134;14120.152
808.825; 7808.812;   -9.854;13860.111
809.392; 7880.349;  -10.504;13268.790
809.959; 7446.141;  -13.054;12680.389
810.526; 7004.870;   -8.294;12427.308
811.093; 7034.699;   -8.394;12030.105
811.659; 7594.790;  -12.304;11653.664
812.226; 8085.105;  -13.944;11637.183
812.793; 7785.405;  -10.484;11611.521
813.360; 7168.603;  -10.144;11885.181
813.926; 6895.923;  -11.684;12770.539
814.493; 6723.739;  -13.644;12677.638
815.060; 6370.292;   -9.724;11974.336
815.626; 6349.206;   -9.854;11594.715
816.193; 6708.683;  -13.254;11579.474
816.759; 6730.088;  -13.204;11666.972
817.325; 6765.217;   -9.434;11325.530
817.892; 7094.786;  -10.134;11105.369
818.458; 7502.985;  -13.474;10843.928
819.024; 7129.307;  -11.854;10714.406
819.591; 6816.460;  -10.244;10469.165
820.157; 6650.250;  -10.704;10235.523
820.723; 6204.433;  -12.324;10847.563
821.289; 5930.621;   -9.444;11040.980
821.855; 5838.906;   -8.374;10357.100
822.421; 5732.355;  -10.234; 9978.918
822.987; 5654.246;  -13.294; 9754.177
823.553; 5335.111;  -10.884;10065.755
824.119; 5182.284;   -8.884;10036.294
824.685; 5320.613;   -6.784;10029.192
825.251; 5426.901;  -12.004;10199.230
825.816; 5371.401;  -11.474; 9820.189
826.382; 5108.932;   -9.174; 9297.248
826.948; 5288.961;   -9.214; 9381.347
827.513; 5673.510;  -10.774; 9450.726
828.079; 5513.391;  -11.924; 9472.444
828.645; 4954.781;  -10.543; 9292.643
829.210; 4816.444;  -10.533; 9065.341
829.776; 4783.291;  -10.753; 9132.620
830.341; 4658.402;  -10.173; 9092.878
830.906; 4823.829;  -10.743; 9078.557
831.472; 5148.662;  -11.113; 8534.535
832.037; 4921.549;  -10.603; 8677.874
832.602; 4416.550;  -13.323; 8628.692
833.167; 4184.846;  -10.823; 8879.031
833.733; 4124.916;  -10.113; 9189.790
834.298; 4250.966;  -13.583; 9052.608
834.863; 4356.178;  -12.703; 8895.087
835.428; 4364.326;  -10.523; 8824.266
835.993; 4231.421;   -6.963; 8845.385
836.558; 4077.223;  -10.763; 8888.563
837.123; 4164.724;   -9.903; 8966.582
837.688; 4396.582;   -9.913; 8617.860
838.253; 4611.335;  -10.283; 8590.699
838.817; 4774.554;  -12.963; 8443.797
839.382; 4698.968;  -14.243; 8799.356
839.947; 4403.193;  -10.733; 8810.595
840.511; 4098.082;   -9.383; 8796.394
841.076; 3733.192;  -12.563; 8347.231
841.641; 3802.970;  -12.953; 8224.330
842.205; 3906.147;   -7.043; 8223.349
842.770; 3960.403;   -8.163; 8622.107
843.334; 4110.601;  -12.503; 8410.386
843.898; 4088.522;  -11.693; 8337.465
844.463; 4105.299;  -10.203; 8506.283
845.027; 3910.576;   -9.533; 8280.962
845.591; 3735.915;  -13.443; 8231.141
846.156; 3709.357;  -13.143; 7969.179
846.720; 3604.303;   -9.433; 7768.278
847.284; 3481.505;  -11.033; 7630.957
847.848; 3350.364;  -10.403; 7472.395
848.412; 3261.884;  -11.553; 7437.394
848.976; 3294.940;   -8.393; 7674.592
849.540; 3228.466;   -8.713; 7836.011
850.104; 3305.968;  -12.463; 7913.669
850.668; 3640.981;  -12.973; 7694.508
851.232; 3770.294;  -10.793; 7756.887
851.796; 3637.847;  -10.662; 7926.545
852.359; 3344.568;  -13.082; 7827.844
852.923; 3180.048;  -12.192; 7641.163
853.487; 3021.337;  -11.912; 7342.501
854.050; 2994.129;  -10.892; 7042.820
854.614; 3130.847;  -13.992; 7151.338
855.177; 3233.208;  -11.732; 7105.077
855.741; 3269.262;   -8.962; 6989.675
856.304; 3180.763;   -9.442; 6596.634
856.868; 3154.421;  -14.192; 6356.272
857.431; 3267.855;  -12.702; 6468.571
857.995; 3406.665;   -9.942; 6373.210
858.558; 3433.739;   -9.112; 6324.448
859.121; 3168.385;  -12.932; 6408.327
859.684; 3010.262;  -13.442; 6347.886
860.247; 3096.576;  -10.632; 6321.264
860.810; 3107.821;  -11.272; 6301.903
861.374; 2870.531;   -9.832; 6607.881
861.937; 2619.809;  -11.762; 6408.200
862.500; 2620.678;   -9.722; 6572.639
863.062; 2775.127;  -10.512; 6387.297
863.625; 2914.885;  -11.232; 6190.836
864.188; 3068.731;  -14.112; 5807.254
864.751; 3150.104;  -11.302; 5682.413
865.314; 3059.087;  -10.112; 5547.492
865.876; 2856.754;  -12.182; 5500.150
866.439; 2837.586;  -10.722; 5415.909
867.002; 2791.180;   -9.252; 5501.567
867.564; 2595.449;   -9.572; 5413.946
868.127; 2378.006;  -13.142; 5160.325
868.689; 2262.457;  -12.902; 5133.183
869.252; 2150.001;   -9.732; 5252.382
869.814; 2047.946;   -9.432; 5297.141
870.377; 2063.027;  -11.552; 5390.919
870.939; 2138.274;   -9.052; 5599.898
871.501; 2208.531;  -10.982; 5248.336
872.063; 2210.061;  -12.292; 4854.235
872.626; 2154.961;  -14.912; 4817.074
873.188; 2161.977;  -13.112; 4987.732
873.750; 2136.789;  -13.442; 4868.651
874.312; 2057.031;   -9.402; 4779.330
874.874; 1976.170;  -11.062; 4866.348
875.436; 1895.562;  -13.931; 4718.887
875.998; 1892.292;   -9.561; 4660.005
876.560; 1906.956;  -11.321; 4462.964
877.122; 1845.097;  -12.221; 4145.042
877.683; 1749.482;  -12.191; 4056.481
878.245; 1678.470;  -12.101; 3950.740
878.807; 1718.779;   -8.971; 4058.958
879.369; 1743.797;  -12.071; 3954.677
879.930; 1656.378;  -14.621; 3941.495
880.492; 1593.426;  -10.311; 4067.014
881.053; 1556.787;  -10.901; 3859.633
881.615; 1449.371;  -14.411; 3776.071
882.176; 1355.002;  -13.761; 3734.750
882.738; 1311.584;   -9.181; 3678.489
883.299; 1290.138;  -11.791; 3405.407
883.860; 1288.921;  -13.121; 3351.106
884.422; 1278.156;  -11.211; 3394.044
884.983; 1231.298;  -10.091; 3166.443
885.544; 1155.152;   -8.461; 3189.802
886.105; 1081.691;  -12.361; 3160.360
886.666; 1019.423;  -14.141; 3093.059
887.227;  961.535;  -11.361; 2941.957
887.788;  903.188;  -11.401; 2974.836
888.349;  840.520;  -13.791; 2721.214
888.910;  835.076;  -13.191; 2696.493
889.471;  838.866;   -9.881; 2560.172
890.032;  819.309;   -9.881; 2558.190
890.593;  792.918;  -10.371; 2567.669
891.153;  768.313;  -13.301; 2460.307
891.714;  722.276;  -11.431; 2372.046
892.275;  686.422;  -11.291; 2309.505
892.835;  650.062;  -11.471; 2382.543
893.396;  597.847;  -11.541; 2295.502
893.956;  541.639;  -11.181; 2162.420
894.517;  504.241;  -11.741; 2125.439
895.077;  500.673;  -11.671; 2086.978
895.638;  500.675;  -11.311; 2126.316
896.198;  473.666;   -9.831; 1838.275
896.758;  433.079;   -8.421; 1892.813
897.319;  405.174;  -12.351; 1792.232
897.879;  388.876;  -13.511; 1762.751
898.439;  364.163;  -12.001; 1661.149
898.999;  340.211;  -10.180; 1781.468
899.559;  330.244;  -12.030; 1703.347
900.119;  325.771;  -15.710; 1537.525
900.679;  321.589;   -8.900; 1638.384
901.239;  306.640;   -8.340; 1527.902
901.799;  298.210;  -13.910; 1456.441
902.359;  291.589;  -13.460; 1357.140
902.919;  284.995;  -11.490; 1331.118
903.479;  273.037;  -12.110; 1317.257
904.038;  254.803;  -11.720; 1262.595
904.598;  239.483;  -13.610; 1152.034
905.158;  235.203;  -11.040; 1240.893
905.717;  229.192;  -10.900; 1233.691
906.277;  219.624;  -15.080; 1217.330
906.836;  209.369;  -13.380; 1222.408
907.396;  199.510;  -10.780; 1193.047
907.955;  194.307;   -8.500; 1182.526
908.515;  189.613;  -12.760; 1099.364
909.074;  183.267;  -11.900; 1092.863
909.633;  176.242;   -8.950; 1069.121
910.192;  173.126;   -8.770; 1196.460
910.752;  168.392;  -12.390; 1029.960
911.311;  163.443;  -13.680; 1009.780
911.870;  161.052;  -12.370;  971.460
912.429;  161.574;  -10.900; 1094.080
912.988;  162.284;  -11.690; 1081.060
913.547;  158.220;  -13.240;  940.380
914.106;  151.719;  -11.990;  999.420
914.665;  149.434;   -9.990;  984.020
915.224;  149.121;  -12.880; 1035.760
915.782;  148.555;  -12.350;  922.560
916.341;  148.144;   -9.110; 1049.840
916.900;  144.268;   -9.270;  925.260
917.458;  142.364;  -13.240;  884.220
918.017;  142.202;  -13.550;  942.600
918.576;  141.381;  -12.320;  904.440
919.134;  139.826;  -11.490;  837.980
919.693;  138.286;  -13.670;  893.060
920.251;  136.869;  -15.470;  876.500
920.809;  135.426;  -11.290;  839.580
921.368;  134.623;  -10.210;  885.360
921.926;  134.119;  -12.140;  842.940
922.484;  132.403;  -13.080;  903.360
923.042;  132.328;  -11.720;  880.340
923.601;  134.936;   -7.480;  998.680
924.159;  134.742;  -11.570;  935.560
924.717;  130.920;  -13.840;  841.080
925.275;  129.631;  -10.640;  903.240
925.833;  129.678;  -11.540;  779.320
926.391;  130.935;  -12.960;  938.380
926.949;  128.682;  -14.130;  857.680
927.506;  129.317;  -11.750;  903.500
928.064;  129.400;  -10.250;  877.580
928.622;  128.808;  -13.030;  880.100
929.180;  128.013;  -13.400;  814.180
929.737;  128.411;  -10.700;  808.540
930.295;  133.294;  -10.070;  928.480
930.853;  134.537;  -11.960;  849.100
931.410;  135.234;  -13.120;  821.120
931.968;  134.174;  -10.770;  940.660
932.525;  133.682;  -10.680;  909.380
933.082;  135.784;  -13.130;  811.440
933.640;  136.163;  -13.210;  925.900
934.197;  132.530;  -11.060;  886.360
934.754;  134.891;   -9.580;  897.780
935.312;  138.359;  -14.000;  863.340
935.869;  142.489;  -10.710; 1012.980
936.426;  141.283;   -9.860;  872.800
936.983;  142.978;   -9.710;  889.020
937.540;  143.575;  -13.990;  838.280
938.097;  141.336;  -14.040;  940.120
938.654;  141.253;  -10.310;  898.860
939.211;  143.313;  -10.560;  952.480
939.768;  147.947;  -13.900;  915.420
940.324;  150.577;  -14.760;  904.200
940.881;  151.102;  -10.370;  878.500
941.438;  152.248;   -8.260; 1021.200
941.995;  149.245;  -12.540;  992.560
942.551;  145.800;  -14.670;  875.620
943.108;  145.240;  -10.450;  937.920
943.664;  148.151;  -10.750;  869.340
944.221;  152.398;  -11.550; 1088.140
944.777;  149.055;  -14.770;  869.680
945.334;  149.612;  -12.820;  884.840
945.890;  151.115;  -10.130;  946.480
946.446;  151.544;  -13.470;  947.020
947.003;  153.933;  -12.120;  964.940
947.559;  155.384;   -9.980; 1063.040
948.115;  155.363;   -9.080; 1026.540
948.671;  154.478;  -10.830;  967.300
949.227;  151.711;  -12.440;  859.560
949.783;  148.164;  -12.910;  858.900
950.339;  150.339;  -10.270;  991.000
950.895;  151.481;  -13.630; 1023.840
951.451;  150.252;  -15.100;  925.280
952.007;  148.735;  -11.330;  998.540
952.563;  147.904;  -10.580;  937.780
953.118;  148.545;  -13.440;  904.940
953.674;  147.945;  -12.710;  935.780
954.230;  146.498;  -10.350;  949.640
954.785;  144.114;   -9.190;  936.640
955.341;  143.398;  -11.200;  998.160
955.897;  141.448;  -16.560;  834.660
956.452;  142.364;  -12.570;  953.840
957.008;  142.041;   -7.970; 1083.640
957.563;  141.139;  -11.940; 1009.540
958.118;  135.303;  -13.450;  877.700
958.674;  136.107;  -12.030;  946.780
959.229;  137.597;   -9.410; 1013.980
959.784;  135.741;  -12.000;  832.400
960.339;  135.775;  -14.780; 1001.280
960.894;  131.347;   -9.860;  963.760
961.449;  127.681;   -9.970;  859.960
962.004;  127.403;  -10.900; 1212.840
962.559;  121.977;  -13.150;  860.140
963.114;  118.336;  -13.740;  742.480
963.669;  119.738;   -9.820;  915.500
964.224;  118.526;  -13.890;  874.340
964.779;  116.937;  -12.600;  828.420
965.334;  116.579;  -10.950; 1017.860
965.888;  116.404;  -11.170;  875.360
966.443;  119.622;  -12.540;  972.380
966.998;  119.113;  -15.780;  819.460
967.552;  117.993;   -9.760;  908.380
968.107;  114.548;   -9.060;  868.300
968.661;  116.792;  -11.950;  922.440
969.216;  117.083;  -12.800;  856.280
969.770;  116.115;  -11.210;  917.200
970.324;  115.563;  -11.610;  923.140
970.879;  112.620;  -11.370;  947.180
971.433;  109.662;  -12.540;  952.720
971.987;  103.292;  -11.320;  895.340
972.541;  101.364;  -10.720;  917.100
973.095;  100.548;   -9.680; 1009.460
973.649;   99.010;  -11.440;  809.480
974.203;   96.646;  -11.210;  829.040
974.757;   96.854;  -10.240;  855.220
975.311;   98.743;  -13.720;  872.600
975.865;   97.563;  -13.770;  881.820
976.419;   95.639;  -11.690;  857.400
976.973;   96.151;   -9.510;  849.620
977.526;   98.015;  -12.620;  949.920
978.080;   97.098;  -12.010;  796.780
978.634;   97.763;  -10.170;  921.320
979.187;   94.194;   -9.020;  905.400
979.741;   93.799;   -9.820; 1018.380
980.294;   88.544;  -14.870;  789.160
980.848;   86.189;  -12.380;  717.220
981.401;   88.156;  -10.350;  816.540
981.955;   91.383;  -13.720;  844.300
982.508;   89.549;  -11.490;  746.340
983.061;   89.729;  -10.000;  915.260
983.615;   86.003;  -11.480;  798.800
984.168;   83.277;  -13.220;  770.080
984.721;   82.476;  -13.960;  880.760
985.274;   81.366;  -10.870;  867.500
985.827;   80.264;   -9.790;  834.220
986.380;   78.690;  -13.120;  721.340
986.933;   78.744;  -12.450;  864.800
987.486;   76.061;  -10.210;  861.920
988.039;   75.223;   -8.430;  863.100
988.591;   74.277;  -10.520;  893.260
989.144;   70.874;  -14.860;  737.260
989.697;   69.564;  -13.080;  758.740
990.250;   70.039;  -10.150;  858.100
990.802;   69.736;  -13.430;  755.860
991.355;   70.701;  -12.750;  974.880
991.907;   68.134;  -12.040;  864.320
992.460;   65.567;  -11.330;  753.760
993.012;   66.043;  -13.610;  749.540
993.565;   64.241;  -13.460;  711.360
994.117;   65.311;   -9.360;  950.780
994.669;   62.196;  -11.300;  701.320
995.221;   60.895;  -13.540;  791.920
995.774;   58.838;  -13.430;  787.580
996.326;   56.854;  -12.520;  740.220
996.878;   56.183;  -10.950;  838.420
997.430;   55.627;  -14.300;  699.860
997.982;   54.705;  -13.760;  750.140
998.534;   53.254;  -11.530;  739.060
999.086;   51.954;  -10.310;  738.220
999.638;   51.349;  -12.530;  661.380
1000.190;   50.319;  -11.840;  699.320
1000.741;   49.913;  -10.260;  742.700
1001.293;   50.429;   -8.860;  686.020
1001.845;   49.867;  -13.700;  676.640
1002.396;   48.684;  -12.100;  743.400
1002.948;   47.912;  -12.760;  737.400
1003.500;   46.445;  -10.380;  723.780
1004.051;   47.082;  -11.900;  907.580
1004.603;   46.195;  -12.250;  791.820
1005.154;   41.682;  -13.210;  608.980
1005.705;   41.364;  -10.950;  723.960
1006.257;   41.292;  -13.880;  707.220
1006.808;   40.267;  -12.840;  685.460
1007.359;   39.394;  -10.570;  763.240
1007.910;   38.665;   -9.620;  646.640
1008.461;   38.306;  -13.630;  732.940
1009.013;   37.834;  -17.200;  588.340
1009.564;   37.489;  -10.200;  793.520
1010.115;   36.027;  -12.570;  597.040
1010.665;   36.937;  -15.150;  602.160
1011.216;   36.461;  -14.480;  667.920
1011.767;   34.782;  -11.340;  697.920
1012.318;   35.375;   -9.780;  736.980
1012.869;   35.441;  -12.380;  679.000
1013.419;   35.434;  -15.560;  603.120
1013.970;   34.476;  -11.010;  666.640
1014.521;   33.243;  -11.610;  620.620
1015.071;   34.469;  -13.450;  670.380
1015.622;   34.596;  -13.870;  635.460
1016.172;   32.274;  -11.610;  596.820
1016.723;   32.113;  -12.120;  614.380
1017.273;   32.523;  -13.620;  604.160
1017.823;   32.806;  -14.140;  650.340
1018.374;   31.359;  -12.800;  611.760
1018.924;   31.559;  -12.340;  716.880
1019.474;   32.932;  -11.410;  718.880
1020.024;   31.203;  -14.770;  657.580
1020.574;   31.593;   -9.780;  726.160
1021.124;   32.268;   -8.560;  673.580
1021.674;   30.738;  -15.190;  559.120
1022.224;   31.741;  -13.530;  708.940
1022.774;   30.625;  -13.280;  668.820
1023.324;   30.694;  -10.690;  753.520
1023.874;   32.883;  -10.240;  875.760
1024.423;   29.770;  -12.540;  613.700
1024.973;   28.718;  -10.010;  610.760
1025.523;   28.154;  -10.550;  620.960
1026.072;   28.757;  -13.560;  606.420
1026.622;   28.588;  -15.120;  675.740
1027.172;   29.741;  -11.260;  715.660
1027.721;   28.800;  -11.410;  601.220
1028.270;   29.169;  -13.530;  663.400
1028.820;   29.148;  -13.680;  638.080
1029.369;   27.645;  -13.520;  612.700
1029.918;   28.354;  -10.980;  649.840
1030.468;   27.746;  -13.530;  564.780
1031.017;   28.166;  -13.170;  634.800
1031.566;   26.394;  -12.200;  608.900
1032.115;   27.314;   -9.960;  694.500
1032.664;   26.706;  -13.210;  596.480
1033.213;   28.010;  -12.500;  735.420
1033.762;   26.361;  -11.910;  635.620
1034.311;   25.994;   -9.640;  677.220
1034.860;   27.139;  -13.310;  691.000
1035.408;   26.884;  -11.830;  722.720
1035.957;   26.762;  -12.000;  719.540
1036.506;   24.353;  -11.690;  530.800
1037.055;   27.528;  -10.990;  844.320
1037.603;   25.985;  -15.120;  664.000
1038.152;   23.405;  -12.450;  534.760
1038.700;   24.480;  -10.560;  585.740
1039.249;   24.543;  -11.080;  681.220
1039.797;   24.743;  -12.540;  633.360
1040.345;   24.573;  -11.920;  705.420
1040.894;   24.109;  -11.410;  625.300
1041.442;   24.455;  -14.320;  632.200
1041.990;   23.075;  -16.240;  559.160
1042.538;   22.578;  -11.680;  536.180
1043.087;   23.031;  -10.760;  570.860
1043.635;   24.286;  -11.850;  670.500
1044.183;   23.310;  -15.480;  586.400
1044.731;   22.790;  -11.770;  576.000
1045.279;   22.046;  -13.090;  674.920
1045.827;   25.095;  -12.440;  892.400
1046.374;   22.156;  -13.840;  515.420
1046.922;   21.081;  -13.220;  590.580
1047.470;   22.999;  -10.230;  691.300
1048.018;   22.216;  -14.590;  647.960
1048.565;   22.998;  -12.050;  708.600
1049.113;   21.138;  -11.650;  557.000
1049.660;   20.699;  -10.510;  629.660
1050.208;   21.460;  -13.310;  675.640
1050.755;   21.008;  -15.900;  606.580
1051.303;   20.886;  -11.430;  686.820
1051.850;   20.360;   -8.480;  635.120
1052.397;   19.439;  -15.010;  473.960
1052.945;   20.376;  -13.960;  617.760
1053.492;   20.754;  -13.150;  741.840
1054.039;   20.760;   -9.630;  720.180
1054.586;   20.021;  -13.680;  557.240
1055.133;   20.860;  -14.570;  693.140
1055.680;   20.243;  -13.820;  646.620
1056.227;   18.692;  -11.730;  542.780
1056.774;   21.867;  -12.480;  794.980
1057.321;   19.120;  -13.930;  523.260
1057.868;   18.907;  -11.690;  651.320
1058.415;   18.956;   -9.520;  651.980
1058.961;   19.805;  -13.160;  678.940
1059.508;   19.596;  -12.920;  643.820
1060.055;   18.622;  -11.920;  581.780
1060.601;   19.051;  -11.500;  624.300
1061.148;   18.781;  -14.330;  616.820
1061.694;   18.167;  -16.870;  592.580
1062.241;   17.206;  -10.330;  596.320
1062.787;   18.116;  -10.620;  663.140
1063.334;   20.129;  -10.110;  808.560
1063.880;   18.730;  -13.400;  668.360
1064.426;   17.631;  -10.680;  706.820
1064.972;   16.492;   -9.920;  601.340
1065.518;   15.954;  -10.980;  566.640
1066.065;   18.655;  -14.890;  624.460
1066.611;   16.399;  -12.870;  598.800
1067.157;   17.228;  -12.950;  641.860
1067.703;   17.163;  -13.540;  668.480
1068.249;   17.507;  -13.540;  605.220
1068.794;   16.475;  -12.600;  626.880
1069.340;   15.347;  -10.620;  578.960
1069.886;   17.059;  -12.830;  590.700
1070.432;   15.941;  -14.870;  541.720
1070.977;   14.869;  -11.980;  601.080
1071.523;   15.991;   -8.200;  573.060
1072.068;   15.860;  -12.330;  582.000
1072.614;   16.030;  -16.370;  527.760
1073.160;   16.353;  -11.100;  687.040
1073.705;   14.383;  -10.480;  572.520
1074.250;   15.631;  -14.520;  559.900
1074.796;   16.537;  -11.460;  655.160
1075.341;   15.456;  -11.950;  664.100
1075.886;   14.452;  -11.460;  594.240
1076.431;   14.483;  -13.770;  649.880
1076.976;   15.267;  -12.680;  639.220
1077.521;   14.130;  -13.170;  583.080
1078.067;   12.900;  -10.860;  579.400
1078.612;   14.561;  -13.920;  661.620
1079.156;   14.600;  -13.880;  601.540
1079.701;   13.556;  -13.120;  693.260
1080.246;   14.684;   -9.940;  696.300
1080.791;   14.837;  -14.740;  625.020
1081.336;   14.334;  -13.750;  659.320
1081.880;   13.712;  -13.400;  649.680
1082.425;   12.792;  -12.220;  573.480
1082.970;   15.556;  -11.610;  717.040
1083.514;   13.582;  -13.580;  597.000
1084.059;   12.457;  -12.810;  586.720
1084.603;   12.413;  -12.320;  565.840
1085.147;   13.860;  -13.190;  645.220
1085.692;   14.081;  -12.480;  716.800
1086.236;   11.407;  -13.020;  503.140
1086.780;   13.760;   -9.190;  751.440
1087.325;   13.085;  -12.480;  654.620
1087.869;   13.149;  -12.450;  610.700
1088.413;   12.906;  -12.240;  705.040
1088.957;   10.143;   -9.020;  543.400
1089.501;   13.552;  -10.320;  766.640
1090.045;   13.199;  -12.720;  726.480
1090.589;   10.040;  -13.690;  569.920
1091.133;   11.936;  -10.020;  673.340
1091.676;   12.202;  -12.330;  591.940
1092.220;   11.739;  -14.970;  600.920
1092.764;   12.247;  -12.430;  706.960
1093.307;   11.590;   -9.800;  673.780
1093.851;   10.258;  -14.970;  556.540
1094.395;   11.761;  -15.310;  683.140
1094.938;   10.238;  -10.370;  632.520
1095.482;   10.838;  -11.050;  559.800
1096.025;   12.071;  -11.840;  710.880
1096.568;   12.423;  -12.840;  779.280
1097.112;    9.662;  -14.700;  508.180
1097.655;   10.288;   -8.720;  603.000
1098.198;    9.760;  -13.610;  600.180
1098.741;   10.084;  -13.350;  612.860
1099.285;    9.628;  -11.230;  657.300
1099.828;    7.902;  -11.840;  439.400
1100.371;   10.026;  -10.840;  608.160
1100.914;    9.958;  -14.190;  682.660
1101.457;    9.911;  -11.240;  679.900
1101.999;    8.511;  -11.270;  584.680
1102.542;    9.923;  -11.480;  641.440
1103.085;    9.364;  -11.750;  658.500
1103.628;    9.489;  -11.400;  762.060
1104.170;    8.671;  -10.490;  588.280
1104.713;    9.555;  -10.600;  646.700
1105.256;    8.950;  -14.360;  557.440
1105.798;    7.619;  -13.210;  499.980
1106.341;    9.202;  -10.270;  728.900
1106.883;    9.190;  -12.200;  521.340
1107.425;    8.808;  -13.110;  668.180
1107.968;    7.544;  -12.840;  612.380
1108.510;    8.331;   -6.480;  684.960
1109.052;    7.498;  -13.940;  612.620
1109.594;    8.105;  -13.690;  554.440
1110.136;    7.593;  -11.880;  643.220
1110.679;    6.694;   -9.500;  633.080
1111.221;    8.052;  -14.160;  604.460
1111.763;    7.390;  -13.980;  559.220
1112.304;    6.856;  -13.880;  547.140
1112.846;    7.998;  -12.210;  666.240
1113.388;   10.493;  -11.390;  942.180
1113.930;    7.503;  -14.540;  694.200
1114.472;    5.885;  -12.640;  606.540
1115.013;    5.559;  -11.620;  551.280
1115.555;    6.822;  -13.640;  587.100
1116.097;    6.270;  -15.380;  579.480
1116.638;    6.181;  -12.640;  684.600
1117.180;    6.817;   -9.850;  667.740
1117.721;    6.584;  -13.690;  568.580
1118.262;    8.051;  -12.680;  677.960
1118.804;    6.350;  -12.530;  637.340
1119.345;    5.173;  -11.690;  578.400
1119.886;    7.180;  -13.380;  704.040
1120.427;    5.555;  -14.070;  589.020
1120.969;    4.716;  -13.500;  597.920
1121.510;    4.457;  -11.480;  563.060
1122.051;    6.366;  -12.830;  723.580
1122.592;    5.742;  -14.290;  655.420
1123.133;    3.539;  -12.400;  547.940
1123.673;    5.597;  -10.130;  706.480
1124.214;    5.678;  -12.930;  612.460
1124.755;    6.100;  -14.380;  639.460
1125.296;    4.663;  -14.000;  627.320
1125.836;    5.797;  -10.070;  691.500
1126.377;    4.529;  -12.640;  599.660
1126.918;    6.176;  -12.960;  614.980
1127.458;    4.931;  -13.350;  622.220
1127.999;    4.983;  -10.750;  656.980
1128.539;    5.752;  -12.350;  694.240
1129.079;    5.033;  -14.860;  632.720
1129.620;    3.572;  -13.840;  558.100
1130.160;    3.910;  -12.330;  539.480
1130.700;    5.243;  -14.530;  640.840
1131.240;    5.489;  -12.530;  643.700
1131.781;    3.117;  -14.450;  619.680
1132.321;    3.047;   -9.790;  599.120
1132.861;    3.179;  -14.860;  564.200
1133.401;    3.339;  -14.290;  593.940
1133.941;    3.167;  -11.750;  626.280
1134.481;    2.640;   -9.920;  597.580
1135.020;    3.690;  -12.290;  609.160
1135.560;    3.853;  -11.650;  674.940
1136.100;    2.082;  -16.270;  501.160
1136.640;    2.453;  -10.890;  510.480
1137.179;    3.106;  -14.180;  537.960
1137.719;    4.105;  -16.250;  605.400
1138.258;    2.763;  -14.230;  587.360
1138.798;    2.831;   -9.090;  663.780
1139.337;    2.398;  -15.130;  482.840
1139.877;    3.210;  -13.680;  642.360
1140.416;    4.258;  -11.320;  878.060
1140.955;    1.770;  -10.860;  535.380
1141.494;    2.665;  -12.920;  669.280
1142.034;    3.110;  -13.930;  583.520
1142.573;    3.032;  -11.440;  646.280
1143.112;    1.015;  -12.000;  553.480
1143.651;    2.805;  -13.670;  536.480
1144.190;    3.522;  -12.730;  691.640
1144.729;    1.906;  -14.560;  607.420
1145.267;    1.786;  -11.830;  584.900
1145.806;    2.920;  -12.230;  637.040
1146.345;    2.035;  -14.130;  635.020
1146.884;    1.101;  -11.590;  622.500
1147.422;    0.662;  -12.550;  533.060
1147.961;    2.908;  -11.180;  708.460
1148.500;    3.421;  -11.510;  669.720
1149.038;    2.023;  -11.640;  632.500
1149.577;    2.029;  -10.130;  698.640
1150.115;    0.070;  -13.970;  452.280
1150.653;    1.727;  -14.520;  607.340
1151.192;    0.561;  -12.810;  552.920
1151.730;    1.155;   -9.100;  652.560
1152.268;    1.333;  -12.220;  589.520
1152.806;    1.488;  -14.140;  571.180
1153.344;   -0.923;  -12.350;  577.640
1153.882;    0.652;   -8.980;  600.060
1154.421;    0.288;  -15.190;  470.620
1154.958;    0.780;  -15.210;  595.240
1155.496;    1.079;  -12.850;  645.280
1156.034;    0.978;   -9.940;  721.880
1156.572;    1.795;  -13.570;  667.060
1157.110;    0.171;  -14.590;  473.940
1157.647;    0.464;  -13.030;  676.960
1158.185;   -0.759;  -12.140;  564.320
1158.723;   -1.103;  -14.390;  509.200
1159.260;    0.286;  -14.090;  701.700
1159.798;    0.635;  -11.920;  658.160
1160.335;   -0.208;  -11.110;  631.820

