
Integration time [ms]:   3.276
Averaging Nr. [scans]: 1000
Smoothing Nr. [pixels]: 0
Data measured with spectrometer [name]: 7414430SP
Wave   ;Sample   ;Dark     ;Reference
[nm]   ;[counts] ;[counts] ;[counts] 

288.544;  150.110;    7.793;  793.890
289.143;  154.256;    7.462;  681.602
289.742;  155.759;    8.602;  828.814
290.341;  140.372;    1.321;  789.841
290.940;  129.322;   -0.709;  730.702
291.538;  130.450;    0.881;  881.108
292.137;  130.443;    0.122;  792.581
292.736;  135.181;   -1.929;  975.101
293.335;  130.874;   -8.229;  735.086
293.934;  131.676;   -5.279;  781.677
294.532;  130.758;   -1.369; 1031.958
295.131;  116.684;   -7.641;  834.394
295.730;  116.221;   -8.420;  809.588
296.328;  115.112;   -5.611;  783.442
296.927;  116.353;   -5.781;  779.652
297.525;  117.246;   -6.361;  781.236
298.124;  108.225;  -11.382;  654.009
298.722;  111.309;   -7.641;  761.933
299.321;  109.650;   -6.811;  708.597
299.919;  107.636;   -6.991;  751.918
300.518;  104.281;  -10.362;  689.338
301.116;  105.766;   -9.581;  691.381
301.715;  106.240;   -4.891;  730.222
302.313;  104.961;   -8.801;  704.943
302.911;   99.554;   -8.522;  733.830
303.509;  105.333;   -6.171;  925.627
304.108;  103.009;   -7.311;  760.383
304.706;  102.569;   -8.321;  801.664
305.304;   96.194;  -10.222;  796.707
305.902;  101.943;   -6.021;  784.484
306.500;   97.742;   -4.971;  728.200
307.098;   96.864;   -7.061;  746.560
307.696;   94.660;   -8.801;  780.432
308.294;   94.904;   -6.411;  731.359
308.892;   97.292;   -2.901;  759.769
309.490;   93.960;   -5.041;  712.161
310.088;   91.932;   -5.002;  788.444
310.686;   95.361;   -2.041;  821.749
311.284;   91.269;   -2.351;  766.040
311.882;   90.039;   -4.422;  731.225
312.480;   85.655;   -4.192;  697.167
313.078;   87.276;   -1.172;  808.331
313.675;   88.424;   -2.601;  691.600
314.273;   84.607;   -1.312;  797.837
314.871;   82.820;   -3.942;  589.829
315.468;   80.346;   -2.802;  652.090
316.066;   83.883;   -0.701;  694.427
316.664;   76.908;   -4.362;  656.351
317.261;   80.063;   -2.872;  910.128
317.859;   75.147;   -2.022;  768.735
318.456;   76.846;   -0.531;  830.096
319.054;   73.077;   -3.912;  787.828
319.651;   71.489;   -4.752;  759.928
320.249;   70.336;   -2.602;  810.188
320.846;   68.426;   -0.821;  714.286
321.443;   66.088;   -4.642;  832.135
322.041;   62.466;   -5.002;  812.315
322.638;   60.086;   -3.982;  701.456
323.235;   61.860;   -3.411;  665.683
323.833;   59.849;   -7.361;  740.354
324.430;   54.723;   -8.611;  615.900
325.027;   55.364;   -4.061;  876.855
325.624;   55.809;   -4.031;  644.532
326.221;   52.591;   -7.481;  689.717
326.818;   51.543;   -5.281;  818.332
327.415;   54.912;   -7.460;  748.828
328.012;   54.703;   -5.510;  690.585
328.609;   53.463;   -7.880;  731.389
329.206;   51.117;   -8.331;  778.621
329.803;   51.672;   -5.121;  737.841
330.400;   54.639;   -4.510;  704.260
330.997;   56.687;   -6.441;  817.147
331.594;   54.345;   -8.831;  788.185
332.191;   59.727;   -7.621;  728.722
332.787;   62.086;   -4.591;  844.463
333.384;   61.181;   -7.412;  763.093
333.981;   59.175;   -8.293;  815.687
334.578;   61.695;   -7.052;  708.378
335.174;   65.499;   -3.102;  731.469
335.771;   65.176;   -5.943;  836.456
336.367;   60.533;   -7.393;  710.631
336.964;   65.060;   -4.063;  793.266
337.561;   62.745;   -3.813;  731.112
338.157;   58.998;   -4.654;  911.916
338.754;   56.059;   -7.934;  796.589
339.350;   54.333;   -4.414;  722.493
339.946;   56.296;   -4.664;  773.135
340.543;   49.587;   -6.375;  846.136
341.139;   42.882;   -9.815;  720.836
341.735;   41.199;   -4.526;  772.593
342.332;   40.350;   -4.895;  691.472
342.928;   40.658;   -4.295;  795.394
343.524;   34.032;   -5.476;  761.684
344.120;   29.954;   -5.856;  738.562
344.716;   34.566;   -2.155;  723.717
345.313;   32.673;   -6.275;  795.342
345.909;   25.966;   -8.815;  627.336
346.505;   28.736;   -5.305;  740.247
347.101;   29.642;   -2.674;  827.864
347.697;   29.443;   -4.344;  785.398
348.293;   23.961;   -9.975;  627.244
348.889;   24.481;   -5.774;  745.914
349.485;   24.327;   -5.004;  688.205
350.081;   24.984;   -4.704;  772.592
350.676;   19.481;   -6.635;  691.606
351.272;   23.681;   -4.504;  809.530
351.868;   23.388;   -3.914;  780.497
352.464;   21.706;   -9.044;  723.932
353.059;   17.695;   -8.314;  646.017
353.655;   20.712;   -7.024;  777.063
354.251;   22.561;   -5.343;  759.845
354.846;   16.953;   -8.604;  740.646
355.442;   14.206;   -6.945;  753.071
356.038;   16.026;   -7.564;  751.708
356.633;   16.612;   -5.814;  728.594
357.229;   14.627;   -7.364;  724.757
357.824;   11.984;   -8.024;  703.600
358.420;   11.127;   -9.384;  679.726
359.015;   12.220;   -5.104;  695.357
359.610;   14.038;   -6.854;  763.920
360.206;    7.118;  -10.185;  603.240
360.801;    9.779;   -7.054;  646.503
361.396;   12.561;   -5.034;  725.975
361.992;    7.731;   -8.284;  668.220
362.587;    4.995;   -8.625;  670.160
363.182;    7.330;   -7.674;  689.631
363.777;    7.963;   -5.164;  738.242
364.372;    8.183;   -8.604;  737.314
364.967;    3.667;   -9.055;  680.744
365.563;    7.522;   -6.114;  815.567
366.158;    5.831;   -5.814;  685.161
366.753;    5.986;   -7.854;  649.263
367.348;    4.197;   -7.804;  746.056
367.942;    4.261;   -7.954;  697.298
368.537;    3.798;   -4.984;  754.245
369.132;    3.334;   -8.564;  703.428
369.727;   -1.019;   -8.855;  638.079
370.322;    0.401;   -6.245;  580.186
370.917;    0.612;   -6.425;  710.646
371.511;    3.345;   -6.294;  861.834
372.106;   -0.233;   -7.685;  776.964
372.701;   -3.363;   -7.335;  585.988
373.296;    2.010;   -4.564;  863.135
373.890;   -2.284;  -10.235;  647.840
374.485;   -4.776;   -7.885;  691.199
375.079;   -0.768;   -7.324;  738.685
375.674;    0.296;   -3.494;  812.970
376.268;   -3.179;   -8.525;  691.759
376.863;   -9.046;  -10.086;  580.327
377.457;   -3.783;   -7.025;  662.490
378.052;   -4.863;   -3.585;  764.884
378.646;   -5.781;   -7.595;  741.167
379.240;   -6.016;   -8.335;  721.176
379.835;   -5.265;   -5.785;  636.978
380.429;   -7.054;   -4.335;  562.557
381.023;   -6.524;   -6.805;  779.205
381.617;   -9.784;   -9.195;  680.106
382.212;   -6.944;   -6.905;  685.303
382.806;   -6.061;   -3.745;  760.690
383.400;   -9.525;   -7.745;  672.281
383.994;  -10.679;   -9.765;  664.870
384.588;   -6.172;   -6.564;  697.701
385.182;   -5.194;   -5.344;  726.624
385.776;   -7.254;   -8.514;  706.875
386.370;  -10.654;   -9.555;  681.968
386.964;   -9.273;   -8.715;  684.155
387.558;   -6.701;   -6.174;  598.360
388.152;   -9.873;   -8.725;  681.959
388.745;   -8.992;   -7.965;  814.707
389.339;   -7.511;   -5.924;  747.642
389.933;   -6.143;   -5.524;  695.370
390.527;   -6.873;   -7.114;  859.029
391.120;  -13.494;  -10.725;  595.318
391.714;  -10.092;   -8.035;  711.633
392.308;   -6.921;   -3.574;  780.253
392.901;  -11.005;   -7.245;  642.460
393.495;  -12.642;   -9.285;  595.414
394.089;  -10.722;   -5.895;  760.452
394.682;  -11.050;   -4.295;  697.188
395.275;  -11.671;   -9.875;  719.927
395.869;  -13.433;   -8.485;  667.314
396.462;  -11.630;   -7.455;  616.609
397.056;   -7.704;   -5.424;  776.621
397.649;  -11.806;   -6.605;  731.575
398.242;   -9.731;   -8.224;  712.645
398.836;   -9.358;   -7.474;  766.408
399.429;   -9.856;   -7.094;  631.041
400.022;  -12.605;   -9.475;  665.902
400.615;  -10.821;   -7.145;  805.609
401.208;   -9.135;   -7.174;  691.451
401.802;  -11.214;   -5.515;  699.329
402.395;  -12.846;   -9.875;  683.502
402.988;  -13.447;   -8.845;  696.627
403.581;  -10.023;   -8.874;  646.878
404.174;   -7.321;   -5.324;  686.568
404.767;  -10.099;   -9.575;  638.583
405.360;  -12.908;  -10.965;  621.445
405.953;   -7.758;   -8.764;  759.034
406.545;   -6.363;   -7.514;  725.342
407.138;  -11.373;  -10.025;  618.350
407.731;  -10.295;  -10.034;  613.303
408.324;   -6.004;   -9.374;  660.554
408.917;   -6.935;   -6.534;  681.864
409.509;   -8.277;   -8.004;  740.396
410.102;  -10.732;   -9.875;  643.948
410.695;   -4.564;   -8.604;  665.758
411.287;   -5.439;   -6.794;  599.821
411.880;   -6.702;   -9.334;  585.421
412.472;   -9.836;  -10.254;  613.092
413.065;   -6.847;   -6.714;  629.408
413.657;   -4.952;   -7.234;  576.678
414.250;   -4.460;  -10.544;  646.681
414.842;   -7.229;   -9.744;  676.353
415.434;   -4.298;   -6.994;  570.463
416.027;    0.162;   -5.893;  652.196
416.619;   -2.105;   -7.264;  713.400
417.211;   -2.221;  -10.374;  599.352
417.804;    0.206;   -7.993;  628.499
418.396;   -2.779;   -7.234;  607.643
418.988;   -0.435;   -9.443;  659.238
419.580;   -4.818;  -10.724;  568.276
420.172;   -2.342;  -10.323;  536.196
420.764;    2.671;   -8.793;  672.482
421.356;    1.055;  -11.143;  636.898
421.948;    0.135;   -8.293;  677.661
422.540;    4.753;   -7.893;  680.027
423.132;    5.196;   -7.082;  600.641
423.724;    1.487;   -8.653;  561.267
424.316;    3.938;  -10.213;  621.345
424.908;    6.554;   -9.762;  591.517
425.500;    7.128;   -5.572;  647.978
426.092;    8.427;   -8.422;  648.268
426.683;    6.750;   -9.283;  684.836
427.275;    9.268;   -7.852;  641.471
427.867;   11.427;   -5.272;  668.948
428.458;   11.941;   -7.682;  732.344
429.050;    9.961;  -10.612;  680.749
429.642;   12.162;   -9.882;  743.124
430.233;   13.113;   -6.962;  569.356
430.825;   15.195;   -6.842;  724.809
431.416;   11.610;   -9.672;  698.241
432.008;   15.230;   -6.552;  651.723
432.599;   16.031;   -6.891;  656.073
433.190;   13.841;  -10.912;  637.670
433.782;   12.109;  -11.172;  590.395
434.373;   19.365;   -6.061;  884.765
434.964;   18.237;   -8.251;  602.920
435.556;   16.374;   -9.722;  634.537
436.147;   19.707;   -9.082;  758.490
436.738;   19.475;   -8.041;  701.099
437.329;   24.640;   -7.341;  721.723
437.920;   18.021;   -8.162;  666.688
438.511;   17.391;  -11.802;  564.526
439.103;   24.266;  -10.191;  623.998
439.694;   25.275;   -7.601;  681.583
440.285;   26.859;   -8.541;  764.432
440.876;   24.636;   -9.751;  845.738
441.466;   24.122;   -9.401;  575.162
442.057;   29.603;   -7.760;  665.814
442.648;   28.379;   -9.971;  746.255
443.239;   27.436;  -11.001;  620.477
443.830;   31.039;   -7.990;  704.958
444.421;   33.595;   -7.910;  655.474
445.011;   30.572;   -8.131;  693.619
445.602;   30.206;   -7.111;  743.126
446.193;   30.954;  -10.920;  488.117
446.783;   37.290;   -6.500;  640.397
447.374;   32.357;   -8.671;  692.759
447.964;   32.145;  -10.781;  713.770
448.555;   40.471;   -9.650;  822.742
449.145;   38.284;   -8.660;  662.853
449.736;   38.563;   -8.990;  803.179
450.326;   38.429;   -9.500;  713.626
450.917;   42.135;   -8.680;  675.324
451.507;   42.425;   -7.520;  600.661
452.097;   43.190;   -8.590;  746.267
452.688;   43.537;  -11.340;  742.160
453.278;   43.815;  -10.100;  566.840
453.868;   48.126;   -6.019;  793.550
454.458;   46.250;   -9.440;  651.141
455.048;   46.459;  -10.560;  711.783
455.639;   48.070;  -11.799;  567.096
456.229;   51.367;   -6.899;  710.694
456.819;   54.132;   -7.389;  751.158
457.409;   54.343;  -11.119;  773.993
457.999;   56.527;   -9.289;  737.505
458.589;   56.616;   -6.139;  686.606
459.179;   57.192;   -8.729;  717.658
459.769;   54.715;   -9.789;  627.099
460.358;   59.205;  -10.259;  797.262
460.948;   60.174;   -7.299;  689.503
461.538;   61.902;  -10.289;  660.677
462.128;   59.276;  -11.269;  664.934
462.717;   65.096;   -9.368;  710.326
463.307;   68.837;   -7.908;  705.846
463.897;   64.891;   -9.599;  656.942
464.486;   64.087;   -9.769;  837.128
465.076;   67.918;   -8.048;  733.776
465.666;   72.139;   -9.358;  652.900
466.255;   70.161;   -7.919;  785.651
466.845;   68.604;  -11.689;  666.749
467.434;   72.584;   -7.818;  725.873
468.023;   73.550;   -7.678;  658.357
468.613;   71.148;  -10.939;  713.946
469.202;   75.447;  -10.118;  646.507
469.791;   79.255;   -9.108;  737.811
470.381;   81.964;   -6.058;  742.813
470.970;   81.262;  -10.428;  711.099
471.559;   81.032;  -10.268;  733.291
472.148;   84.270;   -8.448;  675.737
472.738;   86.523;   -6.917;  765.466
473.327;   87.019;  -11.978;  637.529
473.916;   85.937;  -11.888;  737.446
474.505;   90.670;   -9.437;  751.703
475.094;   94.528;   -6.747;  806.570
475.683;   94.307;   -9.367;  797.699
476.272;   94.310;  -12.637;  730.632
476.861;   96.868;  -10.027;  706.754
477.449;  103.024;   -8.716;  728.487
478.038;   97.925;   -9.577;  692.513
478.627;   99.114;   -9.718;  714.852
479.216;  105.083;   -8.947;  769.441
479.805;  109.261;   -6.256;  783.375
480.393;  109.548;   -7.937; 1008.945
480.982;  107.875;   -7.717;  874.501
481.571;  114.392;   -9.266;  858.333
482.159;  115.046;   -7.636;  705.386
482.748;  115.662;   -9.667;  821.385
483.336;  119.220;  -10.376;  858.209
483.925;  120.908;   -7.147;  774.373
484.513;  127.331;   -7.996;  758.962
485.102;  124.504;  -10.027;  810.965
485.690;  132.479;  -10.446; 1011.050
486.278;  134.813;   -8.446;  979.329
486.867;  135.931;   -6.356;  809.662
487.455;  138.023;   -9.136;  898.229
488.043;  139.471;  -10.646;  748.361
488.631;  148.389;   -7.456; 1005.079
489.220;  152.113;   -6.636;  908.626
489.808;  153.469;  -11.036;  741.415
490.396;  160.897;  -10.246;  914.645
490.984;  167.098;   -8.556;  830.161
491.572;  177.816;   -5.886;  940.315
492.160;  183.910;   -9.486;  919.081
492.748;  197.061;  -10.976;  884.341
493.336;  221.663;   -8.776; 1019.693
493.924;  249.756;   -5.465;  958.077
494.512;  280.583;   -9.986; 1066.638
495.100;  321.068;  -10.636; 1103.280
495.687;  378.637;  -10.885; 1206.373
496.275;  448.675;   -8.126; 1150.796
496.863;  525.780;  -10.586; 1281.171
497.451;  635.075;  -11.926; 1386.805
498.038;  775.701;  -10.885; 1556.729
498.626;  893.693;   -6.315; 1741.407
499.214; 1055.135;   -7.326; 2016.609
499.801; 1266.714;  -11.906; 2220.633
500.389; 1536.368;  -10.466; 2312.494
500.976; 1872.472;   -5.236; 2744.849
501.564; 2343.784;   -8.936; 3148.565
502.151; 2746.310;  -13.176; 3515.999
502.738; 3233.495;  -10.646; 3971.274
503.326; 3652.125;   -9.525; 4403.796
503.913; 4077.055;  -10.856; 5161.749
504.500; 4479.814;  -11.586; 5986.420
505.088; 4931.046;  -10.336; 6381.201
505.675; 5497.093;   -6.355; 6925.547
506.262; 6274.863;   -9.046; 7619.060
506.849; 7036.167;  -10.416; 8733.969
507.436; 7551.504;  -10.305; 9790.121
508.023; 8191.329;   -5.496; 9985.472
508.610; 8470.636;   -7.856;10434.618
509.197; 9162.337;  -10.097;11198.435
509.784;10646.482;  -10.886;12391.194
510.371;11780.441;   -9.315;13603.713
510.958;12596.225;   -9.936;14426.586
511.545;13453.363;   -9.326;15243.775
512.132;14353.558;  -10.075;15945.876
512.719;14952.604;   -7.796;16340.369
513.305;15938.340;  -10.606;18011.766
513.892;16735.951;  -11.486;19754.971
514.479;18191.303;   -9.126;20967.805
515.066;19821.076;   -6.026;22299.793
515.652;21241.797;   -8.466;22908.660
516.239;22613.418;  -10.886;23798.875
516.825;23727.809;  -11.496;25567.275
517.412;24799.412;   -5.796;28154.959
517.998;25373.494;  -10.506;28344.111
518.585;25460.557;  -10.076;27134.219
519.171;26058.129;   -8.315;27268.576
519.758;27642.563;   -8.596;28964.129
520.344;29588.873;   -8.466;30664.494
520.930;29556.455;  -11.006;32550.605
521.516;31001.744;  -10.495;35422.895
522.103;33482.090;   -5.526;38280.004
522.689;34086.926;   -8.746;37835.117
523.275;33593.926;  -11.376;37288.613
523.861;34945.309;  -11.156;37281.395
524.447;36395.074;   -8.135;37846.949
525.033;36239.730;   -7.896;38321.949
525.619;36441.559;  -12.476;38579.285
526.205;38119.281;   -9.516;40622.875
526.791;40496.895;   -6.926;42258.836
527.377;40692.164;   -8.346;42966.902
527.963;42309.598;   -8.717;42018.949
528.549;40687.016;  -11.016;42476.828
529.135;39295.305;   -8.536;41854.852
529.721;38559.895;   -9.666;41237.711
530.306;37790.672;  -10.066;41259.445
530.892;37625.254;  -11.356;41506.047
531.478;39106.352;   -6.596;43559.613
532.063;42250.477;   -8.836;47695.563
532.649;42747.371;  -10.047;50808.324
533.235;43580.258;   -9.746;51787.500
533.820;44229.000;   -6.566;52145.035
534.406;45822.211;  -10.817;51133.488
534.991;45569.625;   -9.416;49996.805
535.576;44061.973;   -9.036;48882.852
536.162;44561.992;   -6.156;46942.285
536.747;45457.727;  -11.607;45711.746
537.333;49349.719;  -11.787;48510.180
537.918;52618.410;  -12.437;50439.891
538.503;51187.477;   -7.196;50863.711
539.088;47507.238;  -10.556;50906.922
539.673;47264.488;   -8.767;52621.965
540.259;47405.172;  -10.026;52368.094
540.844;44756.836;   -7.416;50879.109
541.429;46057.941;   -9.467;52077.777
542.014;48928.164;   -9.527;52716.695
542.599;48254.957;   -9.946;52363.281
543.184;45857.871;   -7.927;53187.137
543.769;47365.355;   -9.297;54697.605
544.354;46800.148;  -10.127;53913.914
544.938;45481.625;   -9.267;49680.164
545.523;47443.395;   -6.506;47386.277
546.108;50316.586;   -9.787;49151.949
546.693;52428.078;  -11.587;51384.637
547.278;52166.680;  -10.986;51853.254
547.862;49082.086;   -8.206;51173.750
548.447;44412.527;  -10.067;51691.395
549.031;43997.832;   -9.637;52456.703
549.616;49136.801;   -9.926;52714.516
550.201;48312.699;   -6.347;52414.598
550.785;49503.574;   -7.917;52355.059
551.370;48550.934;  -10.867;54589.453
551.954;48139.363;   -9.047;58267.348
552.538;49004.074;   -7.827;59062.176
553.123;47362.047;  -10.287;58115.285
553.707;45121.297;  -12.178;56556.285
554.291;46553.016;   -8.717;56201.668
554.876;48991.367;   -7.457;55335.762
555.460;49151.020;  -10.387;54155.703
556.044;50063.719;   -9.618;53721.484
556.628;48690.473;  -11.567;53731.016
557.212;47500.816;   -8.097;54312.531
557.796;45917.207;  -11.077;53797.773
558.380;45826.387;  -11.108;56145.984
558.964;46213.895;   -9.057;57277.930
559.548;47575.258;   -6.977;56459.641
560.132;45940.152;  -11.457;54434.543
560.716;44424.199;  -11.378;54800.617
561.300;45561.965;   -9.577;57606.945
561.884;46761.633;   -7.127;58972.445
562.467;45030.789;   -7.118;57327.570
563.051;44297.738;  -13.358;54962.434
563.635;45301.543;  -10.178;52594.473
564.219;45528.457;   -7.837;50610.410
564.802;46442.875;  -11.398;49551.180
565.386;46410.027;  -12.788;48370.953
565.969;45704.414;   -9.077;48178.871
566.553;44862.254;   -6.207;49957.305
567.136;45471.676;   -8.568;50369.594
567.720;41779.680;  -11.868;49492.004
568.303;39663.383;   -8.268;50616.352
568.887;39768.020;   -8.698;50727.148
569.470;40101.543;   -6.808;51698.379
570.053;38624.301;  -13.188;52122.078
570.637;36941.156;  -12.037;52536.438
571.220;36805.516;   -8.577;51186.098
571.803;37427.004;   -8.498;51032.762
572.386;39678.707;  -10.498;49609.887
572.969;42168.828;   -9.388;48285.926
573.552;40296.512;   -8.338;47624.285
574.135;38978.332;   -8.518;45498.641
574.718;36540.430;  -13.628;41970.434
575.301;35436.441;  -10.893;41447.137
575.884;34332.453;   -8.158;40923.836
576.467;35584.535;  -10.328;45267.723
577.050;37668.781;  -13.058;48175.543
577.633;39104.660;   -9.458;47729.328
578.216;38124.652;   -8.928;47579.793
578.799;37162.137;   -9.358;47820.996
579.381;35920.926;  -11.388;48115.551
579.964;34046.941;  -11.718;47333.766
580.547;35847.449;   -8.588;46668.969
581.129;37086.215;   -8.859;44466.141
581.712;37981.371;  -10.729;44164.922
582.294;38610.371;  -11.118;46477.855
582.877;38391.566;   -5.218;48244.254
583.459;35876.430;   -8.679;47437.895
584.042;33825.406;  -10.709;46943.219
584.624;34418.945;  -11.669;46792.227
585.206;33998.621;   -8.218;46557.250
585.789;34018.035;  -10.569;45793.773
586.371;36800.793;  -11.859;43836.391
586.953;37380.078;  -10.719;42972.492
587.536;38810.281;   -7.198;42487.211
588.118;38780.230;   -8.720;42086.414
588.700;34985.070;  -10.439;43389.930
589.282;34027.621;   -9.198;43646.039
589.864;34980.949;   -9.199;43438.109
590.446;36093.621;  -11.319;43151.926
591.028;35990.762;  -11.159;42781.867
591.610;34864.160;  -11.779;42839.098
592.192;32213.127;   -7.668;42820.402
592.774;30648.090;  -11.949;40724.277
593.356;29394.240;  -12.129;39874.789
593.937;28349.250;  -10.669;39980.648
594.519;30534.137;   -6.509;42069.633
595.101;32670.984;  -10.849;42976.031
595.683;32755.602;  -11.679;44084.441
596.264;33893.145;   -9.049;43478.797
596.846;33287.867;   -8.849;43803.672
597.427;33174.359;   -9.570;42986.934
598.009;34837.852;  -12.620;42832.219
598.591;35211.766;  -10.039;42580.086
599.172;34328.594;  -10.369;43061.805
599.753;34543.590;   -9.140;41691.469
600.335;36187.859;  -11.430;40692.520
600.916;34357.512;   -9.939;39982.422
601.498;31641.914;   -8.479;40318.617
602.079;30117.584;  -10.920;40670.609
602.660;30060.549;  -11.480;41450.898
603.241;31699.301;  -11.699;41137.738
603.823;30413.908;   -9.579;38868.797
604.404;29900.201;  -10.620;38182.785
604.985;31541.377;  -10.450;38078.047
605.566;31354.549;   -9.129;38056.633
606.147;31551.656;   -7.510;37020.418
606.728;33122.621;  -10.660;37883.359
607.309;31666.963;  -11.740;38748.273
607.890;31098.961;   -9.759;38850.230
608.471;30581.557;   -8.250;37457.918
609.051;29713.932;   -9.240;36066.457
609.632;28632.293;  -12.120;35991.074
610.213;29434.139;   -9.110;37402.641
610.794;30125.514;   -8.030;38383.363
611.374;29657.631;   -8.110;40562.387
611.955;30227.041;  -13.560;38533.727
612.536;31594.627;  -11.400;36951.789
613.116;31485.500;   -8.070;37197.891
613.697;31789.551;  -10.830;38411.125
614.277;30159.684;  -11.641;38673.938
614.858;31037.857;  -13.310;37075.863
615.438;30182.270;   -7.460;35092.906
616.019;27461.764;   -7.601;33666.301
616.599;28089.125;  -12.020;34189.023
617.179;29917.936;  -11.780;36952.047
617.760;30932.020;   -8.570;39582.574
618.340;31978.855;  -11.471;38943.977
618.920;33267.645;  -11.170;37594.156
619.500;33067.520;  -11.071;37866.938
620.080;32120.021;   -7.750;37869.043
620.660;33353.770;  -12.711;36868.617
621.241;34748.918;  -10.211;36352.309
621.821;34939.727;  -10.961;35459.520
622.401;33934.793;   -7.720;35207.414
622.980;33275.648;   -8.981;35980.422
623.560;31774.229;   -9.331;37351.328
624.140;30464.764;   -9.850;34388.582
624.720;25237.156;   -7.451;32368.764
625.300;21741.793;   -9.070;32638.629
625.880;25226.488;  -12.601;34599.035
626.459;29196.451;  -11.751;36831.738
627.039;32267.463;   -9.281;38299.098
627.619;32130.850;   -8.801;38289.574
628.198;30591.475;  -12.071;37220.695
628.778;29797.266;   -9.461;37632.563
629.357;30493.229;   -8.491;38003.012
629.937;30454.721;   -9.721;38402.039
630.516;29998.352;   -9.951;37868.801
631.096;29741.244;  -11.731;35760.410
631.675;32284.449;   -8.572;35225.219
632.254;37293.270;  -11.282;35130.289
632.834;36669.879;  -13.322;35794.570
633.413;34766.617;  -10.301;35788.922
633.992;31998.182;   -8.582;34532.863
634.571;32895.773;   -8.352;33590.113
635.151;35966.594;  -11.912;34943.863
635.730;34288.727;  -10.511;35352.523
636.309;30693.959;   -7.731;35366.605
636.888;28166.098;   -9.952;36165.637
637.467;29002.824;  -11.672;37515.902
638.046;30753.023;   -8.901;39288.695
638.625;33954.723;   -7.912;38279.699
639.204;33665.539;  -10.022;37741.598
639.782;32062.188;  -12.252;38364.551
640.361;28370.367;  -10.041;36740.621
640.940;25513.969;  -11.161;34950.082
641.519;26210.098;   -9.701;34137.398
642.097;29125.783;  -11.271;35654.258
642.676;31947.938;   -8.651;35637.957
643.255;32556.660;   -8.711;36567.074
643.833;31722.793;   -9.581;37809.434
644.412;31732.057;  -13.711;37337.293
644.990;30789.557;  -11.811;37018.531
645.569;30802.166;   -9.411;36518.469
646.147;29740.287;  -10.291;36186.430
646.726;29514.141;  -12.401;36267.688
647.304;30817.590;  -10.411;36647.625
647.882;32663.521;   -9.651;39286.742
648.461;34289.453;   -9.631;39157.703
649.039;32513.047;  -11.881;35412.883
649.617;31828.666;   -9.661;34744.918
650.195;31479.609;   -9.301;35403.098
650.773;29995.400;  -10.511;35053.797
651.352;27508.496;  -11.521;33756.816
651.930;25179.299;  -12.211;31868.773
652.508;23714.873;   -9.171;33121.551
653.086;27705.094;   -9.371;33564.793
653.663;30546.977;  -13.161;34054.668
654.241;29353.678;  -13.031;35693.309
654.819;30998.215;   -9.371;36422.906
655.397;31132.602;  -10.511;38213.484
655.975;30775.379;  -10.371;39507.625
656.553;30584.193;  -10.051;39498.223
657.130;28946.973;  -10.061;40395.480
657.708;28197.691;   -9.561;39242.020
658.286;28283.068;  -11.511;38920.020
658.863;29649.158;  -10.261;40202.898
659.441;32764.797;   -7.531;39677.938
660.018;32243.115;   -9.501;40413.355
660.596;31030.744;  -13.301;39931.414
661.173;32931.992;  -11.211;39604.531
661.750;32993.316;   -9.951;39700.070
662.328;31669.135;   -9.390;39292.809
662.905;30812.701;  -11.330;38235.648
663.482;26558.215;   -9.050;36212.305
664.060;24710.410;   -8.240;35944.945
664.637;27503.162;  -10.050;35170.785
665.214;29403.229;  -11.760;34197.523
665.791;30959.688;  -10.530;34549.520
666.368;29715.246;   -9.690;35118.578
666.945;30337.793;   -9.320;36019.418
667.522;31972.605;  -11.860;36048.438
668.099;31680.877;  -10.770;36243.914
668.676;30415.414;   -6.260;35958.875
669.253;29113.746;   -7.000;37384.730
669.830;29820.299;  -10.190;36779.629
670.407;29562.008;   -9.550;35231.289
670.984;29372.402;   -9.260;35544.270
671.560;29871.816;   -9.280;35466.867
672.137;29134.559;  -11.810;34280.863
672.714;30037.482;  -11.490;34632.863
673.290;30553.469;   -7.740;35135.422
673.867;30699.873;  -10.660;36114.480
674.443;30645.453;  -12.230;36152.859
675.020;28890.281;  -10.450;35327.238
675.596;30001.730;   -9.260;35795.176
676.173;30429.354;  -10.780;35430.355
676.749;30159.252;  -13.690;33549.516
677.326;30156.627;  -11.980;32210.012
677.902;30155.033;   -8.630;32068.871
678.478;29531.156;  -10.730;32583.891
679.054;28898.332;  -10.520;32088.928
679.631;29118.150;  -11.920;30978.848
680.207;30721.904;   -7.490;33160.887
680.783;32314.564;   -9.860;35570.363
681.359;31368.590;  -13.380;36125.184
681.935;30792.848;  -12.480;35240.922
682.511;30017.105;   -7.900;34429.961
683.087;30157.291;   -7.710;34463.680
683.663;29700.053;  -11.480;34648.898
684.239;28391.250;  -14.090;34546.457
684.815;27974.121;   -7.560;35586.375
685.390;28321.096;   -9.910;35821.895
685.966;28849.109;  -11.159;35085.871
686.542;31266.135;  -11.169;34198.230
687.118;33472.137;   -5.959;32847.707
687.693;33722.859;  -10.329;32794.027
688.269;33410.684;  -12.059;33072.367
688.844;31561.461;  -10.909;33141.664
689.420;29299.039;   -8.019;33965.742
689.995;27007.092;   -8.399;34655.523
690.571;25630.256;  -10.949;33576.742
691.146;26037.641;   -9.619;32657.219
691.722;25598.748;   -8.999;32526.979
692.297;25519.178;  -11.589;33014.617
692.872;27367.373;  -11.739;34012.254
693.448;26960.742;  -11.059;34237.434
694.023;26122.230;  -10.139;34142.672
694.598;28022.176;   -9.029;34132.031
695.173;28335.396;  -13.319;34205.250
695.748;27525.486;  -10.169;32882.488
696.323;27631.205;   -8.339;32864.906
696.898;27933.588;   -8.169;33170.004
697.473;27868.984;  -12.309;32432.984
698.048;27358.660;  -10.989;31649.303
698.623;27250.482;   -9.329;30778.141
699.198;29186.197;   -9.849;31140.119
699.773;30103.770;  -12.329;31764.299
700.348;28354.883;  -10.389;31780.816
700.922;28343.488;   -9.269;32046.375
701.497;29243.986;   -9.329;32603.574
702.072;29430.508;  -10.789;34799.871
702.646;28062.621;  -10.839;35793.172
703.221;25976.336;   -9.099;35201.590
703.795;28099.605;  -10.939;34764.527
704.370;28504.207;  -12.859;34307.367
704.944;28971.555;  -11.559;33509.887
705.519;29833.219;   -7.939;31388.584
706.093;31234.078;  -10.499;31340.104
706.668;31551.244;  -11.289;32630.281
707.242;30489.389;  -11.509;32728.779
707.816;28894.992;   -9.639;32947.238
708.390;27362.746;  -11.429;33277.855
708.965;27850.107;  -11.869;33834.336
709.539;27840.273;  -11.689;33709.273
710.113;28303.904;  -10.478;33044.313
710.687;27771.701;  -10.228;31953.992
711.261;26091.633;  -13.698;30505.949
711.835;25911.648;  -13.378;30262.369
712.409;26728.146;   -9.698;31254.447
712.983;28735.367;  -11.898;32754.986
713.557;29680.166;  -15.138;34018.824
714.131;29245.688;  -14.098;34579.625
714.704;28303.412;   -9.958;33890.262
715.278;26098.900;  -10.028;33531.102
715.852;25042.605;  -11.148;33601.660
716.425;25815.869;   -9.068;33515.117
716.999;26566.348;  -10.038;33185.555
717.573;27589.092;   -9.798;33905.996
718.146;28671.127;  -12.378;35199.293
718.720;28688.543;  -11.918;35060.551
719.293;28086.959;   -8.088;34973.230
719.867;30898.357;  -10.888;36394.449
720.440;30601.068;  -11.938;36663.008
721.013;28961.439;  -12.818;35102.426
721.587;27578.980;  -10.298;33985.266
722.160;26621.123;  -10.048;33524.965
722.733;25557.846;  -12.108;32987.043
723.306;25794.172;  -10.818;33066.301
723.880;28205.820;   -8.908;33399.500
724.453;30193.219;   -9.878;33468.297
725.026;29283.705;  -11.188;33816.637
725.599;26591.529;  -11.678;32797.996
726.172;26872.270;   -9.618;33187.434
726.745;27887.213;   -8.258;35136.613
727.318;29219.357;  -12.978;35751.730
727.891;29718.359;  -12.148;35890.430
728.463;29434.477;   -8.968;34822.090
729.036;28507.617;  -10.188;32895.086
729.609;28912.400;  -11.788;31823.225
730.182;25843.523;  -11.788;31445.283
730.754;23389.195;  -10.268;32373.223
731.327;23416.551;   -9.998;33676.820
731.900;23695.381;  -12.228;33417.000
732.472;25012.971;  -13.848;31978.498
733.045;26910.398;   -8.698;30368.777
733.617;26955.932;  -10.607;30574.215
734.190;26595.523;  -11.507;31280.975
734.762;23791.018;  -13.647;31674.412
735.334;22103.035;   -9.767;31247.291
735.907;22781.215;   -9.897;29876.211
736.479;22857.152;  -11.637;29808.488
737.051;22492.410;   -9.567;30233.547
737.623;23406.881;   -8.187;31469.086
738.195;24133.180;  -11.187;31784.225
738.768;25985.623;  -12.337;32120.523
739.340;26257.326;  -12.227;32094.342
739.912;25114.873;  -11.057;31312.680
740.484;23658.656;  -10.207;31946.238
741.056;22574.576;  -10.047;32984.059
741.628;24375.994;  -13.627;33897.715
742.199;26511.828;   -7.177;33213.016
742.771;24803.012;  -10.797;31369.113
743.343;22501.477;  -11.997;31865.473
743.915;21560.377;  -12.867;32388.631
744.487;21685.662;   -7.617;31079.568
745.058;21900.672;   -9.557;30570.107
745.630;22313.723;   -9.877;29970.127
746.201;23099.660;  -14.177;29186.766
746.773;23555.875;   -9.237;28805.723
747.344;23429.172;   -9.847;29591.223
747.916;22107.865;  -11.657;31412.201
748.487;22309.135;  -10.587;32194.898
749.059;23404.303;   -8.707;32533.719
749.630;23973.127;  -10.537;32158.518
750.201;23022.896;  -11.687;30855.395
750.773;21299.215;  -11.647;28622.555
751.344;21233.375;   -7.147;28405.732
751.915;22483.299;   -9.757;28461.551
752.486;22492.111;  -12.427;27842.850
753.057;20259.635;  -12.227;27845.008
753.628;19046.775;  -10.417;27728.107
754.199;20164.719;  -11.767;27381.086
754.770;21155.482;  -11.187;25882.203
755.341;21099.980;  -10.507;25886.184
755.912;21124.115;   -9.387;26050.861
756.483;20656.441;  -10.647;26798.779
757.054;18943.561;  -11.837;27048.238
757.625;17667.887;  -12.716;26294.838
758.195;17385.461;   -9.666;26142.076
758.766;17127.549;   -8.656;26392.234
759.337;17909.875;  -12.856;26334.594
759.907;19543.639;  -13.366;27579.652
760.478;20408.049;   -8.576;28352.770
761.048;19806.371;  -10.526;27325.088
761.619;19004.281;  -11.116;26460.428
762.189;19060.180;  -12.136;26029.826
762.760;20130.619;   -9.456;26430.145
763.330;21243.098;   -7.136;26670.902
763.900;20709.850;  -11.786;26603.021
764.471;18188.996;  -11.546;25542.740
765.041;16919.535;   -8.096;24358.459
765.611;16955.256;   -8.876;23991.297
766.181;17355.092;  -12.196;24470.236
766.751;18313.645;  -11.636;24845.975
767.321;18091.131;  -10.156;24533.633
767.891;16176.985;  -11.766;24916.492
768.461;15627.514;  -14.936;24776.771
769.031;16106.412;  -12.356;24757.988
769.601;17619.727;   -7.526;24181.088
770.171;17496.424;  -10.766;23670.387
770.741;16789.137;  -13.176;22960.045
771.311;16979.918;  -10.616;22917.523
771.880;17322.729;   -9.576;23562.941
772.450;16984.918;  -10.336;24216.500
773.020;16968.141;  -13.516;24140.398
773.589;16282.559;  -13.466;24414.857
774.159;15637.559;   -8.686;23858.717
774.729;15307.487;   -9.476;22942.135
775.298;14874.771;  -13.666;22324.033
775.867;14505.748;  -11.716;21140.313
776.437;14582.150;   -9.906;20838.092
777.006;14379.993;  -12.166;20599.510
777.576;14256.954;  -12.356;20508.809
778.145;14340.246;  -11.646;20732.947
778.714;14203.642;   -8.226;21062.465
779.283;13477.277;   -9.556;20949.664
779.853;13011.805;  -14.116;20508.623
780.422;13494.126;  -11.506;20649.082
780.991;13066.806;   -9.556;21527.520
781.560;11908.368;   -9.095;22632.658
782.129;11764.741;  -12.135;23048.277
782.698;11799.285;  -10.865;23438.555
783.267;11397.303;   -9.335;23267.734
783.836;11352.932;  -11.045;22415.133
784.404;12374.947;  -13.865;20443.152
784.973;12954.976;  -13.095;19699.150
785.542;12855.242;  -11.575;19763.828
786.111;12656.237;   -9.705;20341.408
786.679;12165.047;  -12.105;20207.967
787.248;11925.917;  -12.455;19516.465
787.817;11760.372;  -11.535;18900.363
788.385;11391.004;   -9.765;17879.121
788.954;10830.646;  -14.005;17658.301
789.522;10306.440;  -11.955;17788.879
790.090;10856.034;  -10.135;18118.277
790.659;11249.508;  -10.975;18338.736
791.227;10744.677;  -13.375;18508.615
791.795;11172.486;  -12.375;17898.254
792.364;11544.493;  -10.725;17295.133
792.932;11835.927;   -9.715;16822.051
793.500;11975.346;  -12.675;17040.148
794.068;12167.859;  -13.495;17179.787
794.636;12307.154;  -10.885;16664.246
795.204;11731.901;  -11.045;16524.545
795.772;11787.539;  -13.175;17274.564
796.340;11344.214;  -12.445;17891.002
796.908;11170.789;   -9.735;17648.561
797.476;11056.571;   -9.815;17064.080
798.044;10610.556;  -13.985;16672.777
798.612; 9808.087;  -13.115;17023.996
799.180; 9426.635;  -10.185;16561.615
799.747; 9366.636;   -9.055;15962.773
800.315; 9110.352;  -12.385;15296.992
800.883; 8781.890;  -15.035;14801.771
801.450; 8788.100;  -10.365;14534.430
802.018; 8852.485;   -9.855;14173.248
802.585; 8983.414;  -11.905;14029.547
803.153; 9011.394;  -11.585;13836.846
803.720; 8826.489;   -9.095;13567.324
804.287; 8397.407;   -9.135;13360.622
804.855; 7992.013;  -11.604;13681.981
805.422; 7884.183;  -11.794;13536.560
805.989; 7910.319;  -10.734;13355.958
806.556; 8089.463;  -10.444;13747.896
807.124; 8318.622;  -12.764;13987.376
807.691; 8273.696;  -12.964;14038.674
808.258; 8078.159;  -11.134;14120.152
808.825; 7772.771;   -9.854;13860.111
809.392; 7825.542;  -10.504;13268.790
809.959; 7350.996;  -13.054;12680.389
810.526; 6930.087;   -8.294;12427.308
811.093; 6997.123;   -8.394;12030.105
811.659; 7618.973;  -12.304;11653.664
812.226; 8104.103;  -13.944;11637.183
812.793; 7792.148;  -10.484;11611.521
813.360; 7170.166;  -10.144;11885.181
813.926; 6876.319;  -11.684;12770.539
814.493; 6677.033;  -13.644;12677.638
815.060; 6300.562;   -9.724;11974.336
815.626; 6300.159;   -9.854;11594.715
816.193; 6692.401;  -13.254;11579.474
816.759; 6707.823;  -13.204;11666.972
817.325; 6773.891;   -9.434;11325.530
817.892; 7142.605;  -10.134;11105.369
818.458; 7583.287;  -13.474;10843.928
819.024; 7216.076;  -11.854;10714.406
819.591; 6899.378;  -10.244;10469.165
820.157; 6670.274;  -10.704;10235.523
820.723; 6160.342;  -12.324;10847.563
821.289; 5849.803;   -9.444;11040.980
821.855; 5759.443;   -8.374;10357.100
822.421; 5741.025;  -10.234; 9978.918
822.987; 5749.870;  -13.294; 9754.177
823.553; 5447.411;  -10.884;10065.755
824.119; 5268.238;   -8.884;10036.294
824.685; 5358.074;   -6.784;10029.192
825.251; 5444.445;  -12.004;10199.230
825.816; 5410.220;  -11.474; 9820.189
826.382; 5195.820;   -9.174; 9297.248
826.948; 5405.626;   -9.214; 9381.347
827.513; 5796.616;  -10.774; 9450.726
828.079; 5607.689;  -11.924; 9472.444
828.645; 5031.778;  -10.543; 9292.643
829.210; 4939.702;  -10.533; 9065.341
829.776; 4920.405;  -10.753; 9132.620
830.341; 4807.836;  -10.173; 9092.878
830.906; 4994.897;  -10.743; 9078.557
831.472; 5329.779;  -11.113; 8534.535
832.037; 5070.745;  -10.603; 8677.874
832.602; 4533.230;  -13.323; 8628.692
833.167; 4288.604;  -10.823; 8879.031
833.733; 4233.378;  -10.113; 9189.790
834.298; 4366.577;  -13.583; 9052.608
834.863; 4433.129;  -12.703; 8895.087
835.428; 4408.136;  -10.523; 8824.266
835.993; 4262.914;   -6.963; 8845.385
836.558; 4102.639;  -10.763; 8888.563
837.123; 4225.798;   -9.903; 8966.582
837.688; 4458.526;   -9.913; 8617.860
838.253; 4702.833;  -10.283; 8590.699
838.817; 4909.938;  -12.963; 8443.797
839.382; 4819.279;  -14.243; 8799.356
839.947; 4502.392;  -10.733; 8810.595
840.511; 4205.315;   -9.383; 8796.394
841.076; 3838.469;  -12.563; 8347.231
841.641; 3884.650;  -12.953; 8224.330
842.205; 3978.213;   -7.043; 8223.349
842.770; 4083.816;   -8.163; 8622.107
843.334; 4249.832;  -12.503; 8410.386
843.898; 4183.710;  -11.693; 8337.465
844.463; 4189.135;  -10.203; 8506.283
845.027; 3961.089;   -9.533; 8280.962
845.591; 3782.740;  -13.443; 8231.141
846.156; 3769.264;  -13.143; 7969.179
846.720; 3657.945;   -9.433; 7768.278
847.284; 3537.765;  -11.033; 7630.957
847.848; 3412.603;  -10.403; 7472.395
848.412; 3324.559;  -11.553; 7437.394
848.976; 3371.676;   -8.393; 7674.592
849.540; 3303.622;   -8.713; 7836.011
850.104; 3409.076;  -12.463; 7913.669
850.668; 3747.947;  -12.973; 7694.508
851.232; 3836.525;  -10.793; 7756.887
851.796; 3676.517;  -10.662; 7926.545
852.359; 3393.285;  -13.082; 7827.844
852.923; 3236.821;  -12.192; 7641.163
853.487; 3066.193;  -11.912; 7342.501
854.050; 3026.741;  -10.892; 7042.820
854.614; 3164.091;  -13.992; 7151.338
855.177; 3287.661;  -11.732; 7105.077
855.741; 3313.112;   -8.962; 6989.675
856.304; 3195.775;   -9.442; 6596.634
856.868; 3148.086;  -14.192; 6356.272
857.431; 3236.682;  -12.702; 6468.571
857.995; 3348.661;   -9.942; 6373.210
858.558; 3353.935;   -9.112; 6324.448
859.121; 3086.919;  -12.932; 6408.327
859.684; 2965.881;  -13.442; 6347.886
860.247; 3077.350;  -10.632; 6321.264
860.810; 3079.480;  -11.272; 6301.903
861.374; 2830.992;   -9.832; 6607.881
861.937; 2587.191;  -11.762; 6408.200
862.500; 2586.502;   -9.722; 6572.639
863.062; 2760.279;  -10.512; 6387.297
863.625; 2924.842;  -11.232; 6190.836
864.188; 3077.367;  -14.112; 5807.254
864.751; 3133.659;  -11.302; 5682.413
865.314; 3023.136;  -10.112; 5547.492
865.876; 2812.795;  -12.182; 5500.150
866.439; 2793.886;  -10.722; 5415.909
867.002; 2741.879;   -9.252; 5501.567
867.564; 2547.312;   -9.572; 5413.946
868.127; 2336.730;  -13.142; 5160.325
868.689; 2236.680;  -12.902; 5133.183
869.252; 2141.842;   -9.732; 5252.382
869.814; 2051.278;   -9.432; 5297.141
870.377; 2060.747;  -11.552; 5390.919
870.939; 2122.995;   -9.052; 5599.898
871.501; 2181.850;  -10.982; 5248.336
872.063; 2185.246;  -12.292; 4854.235
872.626; 2143.848;  -14.912; 4817.074
873.188; 2170.875;  -13.112; 4987.732
873.750; 2140.820;  -13.442; 4868.651
874.312; 2039.195;   -9.402; 4779.330
874.874; 1952.533;  -11.062; 4866.348
875.436; 1866.359;  -13.931; 4718.887
875.998; 1856.474;   -9.561; 4660.005
876.560; 1882.065;  -11.321; 4462.964
877.122; 1825.791;  -12.221; 4145.042
877.683; 1739.464;  -12.191; 4056.481
878.245; 1672.429;  -12.101; 3950.740
878.807; 1713.919;   -8.971; 4058.958
879.369; 1736.172;  -12.071; 3954.677
879.930; 1641.151;  -14.621; 3941.495
880.492; 1578.777;  -10.311; 4067.014
881.053; 1542.467;  -10.901; 3859.633
881.615; 1441.769;  -14.411; 3776.071
882.176; 1345.404;  -13.761; 3734.750
882.738; 1294.952;   -9.181; 3678.489
883.299; 1270.471;  -11.791; 3405.407
883.860; 1274.181;  -13.121; 3351.106
884.422; 1273.253;  -11.211; 3394.044
884.983; 1230.184;  -10.091; 3166.443
885.544; 1154.503;   -8.461; 3189.802
886.105; 1077.089;  -12.361; 3160.360
886.666; 1009.731;  -14.141; 3093.059
887.227;  954.865;  -11.361; 2941.957
887.788;  895.449;  -11.401; 2974.836
888.349;  835.482;  -13.791; 2721.214
888.910;  833.276;  -13.191; 2696.493
889.471;  839.985;   -9.881; 2560.172
890.032;  823.834;   -9.881; 2558.190
890.593;  800.909;  -10.371; 2567.669
891.153;  773.806;  -13.301; 2460.307
891.714;  725.575;  -11.431; 2372.046
892.275;  688.626;  -11.291; 2309.505
892.835;  652.097;  -11.471; 2382.543
893.396;  601.235;  -11.541; 2295.502
893.956;  546.137;  -11.181; 2162.420
894.517;  511.409;  -11.741; 2125.439
895.077;  504.610;  -11.671; 2086.978
895.638;  503.700;  -11.311; 2126.316
896.198;  476.452;   -9.831; 1838.275
896.758;  434.261;   -8.421; 1892.813
897.319;  405.228;  -12.351; 1792.232
897.879;  388.962;  -13.511; 1762.751
898.439;  362.993;  -12.001; 1661.149
898.999;  341.247;  -10.180; 1781.468
899.559;  334.087;  -12.030; 1703.347
900.119;  328.846;  -15.710; 1537.525
900.679;  324.780;   -8.900; 1638.384
901.239;  310.661;   -8.340; 1527.902
901.799;  300.711;  -13.910; 1456.441
902.359;  294.156;  -13.460; 1357.140
902.919;  287.772;  -11.490; 1331.118
903.479;  276.051;  -12.110; 1317.257
904.038;  256.760;  -11.720; 1262.595
904.598;  239.701;  -13.610; 1152.034
905.158;  236.960;  -11.040; 1240.893
905.717;  231.442;  -10.900; 1233.691
906.277;  219.968;  -15.080; 1217.330
906.836;  210.622;  -13.380; 1222.408
907.396;  201.310;  -10.780; 1193.047
907.955;  195.069;   -8.500; 1182.526
908.515;  189.888;  -12.760; 1099.364
909.074;  182.793;  -11.900; 1092.863
909.633;  178.091;   -8.950; 1069.121
910.192;  173.366;   -8.770; 1196.460
910.752;  169.146;  -12.390; 1029.960
911.311;  164.849;  -13.680; 1009.780
911.870;  161.987;  -12.370;  971.460
912.429;  163.739;  -10.900; 1094.080
912.988;  162.387;  -11.690; 1081.060
913.547;  157.498;  -13.240;  940.380
914.106;  153.115;  -11.990;  999.420
914.665;  150.396;   -9.990;  984.020
915.224;  148.733;  -12.880; 1035.760
915.782;  148.300;  -12.350;  922.560
916.341;  149.034;   -9.110; 1049.840
916.900;  144.881;   -9.270;  925.260
917.458;  143.017;  -13.240;  884.220
918.017;  142.540;  -13.550;  942.600
918.576;  142.189;  -12.320;  904.440
919.134;  140.078;  -11.490;  837.980
919.693;  138.144;  -13.670;  893.060
920.251;  136.165;  -15.470;  876.500
920.809;  135.160;  -11.290;  839.580
921.368;  135.347;  -10.210;  885.360
921.926;  133.598;  -12.140;  842.940
922.484;  132.876;  -13.080;  903.360
923.042;  132.712;  -11.720;  880.340
923.601;  136.424;   -7.480;  998.680
924.159;  134.190;  -11.570;  935.560
924.717;  130.016;  -13.840;  841.080
925.275;  130.229;  -10.640;  903.240
925.833;  131.004;  -11.540;  779.320
926.391;  131.315;  -12.960;  938.380
926.949;  128.612;  -14.130;  857.680
927.506;  129.340;  -11.750;  903.500
928.064;  129.958;  -10.250;  877.580
928.622;  129.453;  -13.030;  880.100
929.180;  128.069;  -13.400;  814.180
929.737;  130.082;  -10.700;  808.540
930.295;  133.871;  -10.070;  928.480
930.853;  135.731;  -11.960;  849.100
931.410;  135.094;  -13.120;  821.120
931.968;  134.357;  -10.770;  940.660
932.525;  135.143;  -10.680;  909.380
933.082;  135.041;  -13.130;  811.440
933.640;  135.466;  -13.210;  925.900
934.197;  133.808;  -11.060;  886.360
934.754;  135.421;   -9.580;  897.780
935.312;  137.698;  -14.000;  863.340
935.869;  141.603;  -10.710; 1012.980
936.426;  141.943;   -9.860;  872.800
936.983;  143.823;   -9.710;  889.020
937.540;  142.606;  -13.990;  838.280
938.097;  140.829;  -14.040;  940.120
938.654;  141.226;  -10.310;  898.860
939.211;  143.976;  -10.560;  952.480
939.768;  147.453;  -13.900;  915.420
940.324;  150.258;  -14.760;  904.200
940.881;  150.782;  -10.370;  878.500
941.438;  152.796;   -8.260; 1021.200
941.995;  148.791;  -12.540;  992.560
942.551;  145.657;  -14.670;  875.620
943.108;  145.811;  -10.450;  937.920
943.664;  149.571;  -10.750;  869.340
944.221;  152.423;  -11.550; 1088.140
944.777;  149.611;  -14.770;  869.680
945.334;  149.110;  -12.820;  884.840
945.890;  151.680;  -10.130;  946.480
946.446;  151.770;  -13.470;  947.020
947.003;  153.489;  -12.120;  964.940
947.559;  155.903;   -9.980; 1063.040
948.115;  155.586;   -9.080; 1026.540
948.671;  153.875;  -10.830;  967.300
949.227;  151.156;  -12.440;  859.560
949.783;  148.402;  -12.910;  858.900
950.339;  150.183;  -10.270;  991.000
950.895;  150.446;  -13.630; 1023.840
951.451;  149.989;  -15.100;  925.280
952.007;  150.151;  -11.330;  998.540
952.563;  150.425;  -10.580;  937.780
953.118;  149.371;  -13.440;  904.940
953.674;  148.420;  -12.710;  935.780
954.230;  148.592;  -10.350;  949.640
954.785;  146.688;   -9.190;  936.640
955.341;  144.702;  -11.200;  998.160
955.897;  141.535;  -16.560;  834.660
956.452;  143.369;  -12.570;  953.840
957.008;  143.923;   -7.970; 1083.640
957.563;  140.492;  -11.940; 1009.540
958.118;  134.574;  -13.450;  877.700
958.674;  134.702;  -12.030;  946.780
959.229;  136.698;   -9.410; 1013.980
959.784;  134.404;  -12.000;  832.400
960.339;  133.999;  -14.780; 1001.280
960.894;  130.325;   -9.860;  963.760
961.449;  127.682;   -9.970;  859.960
962.004;  127.151;  -10.900; 1212.840
962.559;  122.173;  -13.150;  860.140
963.114;  119.259;  -13.740;  742.480
963.669;  119.484;   -9.820;  915.500
964.224;  118.643;  -13.890;  874.340
964.779;  116.268;  -12.600;  828.420
965.334;  117.207;  -10.950; 1017.860
965.888;  117.474;  -11.170;  875.360
966.443;  119.584;  -12.540;  972.380
966.998;  118.716;  -15.780;  819.460
967.552;  117.863;   -9.760;  908.380
968.107;  115.190;   -9.060;  868.300
968.661;  115.872;  -11.950;  922.440
969.216;  115.784;  -12.800;  856.280
969.770;  115.642;  -11.210;  917.200
970.324;  115.506;  -11.610;  923.140
970.879;  112.086;  -11.370;  947.180
971.433;  108.803;  -12.540;  952.720
971.987;  103.893;  -11.320;  895.340
972.541;  101.982;  -10.720;  917.100
973.095;  101.932;   -9.680; 1009.460
973.649;   99.677;  -11.440;  809.480
974.203;   98.597;  -11.210;  829.040
974.757;   98.985;  -10.240;  855.220
975.311;   98.702;  -13.720;  872.600
975.865;   97.304;  -13.770;  881.820
976.419;   96.003;  -11.690;  857.400
976.973;   96.316;   -9.510;  849.620
977.526;   98.622;  -12.620;  949.920
978.080;   97.196;  -12.010;  796.780
978.634;   98.783;  -10.170;  921.320
979.187;   95.832;   -9.020;  905.400
979.741;   93.702;   -9.820; 1018.380
980.294;   89.107;  -14.870;  789.160
980.848;   86.933;  -12.380;  717.220
981.401;   88.922;  -10.350;  816.540
981.955;   91.327;  -13.720;  844.300
982.508;   89.615;  -11.490;  746.340
983.061;   90.249;  -10.000;  915.260
983.615;   86.878;  -11.480;  798.800
984.168;   83.910;  -13.220;  770.080
984.721;   82.223;  -13.960;  880.760
985.274;   81.588;  -10.870;  867.500
985.827;   81.083;   -9.790;  834.220
986.380;   78.416;  -13.120;  721.340
986.933;   77.426;  -12.450;  864.800
987.486;   75.398;  -10.210;  861.920
988.039;   74.952;   -8.430;  863.100
988.591;   73.845;  -10.520;  893.260
989.144;   70.369;  -14.860;  737.260
989.697;   69.185;  -13.080;  758.740
990.250;   70.714;  -10.150;  858.100
990.802;   69.910;  -13.430;  755.860
991.355;   70.517;  -12.750;  974.880
991.907;   68.626;  -12.040;  864.320
992.460;   66.735;  -11.330;  753.760
993.012;   65.412;  -13.610;  749.540
993.565;   63.941;  -13.460;  711.360
994.117;   66.035;   -9.360;  950.780
994.669;   62.621;  -11.300;  701.320
995.221;   60.722;  -13.540;  791.920
995.774;   58.852;  -13.430;  787.580
996.326;   57.188;  -12.520;  740.220
996.878;   57.171;  -10.950;  838.420
997.430;   55.779;  -14.300;  699.860
997.982;   54.016;  -13.760;  750.140
998.534;   53.836;  -11.530;  739.060
999.086;   52.379;  -10.310;  738.220
999.638;   51.612;  -12.530;  661.380
1000.190;   50.359;  -11.840;  699.320
1000.741;   50.184;  -10.260;  742.700
1001.293;   50.752;   -8.860;  686.020
1001.845;   48.684;  -13.700;  676.640
1002.396;   48.498;  -12.100;  743.400
1002.948;   47.750;  -12.760;  737.400
1003.500;   46.329;  -10.380;  723.780
1004.051;   47.888;  -11.900;  907.580
1004.603;   45.646;  -12.250;  791.820
1005.154;   41.118;  -13.210;  608.980
1005.705;   41.407;  -10.950;  723.960
1006.257;   41.335;  -13.880;  707.220
1006.808;   39.594;  -12.840;  685.460
1007.359;   39.738;  -10.570;  763.240
1007.910;   39.564;   -9.620;  646.640
1008.461;   38.682;  -13.630;  732.940
1009.013;   37.688;  -17.200;  588.340
1009.564;   39.116;  -10.200;  793.520
1010.115;   36.903;  -12.570;  597.040
1010.665;   36.214;  -15.150;  602.160
1011.216;   35.995;  -14.480;  667.920
1011.767;   35.305;  -11.340;  697.920
1012.318;   36.114;   -9.780;  736.980
1012.869;   34.932;  -12.380;  679.000
1013.419;   33.401;  -15.560;  603.120
1013.970;   33.808;  -11.010;  666.640
1014.521;   34.073;  -11.610;  620.620
1015.071;   34.621;  -13.450;  670.380
1015.622;   34.596;  -13.870;  635.460
1016.172;   32.871;  -11.610;  596.820
1016.723;   32.499;  -12.120;  614.380
1017.273;   32.684;  -13.620;  604.160
1017.823;   31.960;  -14.140;  650.340
1018.374;   31.474;  -12.800;  611.760
1018.924;   32.059;  -12.340;  716.880
1019.474;   32.320;  -11.410;  718.880
1020.024;   30.986;  -14.770;  657.580
1020.574;   31.573;   -9.780;  726.160
1021.124;   32.549;   -8.560;  673.580
1021.674;   30.979;  -15.190;  559.120
1022.224;   31.356;  -13.530;  708.940
1022.774;   31.021;  -13.280;  668.820
1023.324;   32.196;  -10.690;  753.520
1023.874;   33.361;  -10.240;  875.760
1024.423;   29.347;  -12.540;  613.700
1024.973;   29.818;  -10.010;  610.760
1025.523;   29.463;  -10.550;  620.960
1026.072;   29.015;  -13.560;  606.420
1026.622;   28.926;  -15.120;  675.740
1027.172;   29.993;  -11.260;  715.660
1027.721;   28.537;  -11.410;  601.220
1028.270;   29.095;  -13.530;  663.400
1028.820;   28.281;  -13.680;  638.080
1029.369;   27.407;  -13.520;  612.700
1029.918;   28.522;  -10.980;  649.840
1030.468;   28.176;  -13.530;  564.780
1031.017;   28.424;  -13.170;  634.800
1031.566;   26.121;  -12.200;  608.900
1032.115;   27.439;   -9.960;  694.500
1032.664;   27.019;  -13.210;  596.480
1033.213;   27.164;  -12.500;  735.420
1033.762;   26.976;  -11.910;  635.620
1034.311;   27.108;   -9.640;  677.220
1034.860;   27.599;  -13.310;  691.000
1035.408;   26.084;  -11.830;  722.720
1035.957;   26.496;  -12.000;  719.540
1036.506;   24.995;  -11.690;  530.800
1037.055;   28.263;  -10.990;  844.320
1037.603;   25.639;  -15.120;  664.000
1038.152;   23.611;  -12.450;  534.760
1038.700;   25.273;  -10.560;  585.740
1039.249;   24.543;  -11.080;  681.220
1039.797;   24.135;  -12.540;  633.360
1040.345;   25.020;  -11.920;  705.420
1040.894;   24.765;  -11.410;  625.300
1041.442;   24.733;  -14.320;  632.200
1041.990;   22.860;  -16.240;  559.160
1042.538;   23.012;  -11.680;  536.180
1043.087;   23.662;  -10.760;  570.860
1043.635;   24.370;  -11.850;  670.500
1044.183;   22.738;  -15.480;  586.400
1044.731;   22.140;  -11.770;  576.000
1045.279;   22.898;  -13.090;  674.920
1045.827;   25.260;  -12.440;  892.400
1046.374;   21.720;  -13.840;  515.420
1046.922;   21.154;  -13.220;  590.580
1047.470;   23.685;  -10.230;  691.300
1048.018;   22.701;  -14.590;  647.960
1048.565;   24.091;  -12.050;  708.600
1049.113;   20.942;  -11.650;  557.000
1049.660;   21.272;  -10.510;  629.660
1050.208;   21.803;  -13.310;  675.640
1050.755;   20.671;  -15.900;  606.580
1051.303;   20.951;  -11.430;  686.820
1051.850;   21.287;   -8.480;  635.120
1052.397;   18.814;  -15.010;  473.960
1052.945;   19.997;  -13.960;  617.760
1053.492;   21.109;  -13.150;  741.840
1054.039;   21.375;   -9.630;  720.180
1054.586;   20.636;  -13.680;  557.240
1055.133;   20.150;  -14.570;  693.140
1055.680;   20.593;  -13.820;  646.620
1056.227;   19.495;  -11.730;  542.780
1056.774;   21.599;  -12.480;  794.980
1057.321;   19.185;  -13.930;  523.260
1057.868;   18.695;  -11.690;  651.320
1058.415;   19.625;   -9.520;  651.980
1058.961;   20.171;  -13.160;  678.940
1059.508;   18.730;  -12.920;  643.820
1060.055;   18.822;  -11.920;  581.780
1060.601;   19.656;  -11.500;  624.300
1061.148;   19.422;  -14.330;  616.820
1061.694;   17.970;  -16.870;  592.580
1062.241;   17.645;  -10.330;  596.320
1062.787;   18.734;  -10.620;  663.140
1063.334;   20.184;  -10.110;  808.560
1063.880;   17.863;  -13.400;  668.360
1064.426;   17.812;  -10.680;  706.820
1064.972;   18.023;   -9.920;  601.340
1065.518;   17.305;  -10.980;  566.640
1066.065;   17.372;  -14.890;  624.460
1066.611;   16.370;  -12.870;  598.800
1067.157;   18.188;  -12.950;  641.860
1067.703;   17.919;  -13.540;  668.480
1068.249;   17.466;  -13.540;  605.220
1068.794;   16.464;  -12.600;  626.880
1069.340;   16.055;  -10.620;  578.960
1069.886;   16.141;  -12.830;  590.700
1070.432;   15.245;  -14.870;  541.720
1070.977;   15.461;  -11.980;  601.080
1071.523;   16.004;   -8.200;  573.060
1072.068;   16.584;  -12.330;  582.000
1072.614;   15.370;  -16.370;  527.760
1073.160;   15.457;  -11.100;  687.040
1073.705;   15.811;  -10.480;  572.520
1074.250;   15.292;  -14.520;  559.900
1074.796;   15.503;  -11.460;  655.160
1075.341;   14.871;  -11.950;  664.100
1075.886;   15.237;  -11.460;  594.240
1076.431;   15.507;  -13.770;  649.880
1076.976;   14.636;  -12.680;  639.220
1077.521;   14.067;  -13.170;  583.080
1078.067;   14.085;  -10.860;  579.400
1078.612;   15.178;  -13.920;  661.620
1079.156;   13.964;  -13.880;  601.540
1079.701;   14.824;  -13.120;  693.260
1080.246;   15.097;   -9.940;  696.300
1080.791;   14.347;  -14.740;  625.020
1081.336;   14.399;  -13.750;  659.320
1081.880;   13.594;  -13.400;  649.680
1082.425;   13.358;  -12.220;  573.480
1082.970;   15.125;  -11.610;  717.040
1083.514;   12.920;  -13.580;  597.000
1084.059;   12.538;  -12.810;  586.720
1084.603;   13.502;  -12.320;  565.840
1085.147;   13.592;  -13.190;  645.220
1085.692;   13.354;  -12.480;  716.800
1086.236;   11.773;  -13.020;  503.140
1086.780;   13.753;   -9.190;  751.440
1087.325;   13.657;  -12.480;  654.620
1087.869;   12.770;  -12.450;  610.700
1088.413;   13.009;  -12.240;  705.040
1088.957;   11.200;   -9.020;  543.400
1089.501;   13.401;  -10.320;  766.640
1090.045;   12.361;  -12.720;  726.480
1090.589;    9.919;  -13.690;  569.920
1091.133;   12.556;  -10.020;  673.340
1091.676;   12.334;  -12.330;  591.940
1092.220;   11.268;  -14.970;  600.920
1092.764;   12.600;  -12.430;  706.960
1093.307;   12.332;   -9.800;  673.780
1093.851;   11.108;  -14.970;  556.540
1094.395;   11.118;  -15.310;  683.140
1094.938;   10.653;  -10.370;  632.520
1095.482;   10.579;  -11.050;  559.800
1096.025;   11.565;  -11.840;  710.880
1096.568;   12.104;  -12.840;  779.280
1097.112;    9.051;  -14.700;  508.180
1097.655;   11.385;   -8.720;  603.000
1098.198;   10.202;  -13.610;  600.180
1098.741;    9.524;  -13.350;  612.860
1099.285;   10.398;  -11.230;  657.300
1099.828;    8.742;  -11.840;  439.400
1100.371;   10.181;  -10.840;  608.160
1100.914;    9.926;  -14.190;  682.660
1101.457;    9.598;  -11.240;  679.900
1101.999;    8.939;  -11.270;  584.680
1102.542;   10.010;  -11.480;  641.440
1103.085;    8.626;  -11.750;  658.500
1103.628;    9.482;  -11.400;  762.060
1104.170;    9.190;  -10.490;  588.280
1104.713;   10.235;  -10.600;  646.700
1105.256;    8.631;  -14.360;  557.440
1105.798;    7.789;  -13.210;  499.980
1106.341;    9.469;  -10.270;  728.900
1106.883;    8.362;  -12.200;  521.340
1107.425;    8.366;  -13.110;  668.180
1107.968;    7.742;  -12.840;  612.380
1108.510;    9.044;   -6.480;  684.960
1109.052;    8.047;  -13.940;  612.620
1109.594;    7.523;  -13.690;  554.440
1110.136;    8.635;  -11.880;  643.220
1110.679;    8.260;   -9.500;  633.080
1111.221;    8.138;  -14.160;  604.460
1111.763;    7.059;  -13.980;  559.220
1112.304;    6.656;  -13.880;  547.140
1112.846;    8.105;  -12.210;  666.240
1113.388;   10.373;  -11.390;  942.180
1113.930;    8.187;  -14.540;  694.200
1114.472;    6.643;  -12.640;  606.540
1115.013;    5.555;  -11.620;  551.280
1115.555;    6.982;  -13.640;  587.100
1116.097;    5.635;  -15.380;  579.480
1116.638;    6.540;  -12.640;  684.600
1117.180;    7.436;   -9.850;  667.740
1117.721;    6.780;  -13.690;  568.580
1118.262;    7.153;  -12.680;  677.960
1118.804;    6.986;  -12.530;  637.340
1119.345;    5.724;  -11.690;  578.400
1119.886;    7.032;  -13.380;  704.040
1120.427;    5.133;  -14.070;  589.020
1120.969;    4.852;  -13.500;  597.920
1121.510;    5.094;  -11.480;  563.060
1122.051;    6.236;  -12.830;  723.580
1122.592;    4.692;  -14.290;  655.420
1123.133;    4.098;  -12.400;  547.940
1123.673;    6.623;  -10.130;  706.480
1124.214;    5.855;  -12.930;  612.460
1124.755;    5.896;  -14.380;  639.460
1125.296;    5.227;  -14.000;  627.320
1125.836;    6.658;  -10.070;  691.500
1126.377;    4.773;  -12.640;  599.660
1126.918;    4.947;  -12.960;  614.980
1127.458;    3.708;  -13.350;  622.220
1127.999;    5.337;  -10.750;  656.980
1128.539;    5.280;  -12.350;  694.240
1129.079;    4.051;  -14.860;  632.720
1129.620;    3.588;  -13.840;  558.100
1130.160;    3.934;  -12.330;  539.480
1130.700;    5.157;  -14.530;  640.840
1131.240;    5.043;  -12.530;  643.700
1131.781;    3.406;  -14.450;  619.680
1132.321;    3.834;   -9.790;  599.120
1132.861;    3.495;  -14.860;  564.200
1133.401;    2.983;  -14.290;  593.940
1133.941;    3.834;  -11.750;  626.280
1134.481;    3.853;   -9.920;  597.580
1135.020;    3.585;  -12.290;  609.160
1135.560;    4.138;  -11.650;  674.940
1136.100;    2.938;  -16.270;  501.160
1136.640;    2.985;  -10.890;  510.480
1137.179;    3.063;  -14.180;  537.960
1137.719;    3.102;  -16.250;  605.400
1138.258;    2.816;  -14.230;  587.360
1138.798;    3.131;   -9.090;  663.780
1139.337;    2.381;  -15.130;  482.840
1139.877;    2.987;  -13.680;  642.360
1140.416;    4.892;  -11.320;  878.060
1140.955;    2.066;  -10.860;  535.380
1141.494;    3.022;  -12.920;  669.280
1142.034;    2.065;  -13.930;  583.520
1142.573;    3.047;  -11.440;  646.280
1143.112;    2.442;  -12.000;  553.480
1143.651;    3.187;  -13.670;  536.480
1144.190;    3.274;  -12.730;  691.640
1144.729;    2.013;  -14.560;  607.420
1145.267;    2.164;  -11.830;  584.900
1145.806;    3.365;  -12.230;  637.040
1146.345;    1.849;  -14.130;  635.020
1146.884;    2.033;  -11.590;  622.500
1147.422;    1.525;  -12.550;  533.060
1147.961;    3.082;  -11.180;  708.460
1148.500;    2.575;  -11.510;  669.720
1149.038;    2.430;  -11.640;  632.500
1149.577;    1.891;  -10.130;  698.640
1150.115;    0.014;  -13.970;  452.280
1150.653;    1.259;  -14.520;  607.340
1151.192;    1.178;  -12.810;  552.920
1151.730;    1.494;   -9.100;  652.560
1152.268;    0.982;  -12.220;  589.520
1152.806;    1.364;  -14.140;  571.180
1153.344;    0.218;  -12.350;  577.640
1153.882;    0.792;   -8.980;  600.060
1154.421;    0.064;  -15.190;  470.620
1154.958;    0.481;  -15.210;  595.240
1155.496;    1.699;  -12.850;  645.280
1156.034;    1.196;   -9.940;  721.880
1156.572;    2.136;  -13.570;  667.060
1157.110;   -1.316;  -14.590;  473.940
1157.647;    0.676;  -13.030;  676.960
1158.185;   -0.029;  -12.140;  564.320
1158.723;   -0.132;  -14.390;  509.200
1159.260;    0.097;  -14.090;  701.700
1159.798;    0.732;  -11.920;  658.160
1160.335;   -0.133;  -11.110;  631.820

