
Integration time [ms]:   3.882
Averaging Nr. [scans]: 1000
Smoothing Nr. [pixels]: 0
Data measured with spectrometer [name]: 7414430SP
Wave   ;Sample   ;Dark     ;Reference
[nm]   ;[counts] ;[counts] ;[counts] 

288.544;  140.593;    7.153;  793.890
289.143;  143.123;    8.402;  681.602
289.742;  144.370;    7.062;  828.814
290.341;  131.438;    0.191;  789.841
290.940;  122.682;    0.321;  730.702
291.538;  123.924;    3.811;  881.108
292.137;  121.533;   -3.438;  792.581
292.736;  124.424;   -2.809;  975.101
293.335;  121.760;   -5.239;  735.086
293.934;  122.775;   -4.939;  781.677
294.532;  122.728;   -2.199; 1031.958
295.131;  108.856;   -6.831;  834.394
295.730;  108.226;   -6.620;  809.588
296.328;  106.161;   -6.471;  783.442
296.927;  106.639;   -6.571;  779.652
297.525;  106.908;   -7.391;  781.236
298.124;   98.027;   -9.402;  654.009
298.722;  101.934;   -5.781;  761.933
299.321;  101.254;   -6.351;  708.597
299.919;   98.450;   -8.661;  751.918
300.518;   94.465;  -11.922;  689.338
301.116;   95.862;   -6.941;  691.381
301.715;   96.045;   -5.471;  730.222
302.313;   94.750;   -8.361;  704.943
302.911;   91.607;   -9.082;  733.830
303.509;   96.911;   -4.571;  925.627
304.108;   93.283;   -7.111;  760.383
304.706;   93.055;   -7.681;  801.664
305.304;   88.647;   -9.162;  796.707
305.902;   94.020;   -6.761;  784.484
306.500;   88.537;   -6.921;  728.200
307.098;   87.008;   -6.491;  746.560
307.696;   85.102;   -6.941;  780.432
308.294;   85.970;   -6.301;  731.359
308.892;   88.209;   -4.771;  759.769
309.490;   84.108;   -5.141;  712.161
310.088;   82.865;   -2.912;  788.444
310.686;   87.690;   -0.421;  821.749
311.284;   83.046;   -3.461;  766.040
311.882;   80.679;   -6.282;  731.225
312.480;   77.725;   -3.632;  697.167
313.078;   79.475;   -2.112;  808.331
313.675;   79.936;   -1.931;  691.600
314.273;   75.128;   -1.442;  797.837
314.871;   74.823;   -3.002;  589.829
315.468;   72.328;   -2.252;  652.090
316.066;   76.013;   -1.091;  694.427
316.664;   68.086;   -4.512;  656.351
317.261;   73.257;   -0.062;  910.128
317.859;   70.080;   -0.952;  768.735
318.456;   68.836;    0.719;  830.096
319.054;   64.989;   -4.002;  787.828
319.651;   64.709;   -4.972;  759.928
320.249;   64.077;   -1.162;  810.188
320.846;   62.188;   -2.651;  714.286
321.443;   59.389;   -3.832;  832.135
322.041;   56.548;   -4.312;  812.315
322.638;   54.060;   -3.872;  701.456
323.235;   56.631;   -4.361;  665.683
323.833;   53.238;   -4.821;  740.354
324.430;   49.102;   -6.971;  615.900
325.027;   50.970;   -4.361;  876.855
325.624;   50.650;   -5.581;  644.532
326.221;   47.662;   -6.601;  689.717
326.818;   46.791;   -7.301;  818.332
327.415;   49.613;   -6.180;  748.828
328.012;   49.461;   -5.920;  690.585
328.609;   47.227;   -8.390;  731.389
329.206;   45.911;   -6.121;  778.621
329.803;   45.620;   -5.241;  737.841
330.400;   48.386;   -7.420;  704.260
330.997;   48.535;   -5.931;  817.147
331.594;   47.417;   -5.641;  788.185
332.191;   52.711;   -6.451;  728.722
332.787;   55.599;   -4.651;  844.463
333.384;   52.179;   -5.472;  763.093
333.981;   50.882;   -6.303;  815.687
334.578;   54.028;   -5.892;  708.378
335.174;   55.938;   -4.102;  731.469
335.771;   53.758;   -8.053;  836.456
336.367;   51.783;   -7.363;  710.631
336.964;   57.111;   -6.243;  793.266
337.561;   55.252;   -5.653;  731.112
338.157;   50.115;   -7.074;  911.916
338.754;   48.127;   -5.474;  796.589
339.350;   46.489;   -5.624;  722.493
339.946;   49.137;   -5.054;  773.135
340.543;   42.030;   -6.695;  846.136
341.139;   36.473;   -6.215;  720.836
341.735;   34.563;   -5.746;  772.593
342.332;   32.877;   -7.335;  691.472
342.928;   33.440;   -4.835;  795.394
343.524;   27.460;   -4.586;  761.684
344.120;   25.886;   -3.946;  738.562
344.716;   28.840;   -4.835;  723.717
345.313;   26.059;   -5.325;  795.342
345.909;   20.930;   -6.535;  627.336
346.505;   22.978;   -4.725;  740.247
347.101;   22.943;   -4.164;  827.864
347.697;   23.503;   -5.274;  785.398
348.293;   18.433;   -7.145;  627.244
348.889;   18.934;   -4.364;  745.914
349.485;   19.114;   -6.404;  688.205
350.081;   19.143;   -7.534;  772.592
350.676;   15.213;   -6.995;  691.606
351.272;   20.055;   -3.544;  809.530
351.868;   18.746;   -5.324;  780.497
352.464;   16.579;   -7.204;  723.932
353.059;   12.341;   -6.894;  646.017
353.655;   16.074;   -3.754;  777.063
354.251;   17.418;   -6.143;  759.845
354.846;   11.345;   -9.464;  740.646
355.442;    9.849;   -7.555;  753.071
356.038;   11.753;   -5.474;  751.708
356.633;   11.581;   -5.914;  728.594
357.229;    9.658;   -8.944;  724.757
357.824;    8.211;   -6.794;  703.600
358.420;    6.963;   -5.754;  679.726
359.015;    8.071;   -5.664;  695.357
359.610;    8.704;   -8.004;  763.920
360.206;    3.054;   -8.815;  603.240
360.801;    6.190;   -8.834;  646.503
361.396;    8.198;   -6.274;  725.975
361.992;    3.247;   -8.574;  668.220
362.587;   -0.136;   -9.265;  670.160
363.182;    3.015;   -5.484;  689.631
363.777;    4.305;   -5.164;  738.242
364.372;    3.426;   -6.954;  737.314
364.967;    0.144;   -7.065;  680.744
365.563;    4.857;   -5.684;  815.567
366.158;    1.635;   -6.484;  685.161
366.753;    1.028;   -8.004;  649.263
367.348;    0.928;  -10.114;  746.056
367.942;    0.064;   -7.764;  697.298
368.537;   -0.433;   -4.554;  754.245
369.132;   -0.767;   -7.664;  703.428
369.727;   -4.157;   -8.905;  638.079
370.322;   -2.663;   -4.945;  580.186
370.917;   -2.485;   -7.095;  710.646
371.511;   -0.046;   -6.574;  861.834
372.106;   -3.735;   -6.515;  776.964
372.701;   -7.332;   -8.225;  585.988
373.296;   -0.841;   -4.494;  863.135
373.890;   -5.726;   -7.965;  647.840
374.485;   -8.371;   -9.745;  691.199
375.079;   -4.347;   -5.554;  738.685
375.674;   -2.696;   -4.724;  812.970
376.268;   -7.940;   -8.365;  691.759
376.863;  -12.376;   -8.126;  580.327
377.457;   -6.148;   -6.045;  662.490
378.052;   -7.969;   -6.835;  764.884
378.646;   -9.068;   -9.375;  741.167
379.240;   -9.775;   -6.185;  721.176
379.835;   -7.866;   -6.135;  636.978
380.429;  -10.462;   -8.365;  562.557
381.023;   -9.688;   -7.935;  779.205
381.617;  -13.369;   -8.325;  680.106
382.212;   -9.594;   -7.405;  685.303
382.806;   -8.397;   -4.155;  760.690
383.400;  -11.847;   -8.945;  672.281
383.994;  -13.833;   -8.365;  664.870
384.588;   -8.639;   -7.824;  697.701
385.182;   -7.472;   -7.984;  726.624
385.776;   -9.660;  -10.404;  706.875
386.370;  -13.029;   -7.335;  681.968
386.964;  -11.545;   -7.485;  684.155
387.558;  -10.120;   -8.174;  598.360
388.152;  -12.916;  -10.415;  681.959
388.745;  -10.458;   -9.595;  814.707
389.339;   -9.443;   -6.454;  747.642
389.933;   -9.109;   -5.804;  695.370
390.527;   -9.359;   -6.854;  859.029
391.120;  -15.685;   -7.665;  595.318
391.714;  -12.496;   -7.245;  711.633
392.308;   -8.980;   -4.514;  780.253
392.901;  -13.977;   -7.935;  642.460
393.495;  -15.029;   -8.585;  595.414
394.089;  -12.701;   -5.245;  760.452
394.682;  -13.555;   -6.305;  697.188
395.275;  -13.508;   -9.335;  719.927
395.869;  -16.296;   -7.375;  667.314
396.462;  -14.377;   -7.055;  616.609
397.056;   -9.600;   -5.434;  776.621
397.649;  -14.871;   -9.525;  731.575
398.242;  -11.271;   -7.574;  712.645
398.836;  -10.432;   -5.134;  766.408
399.429;  -11.997;   -6.544;  631.041
400.022;  -15.720;   -9.215;  665.902
400.615;  -13.035;   -8.105;  805.609
401.208;  -10.319;   -7.614;  691.451
401.802;  -13.844;   -8.085;  699.329
402.395;  -14.879;   -9.575;  683.502
402.988;  -15.319;   -9.285;  696.627
403.581;  -11.508;   -7.514;  646.878
404.174;   -9.953;   -6.404;  686.568
404.767;  -12.676;   -8.775;  638.583
405.360;  -15.634;   -7.415;  621.445
405.953;   -9.856;   -5.624;  759.034
406.545;   -9.134;   -6.474;  725.342
407.138;  -13.744;   -8.445;  618.350
407.731;  -12.578;  -10.044;  613.303
408.324;   -7.949;   -8.484;  660.554
408.917;   -8.956;   -7.624;  681.864
409.509;  -11.009;   -8.304;  740.396
410.102;  -13.131;   -8.495;  643.948
410.695;   -6.869;   -7.824;  665.758
411.287;   -7.439;   -7.754;  599.821
411.880;   -8.864;   -9.294;  585.421
412.472;  -11.728;   -8.814;  613.092
413.065;   -9.204;   -6.674;  629.408
413.657;   -7.055;   -9.664;  576.678
414.250;   -6.994;  -10.264;  646.681
414.842;   -8.753;   -8.664;  676.353
415.434;   -6.465;   -8.584;  570.463
416.027;   -2.575;   -9.423;  652.196
416.619;   -3.983;  -10.764;  713.400
417.211;   -5.007;   -7.404;  599.352
417.804;   -1.115;   -7.383;  628.499
418.396;   -5.320;   -8.334;  607.643
418.988;   -2.754;   -9.633;  659.238
419.580;   -6.375;  -10.554;  568.276
420.172;   -4.532;   -8.683;  536.196
420.764;   -0.017;   -9.713;  672.482
421.356;   -1.693;  -11.303;  636.898
421.948;   -1.959;   -8.453;  677.661
422.540;    2.998;   -5.793;  680.027
423.132;    2.373;   -7.162;  600.641
423.724;   -1.408;   -7.933;  561.267
424.316;    1.520;   -9.083;  621.345
424.908;    4.597;   -8.392;  591.517
425.500;    5.511;   -8.062;  647.978
426.092;    5.456;   -9.692;  648.268
426.683;    4.202;   -8.223;  684.836
427.275;    7.866;   -8.602;  641.471
427.867;    9.045;   -8.382;  668.948
428.458;    9.770;  -10.472;  732.344
429.050;    8.040;   -9.112;  680.749
429.642;   10.555;   -7.752;  743.124
430.233;   10.365;   -8.832;  569.356
430.825;   11.840;   -8.292;  724.809
431.416;   10.386;   -7.522;  698.241
432.008;   12.905;   -9.262;  651.723
432.599;   15.184;   -6.441;  656.073
433.190;   10.968;   -9.222;  637.670
433.782;   10.103;  -11.832;  590.395
434.373;   18.049;   -7.121;  884.765
434.964;   16.327;   -9.141;  602.920
435.556;   14.419;   -9.332;  634.537
436.147;   17.113;   -8.892;  758.490
436.738;   16.456;   -8.151;  701.099
437.329;   22.213;   -8.281;  721.723
437.920;   15.133;   -9.062;  666.688
438.511;   14.641;  -11.182;  564.526
439.103;   21.848;   -7.461;  623.998
439.694;   23.911;   -8.541;  681.583
440.285;   24.821;   -7.351;  764.432
440.876;   22.863;   -8.201;  845.738
441.466;   21.535;  -10.381;  575.162
442.057;   27.506;   -7.620;  665.814
442.648;   25.625;   -8.461;  746.255
443.239;   24.419;   -8.991;  620.477
443.830;   28.858;   -7.910;  704.958
444.421;   31.266;   -7.340;  655.474
445.011;   27.794;   -8.981;  693.619
445.602;   27.638;   -9.341;  743.126
446.193;   28.986;  -11.390;  488.117
446.783;   33.722;  -11.240;  640.397
447.374;   29.114;   -8.471;  692.759
447.964;   29.646;   -8.471;  713.770
448.555;   38.728;   -6.590;  822.742
449.145;   34.915;   -8.200;  662.853
449.736;   34.991;  -11.040;  803.179
450.326;   35.524;   -9.640;  713.626
450.917;   40.159;   -9.480;  675.324
451.507;   39.226;   -8.020;  600.661
452.097;   40.280;  -10.210;  746.267
452.688;   41.583;   -7.810;  742.160
453.278;   41.443;   -9.360;  566.840
453.868;   45.713;   -8.669;  793.550
454.458;   42.927;  -10.950;  651.141
455.048;   44.341;  -10.200;  711.783
455.639;   44.932;   -9.369;  567.096
456.229;   48.954;   -7.739;  710.694
456.819;   50.178;   -8.939;  751.158
457.409;   51.216;   -7.169;  773.993
457.999;   53.811;   -7.779;  737.505
458.589;   53.817;   -7.039;  686.606
459.179;   53.395;   -9.019;  717.658
459.769;   51.876;   -8.909;  627.099
460.358;   56.789;   -8.659;  797.262
460.948;   56.326;   -8.209;  689.503
461.538;   57.734;   -9.879;  660.677
462.128;   56.951;   -9.379;  664.934
462.717;   63.156;   -9.158;  710.326
463.307;   65.884;   -8.638;  705.846
463.897;   61.366;   -8.869;  656.942
464.486;   61.146;   -7.409;  837.128
465.076;   65.209;   -9.618;  733.776
465.666;   68.713;   -7.578;  652.900
466.255;   66.167;   -9.369;  785.651
466.845;   65.297;  -10.049;  666.749
467.434;   69.702;   -8.168;  725.873
468.023;   70.142;   -9.188;  658.357
468.613;   67.039;   -9.849;  713.946
469.202;   72.320;  -12.958;  646.507
469.791;   75.898;   -9.488;  737.811
470.381;   77.534;   -6.468;  742.813
470.970;   77.600;  -10.248;  711.099
471.559;   77.651;  -11.428;  733.291
472.148;   80.459;   -9.738;  675.737
472.738;   83.853;   -7.877;  765.466
473.327;   82.430;  -11.868;  637.529
473.916;   82.745;   -8.578;  737.446
474.505;   86.515;  -11.137;  751.703
475.094;   89.655;   -9.407;  806.570
475.683;   89.088;   -9.977;  797.699
476.272;   89.557;  -10.807;  730.632
476.861;   92.803;  -11.017;  706.754
477.449;   99.447;  -10.316;  728.487
478.038;   93.559;  -10.187;  692.513
478.627;   95.159;  -12.458;  714.852
479.216;  101.724;  -10.127;  769.441
479.805;  104.934;   -6.256;  783.375
480.393;  103.659;   -8.737; 1008.945
480.982;  103.627;   -9.087;  874.501
481.571;  110.057;   -7.806;  858.333
482.159;  110.320;  -10.596;  705.386
482.748;  109.755;  -11.507;  821.385
483.336;  114.295;   -8.366;  858.209
483.925;  114.343;   -7.497;  774.373
484.513;  121.045;   -8.326;  758.962
485.102;  118.215;  -10.277;  810.965
485.690;  127.806;   -8.256; 1011.050
486.278;  128.986;   -7.146;  979.329
486.867;  128.937;   -7.986;  809.662
487.455;  131.298;   -9.926;  898.229
488.043;  133.728;  -10.026;  748.361
488.631;  141.661;   -7.226; 1005.079
489.220;  144.839;   -8.696;  908.626
489.808;  144.026;  -12.276;  741.415
490.396;  151.733;   -9.386;  914.645
490.984;  158.614;   -8.506;  830.161
491.572;  167.643;   -8.226;  940.315
492.160;  172.127;   -9.836;  919.081
492.748;  184.336;  -10.316;  884.341
493.336;  203.428;   -7.146; 1019.693
493.924;  225.890;   -7.965;  958.077
494.512;  251.332;  -10.316; 1066.638
495.100;  287.714;  -10.186; 1103.280
495.687;  340.882;   -7.805; 1206.373
496.275;  400.352;   -9.686; 1150.796
496.863;  476.516;  -11.566; 1281.171
497.451;  572.561;  -11.406; 1386.805
498.038;  707.033;   -8.235; 1556.729
498.626;  821.858;   -7.485; 1741.407
499.214;  974.321;   -8.646; 2016.609
499.801; 1217.022;   -9.936; 2220.633
500.389; 1405.390;   -8.056; 2312.494
500.976; 1582.302;   -6.166; 2744.849
501.564; 1780.216;   -9.126; 3148.565
502.151; 2073.873;  -12.456; 3515.999
502.738; 2493.725;  -10.056; 3971.274
503.326; 2923.449;  -10.605; 4403.796
503.913; 3283.997;  -10.576; 5161.749
504.500; 3781.872;   -9.056; 5986.420
505.088; 4297.399;  -10.136; 6381.201
505.675; 5080.925;   -9.075; 6925.547
506.262; 5628.454;  -11.346; 7619.060
506.849; 6356.173;   -9.376; 8733.969
507.436; 6946.533;   -7.365; 9790.121
508.023; 7298.208;   -8.686; 9985.472
508.610; 7682.642;   -8.846;10434.618
509.197; 8724.646;   -9.077;11198.435
509.784;10062.719;  -10.246;12391.194
510.371;10402.044;   -9.825;13603.713
510.958;11060.272;  -10.896;14426.586
511.545;11945.783;   -9.006;15243.775
512.132;12919.802;   -8.765;15945.876
512.719;13978.842;   -8.286;16340.369
513.305;16008.885;   -9.256;18011.766
513.892;18338.400;  -11.106;19754.971
514.479;19904.967;   -8.576;20967.805
515.066;21050.631;   -9.046;22299.793
515.652;21706.770;  -10.676;22908.660
516.239;23300.574;  -10.166;23798.875
516.825;23828.920;  -11.266;25567.275
517.412;23387.471;   -7.446;28154.959
517.998;24034.678;  -10.916;28344.111
518.585;23309.203;   -9.166;27134.219
519.171;23035.877;  -10.135;27268.576
519.758;24840.822;   -8.806;28964.129
520.344;27788.418;   -6.716;30664.494
520.930;29463.982;  -10.166;32550.605
521.516;30014.662;   -9.615;35422.895
522.103;31613.533;   -8.656;38280.004
522.689;34199.953;   -9.646;37835.117
523.275;35021.645;  -10.786;37288.613
523.861;35952.031;   -9.266;37281.395
524.447;35895.285;   -8.285;37846.949
525.033;36011.969;   -9.426;38321.949
525.619;35200.508;   -9.836;38579.285
526.205;35854.098;   -8.136;40622.875
526.791;37001.723;   -9.986;42258.836
527.377;38639.992;   -8.236;42966.902
527.963;37421.434;  -12.117;42018.949
528.549;36186.613;   -8.376;42476.828
529.135;37288.926;   -8.696;41854.852
529.721;38950.641;   -9.686;41237.711
530.306;41233.484;   -8.616;41259.445
530.892;44375.945;   -9.396;41506.047
531.478;44858.238;   -9.926;43559.613
532.063;46712.941;  -10.236;47695.563
532.649;49149.473;   -8.257;50808.324
533.235;50826.227;  -11.476;51787.500
533.820;49493.313;   -8.156;52145.035
534.406;47205.457;  -12.257;51133.488
534.991;45234.188;   -8.686;49996.805
535.576;43104.844;   -9.426;48882.852
536.162;43010.176;   -8.436;46942.285
536.747;41611.340;  -10.957;45711.746
537.333;41002.777;  -13.147;48510.180
537.918;44025.926;   -9.027;50439.891
538.503;45542.977;   -8.256;50863.711
539.088;49677.504;  -10.576;50906.922
539.673;52033.984;  -10.907;52621.965
540.259;51889.289;   -9.126;52368.094
540.844;48715.488;   -9.026;50879.109
541.429;49625.348;   -9.597;52077.777
542.014;53527.863;  -11.447;52716.695
542.599;54611.797;   -9.236;52363.281
543.184;52638.773;  -12.267;53187.137
543.769;53985.895;  -10.367;54697.605
544.354;54297.750;  -10.887;53913.914
544.938;48108.941;  -11.687;49680.164
545.523;43168.316;   -8.286;47386.277
546.108;44360.848;   -9.317;49151.949
546.693;46507.863;  -10.187;51384.637
547.278;45807.652;   -9.926;51853.254
547.862;45058.051;   -9.196;51173.750
548.447;43851.254;   -9.657;51691.395
549.031;43682.043;   -9.127;52456.703
549.616;48002.152;  -10.836;52714.516
550.201;51780.238;   -8.507;52414.598
550.785;52055.098;  -10.537;52355.059
551.370;51676.730;  -11.727;54589.453
551.954;52643.816;   -9.457;58267.348
552.538;52255.195;   -8.147;59062.176
553.123;50133.266;   -9.397;58115.285
553.707;47489.305;   -9.558;56556.285
554.291;48892.277;   -9.417;56201.668
554.876;48870.973;   -7.627;55335.762
555.460;46602.074;  -10.457;54155.703
556.044;44344.883;  -10.078;53721.484
556.628;44877.691;   -9.407;53731.016
557.212;45076.199;   -7.957;54312.531
557.796;44925.418;  -11.327;53797.773
558.380;49509.688;  -10.868;56145.984
558.964;50779.465;   -9.637;57277.930
559.548;49005.258;   -8.807;56459.641
560.132;49737.371;  -10.187;54434.543
560.716;48984.965;   -9.868;54800.617
561.300;49602.934;  -10.217;57606.945
561.884;50062.227;   -4.947;58972.445
562.467;49472.363;   -9.588;57327.570
563.051;48001.789;  -11.138;54962.434
563.635;45708.891;   -9.358;52594.473
564.219;45419.254;   -9.797;50610.410
564.802;45837.965;   -9.918;49551.180
565.386;43329.914;  -10.838;48370.953
565.969;42429.004;   -8.037;48178.871
566.553;42206.820;   -5.667;49957.305
567.136;40778.902;   -8.258;50369.594
567.720;40185.684;  -11.278;49492.004
568.303;43062.543;   -9.028;50616.352
568.887;42806.898;   -7.508;50727.148
569.470;41509.551;  -11.068;51698.379
570.053;41543.406;  -10.028;52122.078
570.637;39981.262;  -11.077;52536.438
571.220;39411.297;   -8.747;51186.098
571.803;40847.457;   -8.868;51032.762
572.386;42842.309;  -10.608;49609.887
572.969;42740.676;  -10.548;48285.926
573.552;40727.633;   -7.898;47624.285
574.135;41693.215;   -9.918;45498.641
574.718;37680.656;  -10.328;41970.434
575.301;34772.320;   -9.548;41447.137
575.884;31863.986;   -8.768;40923.836
576.467;35115.461;   -9.858;45267.723
577.050;35351.973;  -11.018;48175.543
577.633;36217.770;  -10.048;47729.328
578.216;35503.598;  -10.268;47579.793
578.799;32704.359;  -11.808;47820.996
579.381;32830.625;   -7.338;48115.551
579.964;35825.621;   -9.728;47333.766
580.547;37164.020;   -8.928;46668.969
581.129;38606.820;   -9.149;44466.141
581.712;38920.535;  -11.359;44164.922
582.294;36451.563;  -10.738;46477.855
582.877;34848.309;   -8.788;48244.254
583.459;35096.355;   -9.859;47437.895
584.042;37624.270;   -9.649;46943.219
584.624;37398.379;  -10.529;46792.227
585.206;35754.484;  -10.298;46557.250
585.789;35291.449;  -11.029;45793.773
586.371;33196.383;   -9.359;43836.391
586.953;32352.752;   -8.799;42972.492
587.536;32074.574;   -8.928;42487.211
588.118;32035.133;   -9.180;42086.414
588.700;31592.213;  -10.519;43389.930
589.282;30748.018;   -8.098;43646.039
589.864;30980.350;   -8.139;43438.109
590.446;32536.289;  -10.509;43151.926
591.028;32659.320;  -11.119;42781.867
591.610;34363.750;  -10.019;42839.098
592.192;34563.848;   -8.838;42820.402
592.774;31282.080;  -11.549;40724.277
593.356;28069.549;  -11.609;39874.789
593.937;27116.354;  -10.019;39980.648
594.519;29700.240;   -7.839;42069.633
595.101;32446.223;  -10.779;42976.031
595.683;33642.895;  -10.049;44084.441
596.264;33514.441;   -9.969;43478.797
596.846;33152.039;   -9.699;43803.672
597.427;32084.152;  -10.970;42986.934
598.009;31390.652;  -13.090;42832.219
598.591;30767.898;   -9.509;42580.086
599.172;31306.609;   -9.019;43061.805
599.753;32227.904;  -13.310;41691.469
600.335;33019.281;  -11.010;40692.520
600.916;32146.189;  -10.309;39982.422
601.498;30863.563;   -8.209;40318.617
602.079;30441.686;  -11.440;40670.609
602.660;32060.707;   -8.690;41450.898
603.241;33495.281;  -12.759;41137.738
603.823;32213.068;  -10.409;38868.797
604.404;31647.363;  -11.790;38182.785
604.985;33726.645;  -10.280;38078.047
605.566;35185.641;   -8.059;38056.633
606.147;32258.842;   -8.960;37020.418
606.728;29709.516;  -10.710;37883.359
607.309;29065.336;  -12.760;38748.273
607.890;27741.273;   -9.959;38850.230
608.471;27962.199;   -9.780;37457.918
609.051;29555.652;   -8.940;36066.457
609.632;30256.473;  -12.070;35991.074
610.213;30325.580;   -9.610;37402.641
610.794;30797.906;   -8.750;38383.363
611.374;31413.426;  -11.100;40562.387
611.955;31842.338;  -12.200;38533.727
612.536;31773.219;  -10.410;36951.789
613.116;30795.426;  -10.010;37197.891
613.697;29226.471;  -10.480;38411.125
614.277;29177.631;  -12.751;38673.938
614.858;28261.949;  -11.600;37075.863
615.438;28166.633;   -8.190;35092.906
616.019;26827.857;   -8.941;33666.301
616.599;28677.654;  -13.540;34189.023
617.179;31608.023;  -10.890;36952.047
617.760;30940.564;   -7.610;39582.574
618.340;28891.572;  -14.441;38943.977
618.920;28469.277;   -9.180;37594.156
619.500;30719.408;  -11.881;37866.938
620.080;32437.604;   -9.870;37869.043
620.660;31205.076;  -13.211;36868.617
621.241;29988.641;  -11.921;36352.309
621.821;29721.752;  -10.271;35459.520
622.401;30923.504;   -8.200;35207.414
622.980;32234.340;  -11.141;35980.422
623.560;31195.547;  -14.321;37351.328
624.140;29682.953;   -9.360;34388.582
624.720;25878.721;   -7.481;32368.764
625.300;23407.563;  -12.730;32638.629
625.880;27040.705;  -11.441;34599.035
626.459;30416.582;  -10.971;36831.738
627.039;34261.336;   -9.011;38299.098
627.619;34840.699;   -8.521;38289.574
628.198;32795.574;   -9.861;37220.695
628.778;31595.193;   -8.841;37632.563
629.357;31968.119;   -9.891;38003.012
629.937;32441.912;  -11.871;38402.039
630.516;32077.262;  -10.641;37868.801
631.096;33908.785;  -11.391;35760.410
631.675;35475.664;   -6.622;35225.219
632.254;32371.637;  -13.002;35130.289
632.834;30999.490;  -11.622;35794.570
633.413;31949.623;   -8.321;35788.922
633.992;30251.742;   -7.732;34532.863
634.571;30113.076;  -10.992;33590.113
635.151;29478.199;  -10.422;34943.863
635.730;30680.484;  -11.511;35352.523
636.309;31226.568;   -7.901;35366.605
636.888;30333.596;  -11.452;36165.637
637.467;29139.566;  -10.672;37515.902
638.046;29445.102;   -9.301;39288.695
638.625;30878.525;  -11.452;38279.699
639.204;31650.199;  -12.262;37741.598
639.782;31996.197;  -11.892;38364.551
640.361;30709.867;  -11.411;36740.621
640.940;25719.016;  -11.501;34950.082
641.519;27849.139;  -10.921;34137.398
642.097;31517.674;  -10.101;35654.258
642.676;30362.168;  -10.821;35637.957
643.255;31498.705;   -8.631;36567.074
643.833;33955.094;  -11.411;37809.434
644.412;36654.137;  -12.021;37337.293
644.990;36938.203;  -12.271;37018.531
645.569;35746.195;   -9.741;36518.469
646.147;33173.020;   -9.051;36186.430
646.726;33054.719;  -13.861;36267.688
647.304;33411.434;   -9.461;36647.625
647.882;33149.770;  -13.171;39286.742
648.461;33664.961;  -11.911;39157.703
649.039;32375.436;   -9.541;35412.883
649.617;31338.721;   -8.901;34744.918
650.195;29380.879;   -8.591;35403.098
650.773;28750.324;  -13.031;35053.797
651.352;27787.740;  -12.211;33756.816
651.930;25670.686;  -11.361;31868.773
652.508;22696.047;   -8.601;33121.551
653.086;25337.283;   -9.991;33564.793
653.663;29792.846;  -11.931;34054.668
654.241;31994.961;  -10.821;35693.309
654.819;33406.980;   -9.341;36422.906
655.397;31241.305;  -10.851;38213.484
655.975;30010.410;  -11.461;39507.625
656.553;30052.713;   -8.841;39498.223
657.130;29597.898;  -10.371;40395.480
657.708;30301.078;  -11.071;39242.020
658.286;29943.266;  -11.141;38920.020
658.863;30876.338;  -10.861;40202.898
659.441;34806.074;  -11.181;39677.938
660.018;34906.168;  -10.851;40413.355
660.596;34582.082;  -12.571;39931.414
661.173;35041.676;  -12.141;39604.531
661.750;35090.949;  -11.571;39700.070
662.328;32518.529;  -10.780;39292.809
662.905;29808.352;  -10.750;38235.648
663.482;26590.084;  -11.320;36212.305
664.060;25854.377;  -10.160;35944.945
664.637;30636.213;  -13.120;35170.785
665.214;32647.199;  -11.500;34197.523
665.791;30901.645;  -12.430;34549.520
666.368;28663.881;   -9.840;35118.578
666.945;27830.078;  -11.290;36019.418
667.522;28384.418;  -13.540;36048.438
668.099;28898.664;  -10.250;36243.914
668.676;28047.287;  -11.270;35958.875
669.253;27054.066;   -8.210;37384.730
669.830;26383.516;   -9.710;36779.629
670.407;25855.816;   -9.700;35231.289
670.984;26549.324;   -9.190;35544.270
671.560;25892.375;   -9.560;35466.867
672.137;25446.930;  -11.820;34280.863
672.714;27966.711;  -12.460;34632.863
673.290;32241.918;  -10.940;35135.422
673.867;32903.805;  -10.510;36114.480
674.443;29447.748;  -12.110;36152.859
675.020;30788.826;  -11.760;35327.238
675.596;31941.824;   -9.380;35795.176
676.173;30556.781;  -11.120;35430.355
676.749;29356.230;  -13.390;33549.516
677.326;28674.758;  -12.600;32210.012
677.902;27609.900;  -10.830;32068.871
678.478;27610.500;  -12.400;32583.891
679.054;29605.059;   -8.610;32088.928
679.631;29735.912;  -11.640;30978.848
680.207;29603.473;   -8.140;33160.887
680.783;30655.455;  -12.300;35570.363
681.359;29665.582;  -10.910;36125.184
681.935;29732.475;  -11.040;35240.922
682.511;30423.424;  -11.130;34429.961
683.087;30699.449;  -11.080;34463.680
683.663;32862.844;  -10.530;34648.898
684.239;32482.014;  -12.120;34546.457
684.815;29975.836;   -8.870;35586.375
685.390;29214.939;   -8.940;35821.895
685.966;29265.037;  -12.109;35085.871
686.542;28225.963;  -13.539;34198.230
687.118;28081.869;  -10.379;32847.707
687.693;28395.258;  -10.189;32794.027
688.269;27184.123;  -12.939;33072.367
688.844;26113.209;   -8.679;33141.664
689.420;26977.641;  -10.919;33965.742
689.995;27260.168;   -7.489;34655.523
690.571;26704.832;  -12.199;33576.742
691.146;26752.193;   -8.979;32657.219
691.722;28124.043;   -9.119;32526.979
692.297;26615.502;  -10.519;33014.617
692.872;26290.090;  -10.629;34012.254
693.448;26987.436;  -12.119;34237.434
694.023;27727.904;   -8.219;34142.672
694.598;25830.445;  -13.209;34132.031
695.173;24809.842;  -11.879;34205.250
695.748;25594.248;  -12.039;32882.488
696.323;25276.213;  -11.779;32864.906
696.898;26023.854;  -10.219;33170.004
697.473;27036.105;  -13.639;32432.984
698.048;27524.746;  -11.239;31649.303
698.623;29730.834;  -10.859;30778.141
699.198;31678.646;  -13.379;31140.119
699.773;32403.895;  -13.409;31764.299
700.348;32806.191;  -12.329;31780.816
700.922;33218.633;   -8.749;32046.375
701.497;33251.859;  -12.449;32603.574
702.072;32174.754;   -8.879;34799.871
702.646;30126.955;  -10.719;35793.172
703.221;28627.682;   -8.469;35201.590
703.795;28461.682;  -11.389;34764.527
704.370;28571.955;  -12.499;34307.367
704.944;28412.275;  -11.449;33509.887
705.519;27611.324;  -10.659;31388.584
706.093;27000.982;  -12.909;31340.104
706.668;27165.689;  -13.509;32630.281
707.242;26280.059;  -10.049;32728.779
707.816;24329.777;  -10.629;32947.238
708.390;23871.771;  -11.829;33277.855
708.965;24107.461;  -11.159;33834.336
709.539;25005.434;  -11.069;33709.273
710.113;24541.953;  -10.908;33044.313
710.687;23253.617;   -9.488;31953.992
711.261;23351.141;  -13.068;30505.949
711.835;25977.732;  -12.748;30262.369
712.409;27008.012;  -10.678;31254.447
712.983;26227.227;  -11.658;32754.986
713.557;26874.641;  -13.718;34018.824
714.131;27372.479;  -13.388;34579.625
714.704;27405.281;   -9.818;33890.262
715.278;28017.342;  -11.818;33531.102
715.852;29130.684;  -11.328;33601.660
716.425;29443.516;   -9.118;33515.117
716.999;29574.383;  -10.188;33185.555
717.573;29948.217;   -9.808;33905.996
718.146;32676.391;  -11.478;35199.293
718.720;32903.855;  -10.998;35060.551
719.293;30915.104;   -9.508;34973.230
719.867;30021.420;  -12.138;36394.449
720.440;28654.838;  -11.288;36663.008
721.013;30933.943;  -11.428;35102.426
721.587;31988.070;  -11.698;33985.266
722.160;32835.375;  -11.608;33524.965
722.733;31943.027;  -11.428;32987.043
723.306;31129.898;  -12.518;33066.301
723.880;31285.430;   -7.408;33399.500
724.453;30306.096;  -11.048;33468.297
725.026;29010.705;  -11.678;33816.637
725.599;27623.383;  -10.978;32797.996
726.172;26721.150;   -8.838;33187.434
726.745;27562.084;  -11.438;35136.613
727.318;28063.271;   -9.828;35751.730
727.891;26412.873;  -10.868;35890.430
728.463;24654.723;  -11.348;34822.090
729.036;23418.748;  -11.608;32895.086
729.609;23651.221;  -14.738;31823.225
730.182;24706.426;   -8.448;31445.283
730.754;25779.525;  -11.228;32373.223
731.327;25775.625;  -12.018;33676.820
731.900;27374.816;  -13.748;33417.000
732.472;27509.768;  -10.928;31978.498
733.045;26278.240;   -9.478;30368.777
733.617;24926.742;  -12.967;30574.215
734.190;24001.900;  -11.707;31280.975
734.762;22709.516;  -11.067;31674.412
735.334;22083.754;  -10.587;31247.291
735.907;21424.994;  -11.947;29876.211
736.479;22026.623;  -11.667;29808.488
737.051;24414.756;  -10.187;30233.547
737.623;26558.904;   -6.887;31469.086
738.195;29172.471;  -12.117;31784.225
738.768;31060.871;  -14.077;32120.523
739.340;30699.387;  -12.207;32094.342
739.912;27703.156;   -8.977;31312.680
740.484;25676.377;  -11.017;31946.238
741.056;26228.816;  -13.517;32984.059
741.628;28077.451;  -11.507;33897.715
742.199;28366.303;   -7.597;33213.016
742.771;28968.857;  -12.227;31369.113
743.343;28722.455;  -12.427;31865.473
743.915;27592.289;   -9.827;32388.631
744.487;26732.668;  -10.007;31079.568
745.058;25043.412;  -11.887;30570.107
745.630;24088.725;  -10.787;29970.127
746.201;23217.477;  -10.887;29186.766
746.773;22894.098;   -9.707;28805.723
747.344;23702.148;  -11.137;29591.223
747.916;24099.367;  -11.887;31412.201
748.487;23594.830;   -9.707;32194.898
749.059;23045.611;  -10.027;32533.719
749.630;22863.801;  -11.787;32158.518
750.201;21787.871;  -12.767;30855.395
750.773;21450.148;  -11.497;28622.555
751.344;22175.285;   -9.937;28405.732
751.915;22641.156;  -11.567;28461.551
752.486;22103.896;  -13.267;27842.850
753.057;20116.150;  -10.627;27845.008
753.628;18701.186;  -11.657;27728.107
754.199;20913.580;  -12.097;27381.086
754.770;22576.604;  -11.447;25882.203
755.341;22535.271;  -11.997;25886.184
755.912;20374.414;  -10.207;26050.861
756.483;18664.234;  -10.937;26798.779
757.054;18461.404;  -11.527;27048.238
757.625;18736.396;  -12.886;26294.838
758.195;19208.061;  -11.226;26142.076
758.766;19255.471;  -12.366;26392.234
759.337;18111.287;  -11.946;26334.594
759.907;18215.225;  -13.856;27579.652
760.478;19140.805;   -9.606;28352.770
761.048;18902.268;  -11.606;27325.088
761.619;18856.730;  -11.036;26460.428
762.189;18331.109;  -12.206;26029.826
762.760;19664.588;   -9.666;26430.145
763.330;20567.111;   -9.796;26670.902
763.900;18738.547;  -10.896;26603.021
764.471;17292.930;  -11.726;25542.740
765.041;17803.279;   -9.656;24358.459
765.611;18644.096;  -11.276;23991.297
766.181;18386.117;  -12.116;24470.236
766.751;17820.889;  -12.376;24845.975
767.321;17741.479;  -11.626;24533.633
767.891;18030.059;  -10.426;24916.492
768.461;17132.254;  -13.456;24776.771
769.031;15223.457;  -11.616;24757.988
769.601;14985.038;  -11.356;24181.088
770.171;15171.143;  -11.586;23670.387
770.741;15518.262;  -12.696;22960.045
771.311;15468.892;  -10.226;22917.523
771.880;15183.131;  -11.146;23562.941
772.450;15978.907;  -11.716;24216.500
773.020;16396.686;  -13.226;24140.398
773.589;16092.204;  -12.586;24414.857
774.159;15840.453;  -10.246;23858.717
774.729;15312.018;  -11.586;22942.135
775.298;14398.077;  -15.926;22324.033
775.867;14395.036;  -10.426;21140.313
776.437;14341.536;  -11.416;20838.092
777.006;13042.043;  -12.766;20599.510
777.576;13002.572;  -13.666;20508.809
778.145;13429.376;  -10.066;20732.947
778.714;13155.157;  -10.276;21062.465
779.283;13520.351;  -12.086;20949.664
779.853;14878.664;  -14.016;20508.623
780.422;15362.306;  -12.376;20649.082
780.991;14259.250;   -9.246;21527.520
781.560;13312.076;   -9.775;22632.658
782.129;13118.455;  -12.495;23048.277
782.698;12831.725;  -11.775;23438.555
783.267;13114.004;  -10.065;23267.734
783.836;13704.036;  -12.455;22415.133
784.404;14456.231;  -13.385;20443.152
784.973;15268.166;  -11.045;19699.150
785.542;14755.423;   -9.505;19763.828
786.111;13766.187;   -9.385;20341.408
786.679;13728.253;  -13.475;20207.967
787.248;13782.880;  -11.245;19516.465
787.817;11890.925;  -12.485;18900.363
788.385;10167.901;  -11.165;17879.121
788.954;10842.551;  -11.755;17658.301
789.522;11758.833;   -9.625;17788.879
790.090;11427.167;   -9.665;18118.277
790.659;10908.546;   -9.295;18338.736
791.227;11813.661;  -12.175;18508.615
791.795;13224.994;  -12.145;17898.254
792.364;13084.102;  -11.575;17295.133
792.932;11805.803;  -11.085;16822.051
793.500;10668.955;  -11.345;17040.148
794.068;10477.047;  -12.565;17179.787
794.636;11406.580;  -12.105;16664.246
795.204;11912.128;  -11.995;16524.545
795.772;11400.331;  -12.615;17274.564
796.340;11052.468;  -12.425;17891.002
796.908;10875.195;  -11.455;17648.561
797.476;10405.598;  -12.165;17064.080
798.044;10092.104;  -15.795;16672.777
798.612;10118.802;  -10.985;17023.996
799.180;10714.439;  -12.055;16561.615
799.747;11042.394;  -12.525;15962.773
800.315; 9937.793;  -14.765;15296.992
800.883; 8744.855;  -12.435;14801.771
801.450; 8608.202;  -11.295;14534.430
802.018; 9083.692;  -11.185;14173.248
802.585; 9062.192;  -11.625;14029.547
803.153; 8076.312;  -10.665;13836.846
803.720; 7670.877;  -10.275;13567.324
804.287; 7577.179;  -12.865;13360.622
804.855; 7826.162;  -12.324;13681.981
805.422; 8134.787;  -11.574;13536.560
805.989; 7987.129;  -11.004;13355.958
806.556; 8209.096;  -12.214;13747.896
807.124; 8638.968;  -13.304;13987.376
807.691; 8362.642;  -12.034;14038.674
808.258; 7682.148;  -11.014;14120.152
808.825; 7566.438;  -11.804;13860.111
809.392; 7503.626;  -11.544;13268.790
809.959; 7355.174;  -14.954;12680.389
810.526; 7725.272;  -10.214;12427.308
811.093; 8257.313;  -10.754;12030.105
811.659; 7900.784;  -12.194;11653.664
812.226; 6713.703;   -9.194;11637.183
812.793; 6368.683;   -9.644;11611.521
813.360; 7161.561;  -11.544;11885.181
813.926; 7991.439;  -12.814;12770.539
814.493; 7980.756;  -11.524;12677.638
815.060; 7672.663;  -12.254;11974.336
815.626; 7233.323;  -12.114;11594.715
816.193; 6902.124;  -11.994;11579.474
816.759; 6791.482;  -11.464;11666.972
817.325; 6492.584;  -10.444;11325.530
817.892; 6163.577;  -11.124;11105.369
818.458; 5994.326;  -11.864;10843.928
819.024; 6205.421;  -10.634;10714.406
819.591; 6291.595;  -10.554;10469.165
820.157; 6550.686;  -13.334;10235.523
820.723; 6833.079;  -13.044;10847.563
821.289; 6968.382;   -9.664;11040.980
821.855; 7148.778;  -10.994;10357.100
822.421; 7170.239;  -11.784; 9978.918
822.987; 7133.506;  -12.554; 9754.177
823.553; 7529.519;  -12.554;10065.755
824.119; 7395.228;   -8.544;10036.294
824.685; 6459.006;  -12.144;10029.192
825.251; 5898.366;  -12.754;10199.230
825.816; 5486.722;  -11.354; 9820.189
826.382; 5249.533;  -11.004; 9297.248
826.948; 5305.238;  -11.004; 9381.347
827.513; 5203.985;  -12.474; 9450.726
828.079; 5145.039;  -13.084; 9472.444
828.645; 5283.197;  -10.813; 9292.643
829.210; 5060.689;  -11.593; 9065.341
829.776; 4975.623;  -12.633; 9132.620
830.341; 5008.088;  -10.473; 9092.878
830.906; 4826.513;   -8.763; 9078.557
831.472; 4571.180;  -13.453; 8534.535
832.037; 4017.828;  -12.173; 8677.874
832.602; 3802.946;  -14.093; 8628.692
833.167; 4038.942;  -13.593; 8879.031
833.733; 4535.410;  -10.793; 9189.790
834.298; 4922.262;  -14.783; 9052.608
834.863; 4562.898;  -11.023; 8895.087
835.428; 4321.869;  -11.113; 8824.266
835.993; 4754.241;   -9.983; 8845.385
836.558; 4988.024;  -13.003; 8888.563
837.123; 4802.593;  -10.733; 8966.582
837.688; 4413.518;   -9.683; 8617.860
838.253; 4251.010;  -12.253; 8590.699
838.817; 4247.925;  -11.643; 8443.797
839.382; 4184.790;  -11.953; 8799.356
839.947; 4278.263;  -11.443; 8810.595
840.511; 4641.477;  -10.843; 8796.394
841.076; 4909.117;  -13.533; 8347.231
841.641; 4724.878;  -11.743; 8224.330
842.205; 4173.551;  -10.013; 8223.349
842.770; 3844.447;  -11.023; 8622.107
843.334; 3925.175;  -14.273; 8410.386
843.898; 4295.351;  -11.323; 8337.465
844.463; 4663.138;  -10.263; 8506.283
845.027; 4832.163;  -10.353; 8280.962
845.591; 4779.527;  -12.163; 8231.141
846.156; 4636.841;  -12.263; 7969.179
846.720; 4598.446;  -11.553; 7768.278
847.284; 4405.567;  -12.393; 7630.957
847.848; 3664.129;  -12.623; 7472.395
848.412; 3086.760;  -11.863; 7437.394
848.976; 3027.637;  -10.203; 7674.592
849.540; 3238.576;  -10.603; 7836.011
850.104; 3457.615;  -12.423; 7913.669
850.668; 3481.412;  -14.613; 7694.508
851.232; 3503.489;  -12.873; 7756.887
851.796; 3737.099;  -14.192; 7926.545
852.359; 3917.224;  -13.652; 7827.844
852.923; 3844.400;  -11.402; 7641.163
853.487; 3542.658;  -12.022; 7342.501
854.050; 3366.428;  -15.202; 7042.820
854.614; 3361.476;  -14.592; 7151.338
855.177; 3315.179;  -12.572; 7105.077
855.741; 3311.819;   -9.932; 6989.675
856.304; 3225.672;  -12.192; 6596.634
856.868; 3086.031;  -13.462; 6356.272
857.431; 3092.247;  -11.542; 6468.571
857.995; 3211.501;  -12.062; 6373.210
858.558; 3063.759;  -11.142; 6324.448
859.121; 2921.728;  -11.742; 6408.327
859.684; 2952.894;  -10.332; 6347.886
860.247; 3032.453;  -11.962; 6321.264
860.810; 3078.283;  -12.332; 6301.903
861.374; 2969.618;  -10.292; 6607.881
861.937; 2827.282;  -12.062; 6408.200
862.500; 2868.951;  -11.702; 6572.639
863.062; 3006.360;  -13.852; 6387.297
863.625; 3083.804;  -12.972; 6190.836
864.188; 3047.145;  -10.292; 5807.254
864.751; 3000.594;  -12.382; 5682.413
865.314; 2802.263;  -13.232; 5547.492
865.876; 2469.944;  -12.772; 5500.150
866.439; 2201.058;  -11.952; 5415.909
867.002; 2250.084;   -9.332; 5501.567
867.564; 2568.423;  -11.712; 5413.946
868.127; 2730.023;  -12.012; 5160.325
868.689; 2429.451;  -11.882; 5133.183
869.252; 2091.045;  -11.572; 5252.382
869.814; 1987.453;  -10.692; 5297.141
870.377; 2025.763;  -12.392; 5390.919
870.939; 2080.799;  -10.582; 5599.898
871.501; 2112.586;  -12.782; 5248.336
872.063; 2134.158;  -15.612; 4854.235
872.626; 2193.451;  -13.922; 4817.074
873.188; 2183.331;  -13.832; 4987.732
873.750; 2139.483;  -10.962; 4868.651
874.312; 2185.460;  -11.022; 4779.330
874.874; 2231.985;  -13.152; 4866.348
875.436; 2170.859;  -13.401; 4718.887
875.998; 2070.178;   -8.891; 4660.005
876.560; 1976.240;  -12.591; 4462.964
877.122; 1899.354;  -14.531; 4145.042
877.683; 1846.436;  -10.781; 4056.481
878.245; 1754.757;  -14.281; 3950.740
878.807; 1696.574;  -10.311; 4058.958
879.369; 1649.814;  -13.201; 3954.677
879.930; 1610.131;  -12.061; 3941.495
880.492; 1603.652;   -9.181; 4067.014
881.053; 1625.418;  -12.051; 3859.633
881.615; 1598.917;  -11.501; 3776.071
882.176; 1510.602;  -12.221; 3734.750
882.738; 1404.668;   -8.931; 3678.489
883.299; 1334.037;  -13.571; 3405.407
883.860; 1337.499;  -12.331; 3351.106
884.422; 1282.982;  -10.201; 3394.044
884.983; 1158.368;  -12.521; 3166.443
885.544; 1045.329;  -12.291; 3189.802
886.105;  987.615;  -12.991; 3160.360
886.666;  975.115;  -12.901; 3093.059
887.227;  967.591;  -12.061; 2941.957
887.788;  942.260;  -11.641; 2974.836
888.349;  889.680;  -14.691; 2721.214
888.910;  843.919;   -9.681; 2696.493
889.471;  844.152;   -9.971; 2560.172
890.032;  857.761;  -13.151; 2558.190
890.593;  835.073;  -12.051; 2567.669
891.153;  791.255;  -12.841; 2460.307
891.714;  756.522;  -13.561; 2372.046
892.275;  724.331;  -12.401; 2309.505
892.835;  689.497;  -13.191; 2382.543
893.396;  654.107;  -12.551; 2295.502
893.956;  632.980;  -11.981; 2162.420
894.517;  614.838;  -12.221; 2125.439
895.077;  582.439;  -12.021; 2086.978
895.638;  525.678;  -10.891; 2126.316
896.198;  471.922;  -13.171; 1838.275
896.758;  439.030;  -11.891; 1892.813
897.319;  418.735;  -12.491; 1792.232
897.879;  405.079;  -12.401; 1762.751
898.439;  376.668;  -13.431; 1661.149
898.999;  356.922;  -11.340; 1781.468
899.559;  347.176;  -13.930; 1703.347
900.119;  329.684;  -13.730; 1537.525
900.679;  311.109;   -9.210; 1638.384
901.239;  293.707;  -10.860; 1527.902
901.799;  276.377;  -11.450; 1456.441
902.359;  258.481;  -13.800; 1357.140
902.919;  252.655;  -12.130; 1331.118
903.479;  255.075;  -12.650; 1317.257
904.038;  249.202;  -16.110; 1262.595
904.598;  236.773;  -13.690; 1152.034
905.158;  224.850;  -10.290; 1240.893
905.717;  217.721;  -10.670; 1233.691
906.277;  216.275;  -14.040; 1217.330
906.836;  217.312;  -13.510; 1222.408
907.396;  212.626;  -11.530; 1193.047
907.955;  200.815;  -13.190; 1182.526
908.515;  189.076;  -12.950; 1099.364
909.074;  180.887;  -12.390; 1092.863
909.633;  176.792;  -10.340; 1069.121
910.192;  175.255;  -11.170; 1196.460
910.752;  169.689;  -14.200; 1029.960
911.311;  165.030;  -13.810; 1009.780
911.870;  162.386;  -12.750;  971.460
912.429;  161.193;  -12.380; 1094.080
912.988;  158.784;  -11.930; 1081.060
913.547;  153.074;  -10.990;  940.380
914.106;  150.300;  -11.200;  999.420
914.665;  147.886;  -13.150;  984.020
915.224;  145.239;  -13.310; 1035.760
915.782;  144.469;  -13.340;  922.560
916.341;  145.092;  -10.710; 1049.840
916.900;  142.069;  -12.980;  925.260
917.458;  139.669;  -13.060;  884.220
918.017;  138.406;  -10.900;  942.600
918.576;  136.355;  -11.630;  904.440
919.134;  136.587;  -12.860;  837.980
919.693;  137.128;  -15.160;  893.060
920.251;  136.517;  -13.470;  876.500
920.809;  136.947;  -13.700;  839.580
921.368;  137.082;  -13.420;  885.360
921.926;  136.909;  -14.710;  842.940
922.484;  137.136;  -12.560;  903.360
923.042;  136.539;  -11.930;  880.340
923.601;  137.194;  -10.270;  998.680
924.159;  135.351;  -12.960;  935.560
924.717;  134.920;  -13.040;  841.080
925.275;  136.774;  -12.560;  903.240
925.833;  137.398;  -13.040;  779.320
926.391;  139.235;  -13.360;  938.380
926.949;  137.842;  -13.940;  857.680
927.506;  139.485;   -9.400;  903.500
928.064;  139.693;  -10.940;  877.580
928.622;  138.802;  -13.180;  880.100
929.180;  138.862;  -12.730;  814.180
929.737;  140.032;  -12.840;  808.540
930.295;  142.866;  -11.810;  928.480
930.853;  145.794;  -13.650;  849.100
931.410;  148.508;  -13.580;  821.120
931.968;  149.740;  -12.020;  940.660
932.525;  149.544;  -13.320;  909.380
933.082;  151.146;  -13.800;  811.440
933.640;  157.264;  -11.380;  925.900
934.197;  159.072;  -11.480;  886.360
934.754;  161.763;  -13.220;  897.780
935.312;  160.445;  -14.950;  863.340
935.869;  158.575;  -10.940; 1012.980
936.426;  153.805;  -12.100;  872.800
936.983;  153.723;  -12.930;  889.020
937.540;  154.676;  -14.250;  838.280
938.097;  159.441;  -12.600;  940.120
938.654;  166.047;  -11.260;  898.860
939.211;  168.338;  -13.020;  952.480
939.768;  170.831;  -15.760;  915.420
940.324;  172.620;  -13.920;  904.200
940.881;  167.760;  -11.620;  878.500
941.438;  165.401;   -9.870; 1021.200
941.995;  162.549;  -13.920;  992.560
942.551;  160.862;  -12.830;  875.620
943.108;  162.382;  -11.980;  937.920
943.664;  165.428;  -13.740;  869.340
944.221;  170.156;  -12.670; 1088.140
944.777;  168.566;  -13.250;  869.680
945.334;  166.990;  -13.000;  884.840
945.890;  167.676;  -13.020;  946.480
946.446;  168.388;  -13.880;  947.020
947.003;  172.029;  -12.660;  964.940
947.559;  173.651;   -8.730; 1063.040
948.115;  169.207;  -11.960; 1026.540
948.671;  165.680;  -12.360;  967.300
949.227;  162.390;  -12.700;  859.560
949.783;  158.347;  -13.450;  858.900
950.339;  156.896;  -10.620;  991.000
950.895;  153.320;  -14.770; 1023.840
951.451;  150.912;  -13.650;  925.280
952.007;  151.406;  -11.180;  998.540
952.563;  149.391;  -11.680;  937.780
953.118;  148.986;  -13.280;  904.940
953.674;  151.376;  -12.510;  935.780
954.230;  151.589;  -12.220;  949.640
954.785;  147.624;  -12.190;  936.640
955.341;  141.643;  -12.270;  998.160
955.897;  136.111;  -14.900;  834.660
956.452;  137.080;  -12.520;  953.840
957.008;  137.336;   -9.410; 1083.640
957.563;  135.312;  -11.280; 1009.540
958.118;  132.512;  -13.470;  877.700
958.674;  134.410;  -12.190;  946.780
959.229;  135.655;  -12.760; 1013.980
959.784;  140.349;  -15.710;  832.400
960.339;  147.913;  -12.540; 1001.280
960.894;  148.849;  -11.680;  963.760
961.449;  144.979;  -11.410;  859.960
962.004;  142.328;  -10.430; 1212.840
962.559;  137.514;  -14.040;  860.140
963.114;  134.262;  -14.270;  742.480
963.669;  135.661;  -11.320;  915.500
964.224;  134.314;  -14.620;  874.340
964.779;  132.297;  -14.150;  828.420
965.334;  133.298;  -10.850; 1017.860
965.888;  131.074;  -14.530;  875.360
966.443;  132.154;  -13.520;  972.380
966.998;  130.166;  -13.370;  819.460
967.552;  126.643;   -9.960;  908.380
968.107;  122.050;  -12.360;  868.300
968.661;  122.868;  -12.270;  922.440
969.216;  122.411;  -12.140;  856.280
969.770;  122.801;  -11.860;  917.200
970.324;  122.070;  -12.170;  923.140
970.879;  120.070;  -14.160;  947.180
971.433;  117.965;  -12.940;  952.720
971.987;  113.919;  -10.180;  895.340
972.541;  113.051;  -12.130;  917.100
973.095;  113.142;  -14.980; 1009.460
973.649;  111.640;  -14.480;  809.480
974.203;  113.981;  -13.530;  829.040
974.757;  115.181;  -12.060;  855.220
975.311;  112.979;  -13.240;  872.600
975.865;  111.351;  -12.550;  881.820
976.419;  110.132;  -13.180;  857.400
976.973;  109.183;  -14.100;  849.620
977.526;  108.437;  -13.330;  949.920
978.080;  105.122;  -15.390;  796.780
978.634;  104.957;  -11.670;  921.320
979.187;  102.402;  -10.640;  905.400
979.741;  102.293;  -13.330; 1018.380
980.294;   98.974;  -14.480;  789.160
980.848;   96.928;  -13.420;  717.220
981.401;   93.974;  -12.360;  816.540
981.955;   92.373;  -12.480;  844.300
982.508;   89.800;  -14.000;  746.340
983.061;   89.665;  -10.440;  915.260
983.615;   85.194;  -14.340;  798.800
984.168;   81.887;  -14.950;  770.080
984.721;   82.473;  -13.270;  880.760
985.274;   81.655;  -12.240;  867.500
985.827;   77.957;  -12.720;  834.220
986.380;   74.008;  -14.920;  721.340
986.933;   74.253;  -12.860;  864.800
987.486;   73.771;  -10.440;  861.920
988.039;   72.370;  -11.820;  863.100
988.591;   70.565;  -13.760;  893.260
989.144;   69.206;  -14.080;  737.260
989.697;   70.734;  -13.440;  758.740
990.250;   71.140;  -12.050;  858.100
990.802;   69.076;  -14.550;  755.860
991.355;   69.363;  -10.770;  974.880
991.907;   67.261;  -11.710;  864.320
992.460;   65.159;  -12.650;  753.760
993.012;   63.586;  -13.860;  749.540
993.565;   62.021;  -14.310;  711.360
994.117;   62.957;   -9.920;  950.780
994.669;   58.800;  -13.420;  701.320
995.221;   57.363;  -14.200;  791.920
995.774;   57.531;  -13.400;  787.580
996.326;   56.911;  -11.850;  740.220
996.878;   56.780;  -12.230;  838.420
997.430;   54.301;  -14.260;  699.860
997.982;   53.824;  -11.430;  750.140
998.534;   54.355;  -11.590;  739.060
999.086;   53.344;  -11.960;  738.220
999.638;   51.990;  -13.640;  661.380
1000.190;   51.398;  -13.660;  699.320
1000.741;   51.168;   -9.980;  742.700
1001.293;   50.441;  -11.860;  686.020
1001.845;   49.476;  -14.280;  676.640
1002.396;   50.037;  -12.270;  743.400
1002.948;   49.884;  -13.670;  737.400
1003.500;   48.061;  -12.010;  723.780
1004.051;   48.349;  -11.890;  907.580
1004.603;   48.447;  -11.220;  791.820
1005.154;   45.321;  -13.210;  608.980
1005.705;   44.132;  -11.850;  723.960
1006.257;   43.236;  -13.670;  707.220
1006.808;   42.654;  -12.060;  685.460
1007.359;   42.480;  -10.250;  763.240
1007.910;   40.546;  -13.440;  646.640
1008.461;   39.471;  -13.170;  732.940
1009.013;   38.895;  -14.590;  588.340
1009.564;   40.474;  -12.100;  793.520
1010.115;   37.425;  -14.000;  597.040
1010.665;   37.447;  -15.020;  602.160
1011.216;   38.621;  -12.560;  667.920
1011.767;   37.432;  -11.330;  697.920
1012.318;   38.777;  -11.450;  736.980
1012.869;   36.428;  -11.000;  679.000
1013.419;   36.101;  -11.760;  603.120
1013.970;   36.768;  -11.800;  666.640
1014.521;   35.473;  -14.750;  620.620
1015.071;   36.169;  -14.430;  670.380
1015.622;   34.979;  -14.170;  635.460
1016.172;   35.370;  -11.700;  596.820
1016.723;   34.351;  -13.230;  614.380
1017.273;   34.316;  -16.120;  604.160
1017.823;   34.969;  -13.360;  650.340
1018.374;   34.483;  -13.710;  611.760
1018.924;   34.135;  -11.050;  716.880
1019.474;   34.402;  -14.120;  718.880
1020.024;   32.080;  -12.990;  657.580
1020.574;   33.647;  -12.010;  726.160
1021.124;   34.167;  -12.080;  673.580
1021.674;   31.644;  -15.860;  559.120
1022.224;   33.572;  -11.710;  708.940
1022.774;   33.396;  -13.030;  668.820
1023.324;   33.695;  -11.000;  753.520
1023.874;   34.271;  -13.270;  875.760
1024.423;   32.052;  -14.570;  613.700
1024.973;   31.311;  -12.620;  610.760
1025.523;   30.237;  -12.630;  620.960
1026.072;   30.613;  -14.110;  606.420
1026.622;   30.023;  -15.390;  675.740
1027.172;   31.578;   -9.090;  715.660
1027.721;   29.401;  -12.250;  601.220
1028.270;   29.859;  -15.590;  663.400
1028.820;   30.016;  -13.840;  638.080
1029.369;   30.173;  -13.170;  612.700
1029.918;   29.955;  -14.080;  649.840
1030.468;   29.278;  -13.860;  564.780
1031.017;   30.233;  -12.970;  634.800
1031.566;   28.681;  -12.320;  608.900
1032.115;   29.229;  -13.140;  694.500
1032.664;   27.628;  -14.560;  596.480
1033.213;   29.257;  -11.620;  735.420
1033.762;   27.754;  -13.190;  635.620
1034.311;   28.265;  -13.460;  677.220
1034.860;   27.595;  -15.770;  691.000
1035.408;   28.797;  -13.100;  722.720
1035.957;   28.725;  -12.880;  719.540
1036.506;   26.392;  -13.640;  530.800
1037.055;   28.660;  -12.420;  844.320
1037.603;   27.566;  -13.740;  664.000
1038.152;   25.411;  -13.840;  534.760
1038.700;   26.672;  -10.770;  585.740
1039.249;   25.811;  -13.520;  681.220
1039.797;   26.176;  -13.060;  633.360
1040.345;   26.080;  -11.760;  705.420
1040.894;   25.262;  -10.790;  625.300
1041.442;   25.486;  -15.420;  632.200
1041.990;   24.306;  -14.550;  559.160
1042.538;   24.356;  -15.620;  536.180
1043.087;   25.012;  -14.940;  570.860
1043.635;   25.974;  -12.100;  670.500
1044.183;   24.657;  -13.200;  586.400
1044.731;   25.013;  -11.630;  576.000
1045.279;   23.942;  -14.200;  674.920
1045.827;   26.619;  -12.510;  892.400
1046.374;   23.047;  -14.960;  515.420
1046.922;   22.960;  -11.850;  590.580
1047.470;   23.959;  -13.770;  691.300
1048.018;   23.218;  -15.380;  647.960
1048.565;   24.641;  -14.010;  708.600
1049.113;   22.791;  -14.620;  557.000
1049.660;   22.907;  -14.940;  629.660
1050.208;   22.777;  -14.540;  675.640
1050.755;   22.798;  -13.710;  606.580
1051.303;   23.087;  -11.880;  686.820
1051.850;   22.635;  -12.160;  635.120
1052.397;   20.460;  -15.110;  473.960
1052.945;   21.503;  -14.770;  617.760
1053.492;   23.408;  -12.320;  741.840
1054.039;   22.850;  -13.290;  720.180
1054.586;   20.884;  -15.210;  557.240
1055.133;   21.776;  -12.920;  693.140
1055.680;   22.424;  -12.610;  646.620
1056.227;   20.519;  -12.620;  542.780
1056.774;   22.369;  -13.010;  794.980
1057.321;   19.854;  -16.180;  523.260
1057.868;   21.132;  -11.230;  651.320
1058.415;   20.494;  -10.890;  651.980
1058.961;   20.986;  -12.530;  678.940
1059.508;   20.332;  -14.120;  643.820
1060.055;   20.497;  -13.340;  581.780
1060.601;   21.213;  -12.920;  624.300
1061.148;   19.724;  -14.430;  616.820
1061.694;   19.191;  -14.140;  592.580
1062.241;   19.996;  -12.550;  596.320
1062.787;   19.661;  -13.370;  663.140
1063.334;   21.450;  -12.260;  808.560
1063.880;   20.288;  -10.800;  668.360
1064.426;   20.866;   -9.920;  706.820
1064.972;   18.798;  -12.970;  601.340
1065.518;   16.583;  -14.440;  566.640
1066.065;   18.992;  -12.680;  624.460
1066.611;   17.723;  -13.520;  598.800
1067.157;   18.980;  -11.100;  641.860
1067.703;   18.194;  -14.100;  668.480
1068.249;   18.679;  -13.750;  605.220
1068.794;   18.541;  -11.070;  626.880
1069.340;   17.944;  -13.210;  578.960
1069.886;   17.597;  -14.850;  590.700
1070.432;   16.343;  -14.580;  541.720
1070.977;   16.918;  -12.930;  601.080
1071.523;   17.014;  -11.970;  573.060
1072.068;   16.975;  -13.730;  582.000
1072.614;   16.429;  -14.550;  527.760
1073.160;   17.476;  -13.690;  687.040
1073.705;   16.328;  -14.780;  572.520
1074.250;   15.705;  -15.430;  559.900
1074.796;   17.389;  -11.620;  655.160
1075.341;   17.577;  -11.580;  664.100
1075.886;   16.252;  -13.190;  594.240
1076.431;   16.559;  -13.630;  649.880
1076.976;   16.094;  -11.670;  639.220
1077.521;   15.441;  -11.600;  583.080
1078.067;   14.828;  -13.920;  579.400
1078.612;   15.651;  -12.910;  661.620
1079.156;   15.153;  -15.340;  601.540
1079.701;   16.182;  -12.560;  693.260
1080.246;   16.244;  -12.490;  696.300
1080.791;   14.959;  -14.550;  625.020
1081.336;   15.764;  -15.210;  659.320
1081.880;   15.326;  -11.280;  649.680
1082.425;   14.312;  -12.830;  573.480
1082.970;   15.848;  -11.680;  717.040
1083.514;   14.449;  -15.500;  597.000
1084.059;   14.252;  -11.770;  586.720
1084.603;   13.999;  -13.480;  565.840
1085.147;   14.114;  -13.940;  645.220
1085.692;   14.943;  -13.170;  716.800
1086.236;   12.648;  -15.740;  503.140
1086.780;   15.405;  -10.750;  751.440
1087.325;   14.161;  -14.900;  654.620
1087.869;   13.581;  -15.160;  610.700
1088.413;   14.108;  -11.030;  705.040
1088.957;   12.147;  -15.210;  543.400
1089.501;   14.135;  -12.310;  766.640
1090.045;   14.145;  -12.790;  726.480
1090.589;   11.715;  -14.040;  569.920
1091.133;   13.470;  -12.800;  673.340
1091.676;   11.878;  -13.600;  591.940
1092.220;   12.601;  -12.960;  600.920
1092.764;   13.276;  -10.830;  706.960
1093.307;   12.806;  -12.390;  673.780
1093.851;   11.506;  -15.850;  556.540
1094.395;   12.999;  -12.980;  683.140
1094.938;   12.482;  -13.670;  632.520
1095.482;   11.655;  -12.740;  559.800
1096.025;   12.852;  -13.340;  710.880
1096.568;   12.621;  -10.500;  779.280
1097.112;    9.707;  -13.500;  508.180
1097.655;   11.955;  -13.060;  603.000
1098.198;   10.153;  -13.240;  600.180
1098.741;   10.625;  -15.490;  612.860
1099.285;   11.426;  -13.410;  657.300
1099.828;    8.807;  -15.640;  439.400
1100.371;   10.481;  -13.980;  608.160
1100.914;   11.172;  -13.990;  682.660
1101.457;   11.222;  -15.030;  679.900
1101.999;    9.821;  -12.480;  584.680
1102.542;   10.802;  -12.410;  641.440
1103.085;   10.187;  -14.730;  658.500
1103.628;   11.157;  -12.190;  762.060
1104.170;    9.790;  -12.360;  588.280
1104.713;   10.186;  -13.350;  646.700
1105.256;    9.370;  -14.930;  557.440
1105.798;    8.499;  -15.150;  499.980
1106.341;   11.065;  -13.230;  728.900
1106.883;    9.432;  -14.680;  521.340
1107.425;    9.383;  -14.810;  668.180
1107.968;    9.125;  -12.940;  612.380
1108.510;   10.355;  -10.550;  684.960
1109.052;    8.068;  -15.640;  612.620
1109.594;    8.235;  -14.440;  554.440
1110.136;    9.610;  -11.380;  643.220
1110.679;    8.108;  -13.090;  633.080
1111.221;    8.701;  -14.230;  604.460
1111.763;    7.992;  -14.260;  559.220
1112.304;    8.338;  -14.510;  547.140
1112.846;    8.826;  -14.700;  666.240
1113.388;   11.453;  -12.270;  942.180
1113.930;    8.780;  -13.340;  694.200
1114.472;    7.812;  -12.560;  606.540
1115.013;    6.437;  -14.280;  551.280
1115.555;    6.888;  -14.010;  587.100
1116.097;    6.570;  -14.730;  579.480
1116.638;    7.917;  -12.160;  684.600
1117.180;    7.803;  -14.320;  667.740
1117.721;    6.523;  -15.730;  568.580
1118.262;    8.259;  -13.480;  677.960
1118.804;    7.442;  -11.530;  637.340
1119.345;    7.204;  -13.540;  578.400
1119.886;    7.960;  -14.470;  704.040
1120.427;    7.243;  -13.030;  589.020
1120.969;    6.683;  -13.150;  597.920
1121.510;    6.060;  -13.940;  563.060
1122.051;    6.967;  -12.310;  723.580
1122.592;    6.408;  -13.870;  655.420
1123.133;    5.178;  -12.890;  547.940
1123.673;    7.086;  -13.300;  706.480
1124.214;    5.948;  -14.000;  612.460
1124.755;    6.729;  -13.210;  639.460
1125.296;    6.485;  -13.450;  627.320
1125.836;    6.714;  -12.610;  691.500
1126.377;    5.318;  -15.840;  599.660
1126.918;    6.710;  -11.830;  614.980
1127.458;    5.392;  -11.830;  622.220
1127.999;    5.876;  -11.490;  656.980
1128.539;    6.520;  -12.900;  694.240
1129.079;    5.347;  -14.910;  632.720
1129.620;    4.547;  -12.920;  558.100
1130.160;    4.404;  -14.640;  539.480
1130.700;    5.233;  -13.270;  640.840
1131.240;    5.761;  -14.110;  643.700
1131.781;    4.957;  -13.130;  619.680
1132.321;    5.299;  -15.220;  599.120
1132.861;    3.975;  -15.670;  564.200
1133.401;    3.864;  -13.970;  593.940
1133.941;    5.658;  -13.740;  626.280
1134.481;    4.025;  -13.200;  597.580
1135.020;    3.816;  -14.830;  609.160
1135.560;    4.645;  -14.590;  674.940
1136.100;    2.926;  -13.730;  501.160
1136.640;    3.361;  -15.240;  510.480
1137.179;    3.211;  -14.710;  537.960
1137.719;    3.514;  -14.090;  605.400
1138.258;    4.519;  -12.470;  587.360
1138.798;    4.819;  -12.580;  663.780
1139.337;    1.816;  -16.480;  482.840
1139.877;    4.050;  -13.970;  642.360
1140.416;    6.754;   -9.870;  878.060
1140.955;    3.299;  -14.860;  535.380
1141.494;    3.221;  -14.530;  669.280
1142.034;    2.512;  -13.940;  583.520
1142.573;    3.702;  -11.160;  646.280
1143.112;    2.434;  -15.050;  553.480
1143.651;    2.519;  -15.390;  536.480
1144.190;    3.634;  -12.990;  691.640
1144.729;    3.016;  -12.220;  607.420
1145.267;    3.215;  -14.020;  584.900
1145.806;    3.993;  -12.740;  637.040
1146.345;    2.822;  -14.810;  635.020
1146.884;    2.758;  -12.920;  622.500
1147.422;    1.815;  -13.930;  533.060
1147.961;    3.199;  -11.830;  708.460
1148.500;    3.055;  -12.710;  669.720
1149.038;    3.068;  -14.420;  632.500
1149.577;    3.236;  -13.920;  698.640
1150.115;   -0.104;  -17.050;  452.280
1150.653;    2.206;  -14.890;  607.340
1151.192;    2.576;  -15.270;  552.920
1151.730;    2.091;  -13.160;  652.560
1152.268;    0.865;  -15.430;  589.520
1152.806;    2.249;  -15.880;  571.180
1153.344;    0.887;  -13.240;  577.640
1153.882;    2.720;  -13.010;  600.060
1154.421;   -0.431;  -16.180;  470.620
1154.958;    0.537;  -13.880;  595.240
1155.496;    2.443;  -13.590;  645.280
1156.034;    1.208;  -11.910;  721.880
1156.572;    1.384;  -12.010;  667.060
1157.110;    0.414;  -16.250;  473.940
1157.647;    2.387;  -15.230;  676.960
1158.185;    1.128;  -13.770;  564.320
1158.723;   -0.539;  -15.300;  509.200
1159.260;    1.636;  -13.130;  701.700
1159.798;    1.571;  -11.300;  658.160
1160.335;    0.247;  -13.210;  631.820

