
Integration time [ms]:   3.276
Averaging Nr. [scans]: 1000
Smoothing Nr. [pixels]: 0
Data measured with spectrometer [name]: 7414430SP
Wave   ;Sample   ;Dark     ;Reference
[nm]   ;[counts] ;[counts] ;[counts] 

288.544;  149.806;    7.793;  793.890
289.143;  153.865;    7.462;  681.602
289.742;  155.229;    8.602;  828.814
290.341;  139.756;    1.321;  789.841
290.940;  128.070;   -0.709;  730.702
291.538;  129.310;    0.881;  881.108
292.137;  130.450;    0.122;  792.581
292.736;  134.717;   -1.929;  975.101
293.335;  130.593;   -8.229;  735.086
293.934;  130.857;   -5.279;  781.677
294.532;  130.282;   -1.369; 1031.958
295.131;  115.570;   -7.641;  834.394
295.730;  115.417;   -8.420;  809.588
296.328;  114.027;   -5.611;  783.442
296.927;  115.350;   -5.781;  779.652
297.525;  116.662;   -6.361;  781.236
298.124;  106.094;  -11.382;  654.009
298.722;  110.566;   -7.641;  761.933
299.321;  109.751;   -6.811;  708.597
299.919;  107.275;   -6.991;  751.918
300.518;  102.636;  -10.362;  689.338
301.116;  104.858;   -9.581;  691.381
301.715;  104.988;   -4.891;  730.222
302.313;  104.292;   -8.801;  704.943
302.911;   98.287;   -8.522;  733.830
303.509;  104.476;   -6.171;  925.627
304.108;  102.586;   -7.311;  760.383
304.706;  102.276;   -8.321;  801.664
305.304;   95.411;  -10.222;  796.707
305.902;  100.665;   -6.021;  784.484
306.500;   97.106;   -4.971;  728.200
307.098;   96.259;   -7.061;  746.560
307.696;   93.472;   -8.801;  780.432
308.294;   93.951;   -6.411;  731.359
308.892;   96.743;   -2.901;  759.769
309.490;   92.963;   -5.041;  712.161
310.088;   90.030;   -5.002;  788.444
310.686;   95.279;   -2.041;  821.749
311.284;   90.928;   -2.351;  766.040
311.882;   88.710;   -4.422;  731.225
312.480;   85.521;   -4.192;  697.167
313.078;   86.785;   -1.172;  808.331
313.675;   88.087;   -2.601;  691.600
314.273;   83.553;   -1.312;  797.837
314.871;   81.930;   -3.942;  589.829
315.468;   79.722;   -2.802;  652.090
316.066;   83.052;   -0.701;  694.427
316.664;   76.500;   -4.362;  656.351
317.261;   79.538;   -2.872;  910.128
317.859;   74.704;   -2.022;  768.735
318.456;   76.403;   -0.531;  830.096
319.054;   72.844;   -3.912;  787.828
319.651;   70.489;   -4.752;  759.928
320.249;   69.241;   -2.602;  810.188
320.846;   68.777;   -0.821;  714.286
321.443;   65.358;   -4.642;  832.135
322.041;   62.209;   -5.002;  812.315
322.638;   60.028;   -3.982;  701.456
323.235;   61.376;   -3.411;  665.683
323.833;   58.442;   -7.361;  740.354
324.430;   53.808;   -8.611;  615.900
325.027;   54.629;   -4.061;  876.855
325.624;   55.109;   -4.031;  644.532
326.221;   52.395;   -7.481;  689.717
326.818;   51.024;   -5.281;  818.332
327.415;   54.563;   -7.460;  748.828
328.012;   54.874;   -5.510;  690.585
328.609;   53.410;   -7.880;  731.389
329.206;   50.398;   -8.331;  778.621
329.803;   50.438;   -5.121;  737.841
330.400;   53.982;   -4.510;  704.260
330.997;   55.862;   -6.441;  817.147
331.594;   53.337;   -8.831;  788.185
332.191;   58.643;   -7.621;  728.722
332.787;   61.355;   -4.591;  844.463
333.384;   61.000;   -7.412;  763.093
333.981;   58.447;   -8.293;  815.687
334.578;   61.144;   -7.052;  708.378
335.174;   65.279;   -3.102;  731.469
335.771;   64.341;   -5.943;  836.456
336.367;   60.282;   -7.393;  710.631
336.964;   64.645;   -4.063;  793.266
337.561;   62.931;   -3.813;  731.112
338.157;   58.812;   -4.654;  911.916
338.754;   56.201;   -7.934;  796.589
339.350;   53.698;   -4.414;  722.493
339.946;   56.176;   -4.664;  773.135
340.543;   47.958;   -6.375;  846.136
341.139;   41.914;   -9.815;  720.836
341.735;   40.105;   -4.526;  772.593
342.332;   39.215;   -4.895;  691.472
342.928;   39.301;   -4.295;  795.394
343.524;   33.582;   -5.476;  761.684
344.120;   30.518;   -5.856;  738.562
344.716;   33.435;   -2.155;  723.717
345.313;   31.694;   -6.275;  795.342
345.909;   25.841;   -8.815;  627.336
346.505;   27.520;   -5.305;  740.247
347.101;   28.879;   -2.674;  827.864
347.697;   28.969;   -4.344;  785.398
348.293;   23.229;   -9.975;  627.244
348.889;   23.936;   -5.774;  745.914
349.485;   24.162;   -5.004;  688.205
350.081;   23.892;   -4.704;  772.592
350.676;   18.523;   -6.635;  691.606
351.272;   23.389;   -4.504;  809.530
351.868;   22.964;   -3.914;  780.497
352.464;   21.487;   -9.044;  723.932
353.059;   17.291;   -8.314;  646.017
353.655;   19.488;   -7.024;  777.063
354.251;   21.866;   -5.343;  759.845
354.846;   15.870;   -8.604;  740.646
355.442;   13.692;   -6.945;  753.071
356.038;   15.225;   -7.564;  751.708
356.633;   16.301;   -5.814;  728.594
357.229;   13.966;   -7.364;  724.757
357.824;   11.552;   -8.024;  703.600
358.420;   11.512;   -9.384;  679.726
359.015;   12.269;   -5.104;  695.357
359.610;   12.875;   -6.854;  763.920
360.206;    6.968;  -10.185;  603.240
360.801;    9.102;   -7.054;  646.503
361.396;   12.284;   -5.034;  725.975
361.992;    7.535;   -8.284;  668.220
362.587;    4.798;   -8.625;  670.160
363.182;    6.611;   -7.674;  689.631
363.777;    7.889;   -5.164;  738.242
364.372;    7.366;   -8.604;  737.314
364.967;    2.912;   -9.055;  680.744
365.563;    7.533;   -6.114;  815.567
366.158;    4.766;   -5.814;  685.161
366.753;    5.375;   -7.854;  649.263
367.348;    3.166;   -7.804;  746.056
367.942;    3.191;   -7.954;  697.298
368.537;    3.015;   -4.984;  754.245
369.132;    2.903;   -8.564;  703.428
369.727;   -1.779;   -8.855;  638.079
370.322;   -0.192;   -6.245;  580.186
370.917;   -0.061;   -6.425;  710.646
371.511;    3.630;   -6.294;  861.834
372.106;   -1.284;   -7.685;  776.964
372.701;   -3.899;   -7.335;  585.988
373.296;    2.116;   -4.564;  863.135
373.890;   -3.613;  -10.235;  647.840
374.485;   -5.090;   -7.885;  691.199
375.079;   -1.856;   -7.324;  738.685
375.674;    0.637;   -3.494;  812.970
376.268;   -4.107;   -8.525;  691.759
376.863;   -9.896;  -10.086;  580.327
377.457;   -4.456;   -7.025;  662.490
378.052;   -5.268;   -3.585;  764.884
378.646;   -6.267;   -7.595;  741.167
379.240;   -6.685;   -8.335;  721.176
379.835;   -5.665;   -5.785;  636.978
380.429;   -7.020;   -4.335;  562.557
381.023;   -7.080;   -6.805;  779.205
381.617;  -10.801;   -9.195;  680.106
382.212;   -6.892;   -6.905;  685.303
382.806;   -5.494;   -3.745;  760.690
383.400;   -9.402;   -7.745;  672.281
383.994;  -11.217;   -9.765;  664.870
384.588;   -6.328;   -6.564;  697.701
385.182;   -4.935;   -5.344;  726.624
385.776;   -7.677;   -8.514;  706.875
386.370;  -10.729;   -9.555;  681.968
386.964;   -9.692;   -8.715;  684.155
387.558;   -7.308;   -6.174;  598.360
388.152;  -10.326;   -8.725;  681.959
388.745;   -9.937;   -7.965;  814.707
389.339;   -7.777;   -5.924;  747.642
389.933;   -6.424;   -5.524;  695.370
390.527;   -7.390;   -7.114;  859.029
391.120;  -14.949;  -10.725;  595.318
391.714;  -11.316;   -8.035;  711.633
392.308;   -7.321;   -3.574;  780.253
392.901;  -10.983;   -7.245;  642.460
393.495;  -13.621;   -9.285;  595.414
394.089;  -11.342;   -5.895;  760.452
394.682;  -11.089;   -4.295;  697.188
395.275;  -12.029;   -9.875;  719.927
395.869;  -13.806;   -8.485;  667.314
396.462;  -11.933;   -7.455;  616.609
397.056;   -7.783;   -5.424;  776.621
397.649;  -13.080;   -6.605;  731.575
398.242;  -10.638;   -8.224;  712.645
398.836;   -9.641;   -7.474;  766.408
399.429;   -9.637;   -7.094;  631.041
400.022;  -12.955;   -9.475;  665.902
400.615;  -11.375;   -7.145;  805.609
401.208;   -9.976;   -7.174;  691.451
401.802;  -11.139;   -5.515;  699.329
402.395;  -12.489;   -9.875;  683.502
402.988;  -14.242;   -8.845;  696.627
403.581;  -10.631;   -8.874;  646.878
404.174;   -6.955;   -5.324;  686.568
404.767;  -10.644;   -9.575;  638.583
405.360;  -14.140;  -10.965;  621.445
405.953;   -7.773;   -8.764;  759.034
406.545;   -7.197;   -7.514;  725.342
407.138;  -11.227;  -10.025;  618.350
407.731;  -10.898;  -10.034;  613.303
408.324;   -6.334;   -9.374;  660.554
408.917;   -7.693;   -6.534;  681.864
409.509;   -9.368;   -8.004;  740.396
410.102;  -11.854;   -9.875;  643.948
410.695;   -5.308;   -8.604;  665.758
411.287;   -6.610;   -6.794;  599.821
411.880;   -7.385;   -9.334;  585.421
412.472;  -10.567;  -10.254;  613.092
413.065;   -7.686;   -6.714;  629.408
413.657;   -5.462;   -7.234;  576.678
414.250;   -4.649;  -10.544;  646.681
414.842;   -7.866;   -9.744;  676.353
415.434;   -5.863;   -6.994;  570.463
416.027;   -0.432;   -5.893;  652.196
416.619;   -2.774;   -7.264;  713.400
417.211;   -3.768;  -10.374;  599.352
417.804;   -1.019;   -7.993;  628.499
418.396;   -3.541;   -7.234;  607.643
418.988;   -0.687;   -9.443;  659.238
419.580;   -5.066;  -10.724;  568.276
420.172;   -3.505;  -10.323;  536.196
420.764;    2.369;   -8.793;  672.482
421.356;    0.644;  -11.143;  636.898
421.948;   -0.551;   -8.293;  677.661
422.540;    4.766;   -7.893;  680.027
423.132;    4.565;   -7.082;  600.641
423.724;    1.423;   -8.653;  561.267
424.316;    2.637;  -10.213;  621.345
424.908;    5.092;   -9.762;  591.517
425.500;    6.938;   -5.572;  647.978
426.092;    7.837;   -8.422;  648.268
426.683;    5.837;   -9.283;  684.836
427.275;    8.802;   -7.852;  641.471
427.867;   10.855;   -5.272;  668.948
428.458;   11.278;   -7.682;  732.344
429.050;    9.235;  -10.612;  680.749
429.642;   11.735;   -9.882;  743.124
430.233;   12.843;   -6.962;  569.356
430.825;   14.971;   -6.842;  724.809
431.416;   11.213;   -9.672;  698.241
432.008;   14.484;   -6.552;  651.723
432.599;   15.697;   -6.891;  656.073
433.190;   13.161;  -10.912;  637.670
433.782;   12.525;  -11.172;  590.395
434.373;   17.859;   -6.061;  884.765
434.964;   18.509;   -8.251;  602.920
435.556;   16.532;   -9.722;  634.537
436.147;   18.890;   -9.082;  758.490
436.738;   18.426;   -8.041;  701.099
437.329;   23.513;   -7.341;  721.723
437.920;   17.092;   -8.162;  666.688
438.511;   16.971;  -11.802;  564.526
439.103;   23.223;  -10.191;  623.998
439.694;   25.475;   -7.601;  681.583
440.285;   26.394;   -8.541;  764.432
440.876;   24.259;   -9.751;  845.738
441.466;   23.058;   -9.401;  575.162
442.057;   29.014;   -7.760;  665.814
442.648;   27.909;   -9.971;  746.255
443.239;   25.487;  -11.001;  620.477
443.830;   30.886;   -7.990;  704.958
444.421;   32.742;   -7.910;  655.474
445.011;   30.380;   -8.131;  693.619
445.602;   28.714;   -7.111;  743.126
446.193;   30.380;  -10.920;  488.117
446.783;   36.340;   -6.500;  640.397
447.374;   30.812;   -8.671;  692.759
447.964;   31.790;  -10.781;  713.770
448.555;   39.706;   -9.650;  822.742
449.145;   36.941;   -8.660;  662.853
449.736;   37.788;   -8.990;  803.179
450.326;   37.657;   -9.500;  713.626
450.917;   42.196;   -8.680;  675.324
451.507;   41.570;   -7.520;  600.661
452.097;   42.658;   -8.590;  746.267
452.688;   43.493;  -11.340;  742.160
453.278;   43.223;  -10.100;  566.840
453.868;   48.221;   -6.019;  793.550
454.458;   46.136;   -9.440;  651.141
455.048;   45.138;  -10.560;  711.783
455.639;   47.311;  -11.799;  567.096
456.229;   51.291;   -6.899;  710.694
456.819;   53.007;   -7.389;  751.158
457.409;   53.074;  -11.119;  773.993
457.999;   55.186;   -9.289;  737.505
458.589;   56.488;   -6.139;  686.606
459.179;   56.544;   -8.729;  717.658
459.769;   53.817;   -9.789;  627.099
460.358;   59.129;  -10.259;  797.262
460.948;   59.256;   -7.299;  689.503
461.538;   61.678;  -10.289;  660.677
462.128;   58.622;  -11.269;  664.934
462.717;   65.277;   -9.368;  710.326
463.307;   68.567;   -7.908;  705.846
463.897;   64.853;   -9.599;  656.942
464.486;   63.289;   -9.769;  837.128
465.076;   68.171;   -8.048;  733.776
465.666;   72.284;   -9.358;  652.900
466.255;   69.402;   -7.919;  785.651
466.845;   68.406;  -11.689;  666.749
467.434;   71.762;   -7.818;  725.873
468.023;   72.979;   -7.678;  658.357
468.613;   71.021;  -10.939;  713.946
469.202;   74.616;  -10.118;  646.507
469.791;   78.023;   -9.108;  737.811
470.381;   81.114;   -6.058;  742.813
470.970;   81.214;  -10.428;  711.099
471.559;   80.074;  -10.268;  733.291
472.148;   83.438;   -8.448;  675.737
472.738;   86.209;   -6.917;  765.466
473.327;   85.992;  -11.978;  637.529
473.916;   85.191;  -11.888;  737.446
474.505;   89.879;   -9.437;  751.703
475.094;   93.175;   -6.747;  806.570
475.683;   92.730;   -9.367;  797.699
476.272;   92.909;  -12.637;  730.632
476.861;   95.923;  -10.027;  706.754
477.449;  103.263;   -8.716;  728.487
478.038;   97.521;   -9.577;  692.513
478.627;   98.234;   -9.718;  714.852
479.216;  105.313;   -8.947;  769.441
479.805;  108.237;   -6.256;  783.375
480.393;  108.543;   -7.937; 1008.945
480.982;  106.257;   -7.717;  874.501
481.571;  113.769;   -9.266;  858.333
482.159;  114.529;   -7.636;  705.386
482.748;  114.543;   -9.667;  821.385
483.336;  118.173;  -10.376;  858.209
483.925;  119.534;   -7.147;  774.373
484.513;  126.379;   -7.996;  758.962
485.102;  123.659;  -10.027;  810.965
485.690;  132.075;  -10.446; 1011.050
486.278;  133.676;   -8.446;  979.329
486.867;  135.086;   -6.356;  809.662
487.455;  138.416;   -9.136;  898.229
488.043;  138.038;  -10.646;  748.361
488.631;  147.040;   -7.456; 1005.079
489.220;  151.630;   -6.636;  908.626
489.808;  151.546;  -11.036;  741.415
490.396;  159.884;  -10.246;  914.645
490.984;  165.716;   -8.556;  830.161
491.572;  176.301;   -5.886;  940.315
492.160;  183.162;   -9.486;  919.081
492.748;  194.788;  -10.976;  884.341
493.336;  219.591;   -8.776; 1019.693
493.924;  247.633;   -5.465;  958.077
494.512;  276.915;   -9.986; 1066.638
495.100;  317.076;  -10.636; 1103.280
495.687;  375.115;  -10.885; 1206.373
496.275;  443.718;   -8.126; 1150.796
496.863;  518.594;  -10.586; 1281.171
497.451;  627.796;  -11.926; 1386.805
498.038;  766.018;  -10.885; 1556.729
498.626;  880.947;   -6.315; 1741.407
499.214; 1035.110;   -7.326; 2016.609
499.801; 1246.522;  -11.906; 2220.633
500.389; 1510.254;  -10.466; 2312.494
500.976; 1843.101;   -5.236; 2744.849
501.564; 2309.243;   -8.936; 3148.565
502.151; 2715.827;  -13.176; 3515.999
502.738; 3202.809;  -10.646; 3971.274
503.326; 3604.240;   -9.525; 4403.796
503.913; 4003.109;  -10.856; 5161.749
504.500; 4391.605;  -11.586; 5986.420
505.088; 4838.996;  -10.336; 6381.201
505.675; 5406.386;   -6.355; 6925.547
506.262; 6181.620;   -9.046; 7619.060
506.849; 6932.921;  -10.416; 8733.969
507.436; 7432.299;  -10.305; 9790.121
508.023; 8059.553;   -5.496; 9985.472
508.610; 8339.703;   -7.856;10434.618
509.197; 9025.842;  -10.097;11198.435
509.784;10498.845;  -10.886;12391.194
510.371;11579.626;   -9.315;13603.713
510.958;12328.481;   -9.936;14426.586
511.545;13169.968;   -9.326;15243.775
512.132;14187.339;  -10.075;15945.876
512.719;14850.384;   -7.796;16340.369
513.305;15808.191;  -10.606;18011.766
513.892;16600.875;  -11.486;19754.971
514.479;18010.033;   -9.126;20967.805
515.066;19549.553;   -6.026;22299.793
515.652;20836.025;   -8.466;22908.660
516.239;22244.889;  -10.886;23798.875
516.825;23463.803;  -11.496;25567.275
517.412;24613.199;   -5.796;28154.959
517.998;25221.691;  -10.506;28344.111
518.585;25256.314;  -10.076;27134.219
519.171;25851.461;   -8.315;27268.576
519.758;27393.453;   -8.596;28964.129
520.344;29261.652;   -8.466;30664.494
520.930;29317.322;  -11.006;32550.605
521.516;30965.783;  -10.495;35422.895
522.103;33545.777;   -5.526;38280.004
522.689;34183.379;   -8.746;37835.117
523.275;33544.383;  -11.376;37288.613
523.861;34677.035;  -11.156;37281.395
524.447;36039.367;   -8.135;37846.949
525.033;35727.051;   -7.896;38321.949
525.619;36031.297;  -12.476;38579.285
526.205;37876.410;   -9.516;40622.875
526.791;40180.844;   -6.926;42258.836
527.377;40295.754;   -8.346;42966.902
527.963;42146.613;   -8.717;42018.949
528.549;40436.375;  -11.016;42476.828
529.135;39134.152;   -8.536;41854.852
529.721;38587.648;   -9.666;41237.711
530.306;37851.242;  -10.066;41259.445
530.892;37658.078;  -11.356;41506.047
531.478;39149.848;   -6.596;43559.613
532.063;42160.676;   -8.836;47695.563
532.649;42450.594;  -10.047;50808.324
533.235;43527.777;   -9.746;51787.500
533.820;44365.043;   -6.566;52145.035
534.406;45936.641;  -10.817;51133.488
534.991;45829.742;   -9.416;49996.805
535.576;44379.645;   -9.036;48882.852
536.162;44751.961;   -6.156;46942.285
536.747;45799.961;  -11.607;45711.746
537.333;49979.355;  -11.787;48510.180
537.918;52854.656;  -12.437;50439.891
538.503;51088.012;   -7.196;50863.711
539.088;47660.844;  -10.556;50906.922
539.673;47643.578;   -8.767;52621.965
540.259;47501.656;  -10.026;52368.094
540.844;44602.852;   -7.416;50879.109
541.429;45763.348;   -9.467;52077.777
542.014;48961.273;   -9.527;52716.695
542.599;48450.488;   -9.946;52363.281
543.184;46173.750;   -7.927;53187.137
543.769;47657.012;   -9.297;54697.605
544.354;46854.922;  -10.127;53913.914
544.938;45519.582;   -9.267;49680.164
545.523;47411.523;   -6.506;47386.277
546.108;50081.805;   -9.787;49151.949
546.693;52405.121;  -11.587;51384.637
547.278;52189.641;  -10.986;51853.254
547.862;48994.820;   -8.206;51173.750
548.447;44282.438;  -10.067;51691.395
549.031;44009.020;   -9.637;52456.703
549.616;49089.949;   -9.926;52714.516
550.201;48030.203;   -6.347;52414.598
550.785;49198.402;   -7.917;52355.059
551.370;48396.598;  -10.867;54589.453
551.954;48373.258;   -9.047;58267.348
552.538;49123.660;   -7.827;59062.176
553.123;47471.520;  -10.287;58115.285
553.707;45420.637;  -12.178;56556.285
554.291;46690.273;   -8.717;56201.668
554.876;48757.195;   -7.457;55335.762
555.460;49064.930;  -10.387;54155.703
556.044;50360.543;   -9.618;53721.484
556.628;48886.453;  -11.567;53731.016
557.212;47475.410;   -8.097;54312.531
557.796;45901.668;  -11.077;53797.773
558.380;45691.055;  -11.108;56145.984
558.964;45949.305;   -9.057;57277.930
559.548;47136.117;   -6.977;56459.641
560.132;45723.316;  -11.457;54434.543
560.716;44420.168;  -11.378;54800.617
561.300;45528.672;   -9.577;57606.945
561.884;46549.707;   -7.127;58972.445
562.467;45014.488;   -7.118;57327.570
563.051;44290.625;  -13.358;54962.434
563.635;45238.047;  -10.178;52594.473
564.219;45480.965;   -7.837;50610.410
564.802;46318.305;  -11.398;49551.180
565.386;46372.895;  -12.788;48370.953
565.969;45808.410;   -9.077;48178.871
566.553;45303.992;   -6.207;49957.305
567.136;45622.254;   -8.568;50369.594
567.720;41696.043;  -11.868;49492.004
568.303;39686.219;   -8.268;50616.352
568.887;39851.934;   -8.698;50727.148
569.470;39992.383;   -6.808;51698.379
570.053;38530.625;  -13.188;52122.078
570.637;36953.934;  -12.037;52536.438
571.220;36690.012;   -8.577;51186.098
571.803;37214.137;   -8.498;51032.762
572.386;39661.355;  -10.498;49609.887
572.969;42068.508;   -9.388;48285.926
573.552;39995.848;   -8.338;47624.285
574.135;38730.961;   -8.518;45498.641
574.718;36269.176;  -13.628;41970.434
575.301;35089.809;  -10.893;41447.137
575.884;33910.441;   -8.158;40923.836
576.467;35257.238;  -10.328;45267.723
577.050;37570.734;  -13.058;48175.543
577.633;39055.270;   -9.458;47729.328
578.216;37888.320;   -8.928;47579.793
578.799;36823.801;   -9.358;47820.996
579.381;35463.387;  -11.388;48115.551
579.964;33715.527;  -11.718;47333.766
580.547;35489.457;   -8.588;46668.969
581.129;36864.504;   -8.859;44466.141
581.712;37652.996;  -10.729;44164.922
582.294;38284.672;  -11.118;46477.855
582.877;38028.586;   -5.218;48244.254
583.459;35379.891;   -8.679;47437.895
584.042;33574.254;  -10.709;46943.219
584.624;34311.992;  -11.669;46792.227
585.206;33706.137;   -8.218;46557.250
585.789;33813.348;  -10.569;45793.773
586.371;36725.230;  -11.859;43836.391
586.953;37300.836;  -10.719;42972.492
587.536;38604.184;   -7.198;42487.211
588.118;38247.145;   -8.720;42086.414
588.700;34782.254;  -10.439;43389.930
589.282;34003.203;   -9.198;43646.039
589.864;34881.922;   -9.199;43438.109
590.446;35748.645;  -11.319;43151.926
591.028;35594.719;  -11.159;42781.867
591.610;34557.645;  -11.779;42839.098
592.192;32029.322;   -7.668;42820.402
592.774;30568.486;  -11.949;40724.277
593.356;29312.893;  -12.129;39874.789
593.937;28298.783;  -10.669;39980.648
594.519;30474.135;   -6.509;42069.633
595.101;32672.568;  -10.849;42976.031
595.683;32757.973;  -11.679;44084.441
596.264;33967.250;   -9.049;43478.797
596.846;33207.078;   -8.849;43803.672
597.427;32963.438;   -9.570;42986.934
598.009;34652.621;  -12.620;42832.219
598.591;34983.582;  -10.039;42580.086
599.172;33985.594;  -10.369;43061.805
599.753;34052.191;   -9.140;41691.469
600.335;35709.574;  -11.430;40692.520
600.916;34097.316;   -9.939;39982.422
601.498;31508.047;   -8.479;40318.617
602.079;30054.219;  -10.920;40670.609
602.660;30115.701;  -11.480;41450.898
603.241;31681.682;  -11.699;41137.738
603.823;30453.342;   -9.579;38868.797
604.404;30185.627;  -10.620;38182.785
604.985;31610.264;  -10.450;38078.047
605.566;31171.170;   -9.129;38056.633
606.147;31305.527;   -7.510;37020.418
606.728;33007.609;  -10.660;37883.359
607.309;31698.281;  -11.740;38748.273
607.890;31090.277;   -9.759;38850.230
608.471;30583.432;   -8.250;37457.918
609.051;29676.279;   -9.240;36066.457
609.632;28672.955;  -12.120;35991.074
610.213;29578.629;   -9.110;37402.641
610.794;30210.395;   -8.030;38383.363
611.374;29644.057;   -8.110;40562.387
611.955;29997.287;  -13.560;38533.727
612.536;31233.477;  -11.400;36951.789
613.116;31220.260;   -8.070;37197.891
613.697;31504.480;  -10.830;38411.125
614.277;30143.029;  -11.641;38673.938
614.858;31116.504;  -13.310;37075.863
615.438;30107.949;   -7.460;35092.906
616.019;27245.600;   -7.601;33666.301
616.599;27934.283;  -12.020;34189.023
617.179;29760.223;  -11.780;36952.047
617.760;30619.563;   -8.570;39582.574
618.340;31698.691;  -11.471;38943.977
618.920;33134.527;  -11.170;37594.156
619.500;32995.504;  -11.071;37866.938
620.080;32151.605;   -7.750;37869.043
620.660;33318.840;  -12.711;36868.617
621.241;34641.164;  -10.211;36352.309
621.821;34773.652;  -10.961;35459.520
622.401;33726.422;   -7.720;35207.414
622.980;33036.945;   -8.981;35980.422
623.560;31530.756;   -9.331;37351.328
624.140;30384.330;   -9.850;34388.582
624.720;25086.967;   -7.451;32368.764
625.300;21576.482;   -9.070;32638.629
625.880;25018.129;  -12.601;34599.035
626.459;28991.734;  -11.751;36831.738
627.039;32232.547;   -9.281;38299.098
627.619;32214.537;   -8.801;38289.574
628.198;30541.244;  -12.071;37220.695
628.778;29650.824;   -9.461;37632.563
629.357;30398.746;   -8.491;38003.012
629.937;30509.344;   -9.721;38402.039
630.516;29967.498;   -9.951;37868.801
631.096;29601.154;  -11.731;35760.410
631.675;32451.914;   -8.572;35225.219
632.254;37551.156;  -11.282;35130.289
632.834;36971.344;  -13.322;35794.570
633.413;34954.777;  -10.301;35788.922
633.992;31880.262;   -8.582;34532.863
634.571;32721.818;   -8.352;33590.113
635.151;35759.973;  -11.912;34943.863
635.730;34213.441;  -10.511;35352.523
636.309;30737.119;   -7.731;35366.605
636.888;28307.563;   -9.952;36165.637
637.467;29232.537;  -11.672;37515.902
638.046;30921.170;   -8.901;39288.695
638.625;34042.824;   -7.912;38279.699
639.204;33688.289;  -10.022;37741.598
639.782;32140.457;  -12.252;38364.551
640.361;28486.479;  -10.041;36740.621
640.940;25593.836;  -11.161;34950.082
641.519;26223.246;   -9.701;34137.398
642.097;29217.902;  -11.271;35654.258
642.676;32009.203;   -8.651;35637.957
643.255;32488.656;   -8.711;36567.074
643.833;31592.469;   -9.581;37809.434
644.412;31799.945;  -13.711;37337.293
644.990;30980.133;  -11.811;37018.531
645.569;31002.246;   -9.411;36518.469
646.147;29695.191;  -10.291;36186.430
646.726;29236.652;  -12.401;36267.688
647.304;30393.711;  -10.411;36647.625
647.882;32370.432;   -9.651;39286.742
648.461;34121.188;   -9.631;39157.703
649.039;32260.605;  -11.881;35412.883
649.617;31680.953;   -9.661;34744.918
650.195;31436.344;   -9.301;35403.098
650.773;29898.424;  -10.511;35053.797
651.352;27425.479;  -11.521;33756.816
651.930;25165.146;  -12.211;31868.773
652.508;23698.430;   -9.171;33121.551
653.086;27663.148;   -9.371;33564.793
653.663;30329.580;  -13.161;34054.668
654.241;29284.195;  -13.031;35693.309
654.819;30972.734;   -9.371;36422.906
655.397;31115.818;  -10.511;38213.484
655.975;30984.686;  -10.371;39507.625
656.553;30704.795;  -10.051;39498.223
657.130;28983.707;  -10.061;40395.480
657.708;28300.324;   -9.561;39242.020
658.286;28316.197;  -11.511;38920.020
658.863;29587.227;  -10.261;40202.898
659.441;32630.678;   -7.531;39677.938
660.018;32079.578;   -9.501;40413.355
660.596;31001.297;  -13.301;39931.414
661.173;33010.578;  -11.211;39604.531
661.750;33051.418;   -9.951;39700.070
662.328;31838.102;   -9.390;39292.809
662.905;30903.135;  -11.330;38235.648
663.482;26480.867;   -9.050;36212.305
664.060;24649.250;   -8.240;35944.945
664.637;27578.480;  -10.050;35170.785
665.214;29476.479;  -11.760;34197.523
665.791;30846.770;  -10.530;34549.520
666.368;29597.406;   -9.690;35118.578
666.945;30458.389;   -9.320;36019.418
667.522;31963.703;  -11.860;36048.438
668.099;31784.199;  -10.770;36243.914
668.676;30707.713;   -6.260;35958.875
669.253;29259.852;   -7.000;37384.730
669.830;29955.908;  -10.190;36779.629
670.407;29713.445;   -9.550;35231.289
670.984;29700.596;   -9.260;35544.270
671.560;30058.904;   -9.280;35466.867
672.137;29131.934;  -11.810;34280.863
672.714;29999.854;  -11.490;34632.863
673.290;30484.432;   -7.740;35135.422
673.867;30830.281;  -10.660;36114.480
674.443;30596.861;  -12.230;36152.859
675.020;28882.301;  -10.450;35327.238
675.596;29931.377;   -9.260;35795.176
676.173;30321.004;  -10.780;35430.355
676.749;30151.918;  -13.690;33549.516
677.326;30240.271;  -11.980;32210.012
677.902;30206.736;   -8.630;32068.871
678.478;29514.473;  -10.730;32583.891
679.054;29013.504;  -10.520;32088.928
679.631;29171.982;  -11.920;30978.848
680.207;30814.078;   -7.490;33160.887
680.783;32520.248;   -9.860;35570.363
681.359;31615.559;  -13.380;36125.184
681.935;30872.641;  -12.480;35240.922
682.511;29857.086;   -7.900;34429.961
683.087;30010.936;   -7.710;34463.680
683.663;29703.383;  -11.480;34648.898
684.239;28439.959;  -14.090;34546.457
684.815;28031.639;   -7.560;35586.375
685.390;28306.344;   -9.910;35821.895
685.966;28768.506;  -11.159;35085.871
686.542;31314.102;  -11.169;34198.230
687.118;33338.539;   -5.959;32847.707
687.693;33517.820;  -10.329;32794.027
688.269;33266.406;  -12.059;33072.367
688.844;31341.445;  -10.909;33141.664
689.420;28989.148;   -8.019;33965.742
689.995;26598.553;   -8.399;34655.523
690.571;25268.748;  -10.949;33576.742
691.146;25916.533;   -9.619;32657.219
691.722;25470.084;   -8.999;32526.979
692.297;25533.621;  -11.589;33014.617
692.872;27486.576;  -11.739;34012.254
693.448;26906.441;  -11.059;34237.434
694.023;26108.986;  -10.139;34142.672
694.598;28100.908;   -9.029;34132.031
695.173;28338.131;  -13.319;34205.250
695.748;27544.744;  -10.169;32882.488
696.323;27543.014;   -8.339;32864.906
696.898;27845.975;   -8.169;33170.004
697.473;27672.840;  -12.309;32432.984
698.048;27179.572;  -10.989;31649.303
698.623;27275.445;   -9.329;30778.141
699.198;29325.691;   -9.849;31140.119
699.773;30097.258;  -12.329;31764.299
700.348;28322.201;  -10.389;31780.816
700.922;28239.414;   -9.269;32046.375
701.497;28944.691;   -9.329;32603.574
702.072;29162.670;  -10.789;34799.871
702.646;27954.797;  -10.839;35793.172
703.221;26031.584;   -9.099;35201.590
703.795;28100.869;  -10.939;34764.527
704.370;28380.180;  -12.859;34307.367
704.944;28787.039;  -11.559;33509.887
705.519;29722.754;   -7.939;31388.584
706.093;31267.006;  -10.499;31340.104
706.668;31433.666;  -11.289;32630.281
707.242;30366.061;  -11.509;32728.779
707.816;28802.447;   -9.639;32947.238
708.390;27179.676;  -11.429;33277.855
708.965;27812.803;  -11.869;33834.336
709.539;28079.064;  -11.689;33709.273
710.113;28621.561;  -10.478;33044.313
710.687;27989.957;  -10.228;31953.992
711.261;26237.180;  -13.698;30505.949
711.835;26062.416;  -13.378;30262.369
712.409;26934.088;   -9.698;31254.447
712.983;28773.389;  -11.898;32754.986
713.557;29625.021;  -15.138;34018.824
714.131;29233.863;  -14.098;34579.625
714.704;28317.436;   -9.958;33890.262
715.278;26109.557;  -10.028;33531.102
715.852;25230.369;  -11.148;33601.660
716.425;26098.232;   -9.068;33515.117
716.999;26696.625;  -10.038;33185.555
717.573;27708.760;   -9.798;33905.996
718.146;28842.295;  -12.378;35199.293
718.720;28744.992;  -11.918;35060.551
719.293;28152.602;   -8.088;34973.230
719.867;30966.557;  -10.888;36394.449
720.440;30531.807;  -11.938;36663.008
721.013;28800.096;  -12.818;35102.426
721.587;27503.658;  -10.298;33985.266
722.160;26660.975;  -10.048;33524.965
722.733;25644.152;  -12.108;32987.043
723.306;25935.494;  -10.818;33066.301
723.880;28248.252;   -8.908;33399.500
724.453;29965.070;   -9.878;33468.297
725.026;28959.773;  -11.188;33816.637
725.599;26483.559;  -11.678;32797.996
726.172;27062.391;   -9.618;33187.434
726.745;28170.111;   -8.258;35136.613
727.318;29558.299;  -12.978;35751.730
727.891;29915.391;  -12.148;35890.430
728.463;29523.990;   -8.968;34822.090
729.036;28597.152;  -10.188;32895.086
729.609;29016.070;  -11.788;31823.225
730.182;25963.250;  -11.788;31445.283
730.754;23414.219;  -10.268;32373.223
731.327;23321.531;   -9.998;33676.820
731.900;23694.094;  -12.228;33417.000
732.472;25124.127;  -13.848;31978.498
733.045;26964.588;   -8.698;30368.777
733.617;27070.338;  -10.607;30574.215
734.190;26605.732;  -11.507;31280.975
734.762;23642.779;  -13.647;31674.412
735.334;22050.582;   -9.767;31247.291
735.907;22750.443;   -9.897;29876.211
736.479;22785.451;  -11.637;29808.488
737.051;22418.719;   -9.567;30233.547
737.623;23392.908;   -8.187;31469.086
738.195;24301.975;  -11.187;31784.225
738.768;26207.281;  -12.337;32120.523
739.340;26176.328;  -12.227;32094.342
739.912;24881.293;  -11.057;31312.680
740.484;23496.266;  -10.207;31946.238
741.056;22561.807;  -10.047;32984.059
741.628;24455.566;  -13.627;33897.715
742.199;26682.736;   -7.177;33213.016
742.771;24943.436;  -10.797;31369.113
743.343;22524.080;  -11.997;31865.473
743.915;21569.588;  -12.867;32388.631
744.487;21811.031;   -7.617;31079.568
745.058;22051.119;   -9.557;30570.107
745.630;22491.934;   -9.877;29970.127
746.201;23130.023;  -14.177;29186.766
746.773;23348.447;   -9.237;28805.723
747.344;23172.785;   -9.847;29591.223
747.916;22000.645;  -11.657;31412.201
748.487;22365.568;  -10.587;32194.898
749.059;23532.768;   -8.707;32533.719
749.630;24171.395;  -10.537;32158.518
750.201;23306.459;  -11.687;30855.395
750.773;21554.232;  -11.647;28622.555
751.344;21479.584;   -7.147;28405.732
751.915;22685.395;   -9.757;28461.551
752.486;22446.578;  -12.427;27842.850
753.057;20200.766;  -12.227;27845.008
753.628;19056.893;  -10.417;27728.107
754.199;20227.525;  -11.767;27381.086
754.770;21182.467;  -11.187;25882.203
755.341;21136.990;  -10.507;25886.184
755.912;21069.746;   -9.387;26050.861
756.483;20519.150;  -10.647;26798.779
757.054;18792.955;  -11.837;27048.238
757.625;17596.549;  -12.716;26294.838
758.195;17425.094;   -9.666;26142.076
758.766;17173.461;   -8.656;26392.234
759.337;17952.846;  -12.856;26334.594
759.907;19678.576;  -13.366;27579.652
760.478;20542.568;   -8.576;28352.770
761.048;19870.469;  -10.526;27325.088
761.619;19080.371;  -11.116;26460.428
762.189;19164.664;  -12.136;26029.826
762.760;20313.328;   -9.456;26430.145
763.330;21339.313;   -7.136;26670.902
763.900;20679.787;  -11.786;26603.021
764.471;18073.926;  -11.546;25542.740
765.041;16852.115;   -8.096;24358.459
765.611;16945.885;   -8.876;23991.297
766.181;17342.275;  -12.196;24470.236
766.751;18242.145;  -11.636;24845.975
767.321;17969.387;  -10.156;24533.633
767.891;16035.889;  -11.766;24916.492
768.461;15553.571;  -14.936;24776.771
769.031;16088.424;  -12.356;24757.988
769.601;17574.039;   -7.526;24181.088
770.171;17389.254;  -10.766;23670.387
770.741;16744.590;  -13.176;22960.045
771.311;17028.092;  -10.616;22917.523
771.880;17344.063;   -9.576;23562.941
772.450;17011.516;  -10.336;24216.500
773.020;17101.674;  -13.516;24140.398
773.589;16499.877;  -13.466;24414.857
774.159;15824.836;   -8.686;23858.717
774.729;15391.274;   -9.476;22942.135
775.298;14894.113;  -13.666;22324.033
775.867;14504.240;  -11.716;21140.313
776.437;14507.565;   -9.906;20838.092
777.006;14283.408;  -12.166;20599.510
777.576;14223.037;  -12.356;20508.809
778.145;14396.732;  -11.646;20732.947
778.714;14251.271;   -8.226;21062.465
779.283;13468.070;   -9.556;20949.664
779.853;13018.646;  -14.116;20508.623
780.422;13492.027;  -11.506;20649.082
780.991;13078.222;   -9.556;21527.520
781.560;11956.597;   -9.095;22632.658
782.129;11809.553;  -12.135;23048.277
782.698;11825.048;  -10.865;23438.555
783.267;11450.331;   -9.335;23267.734
783.836;11466.133;  -11.045;22415.133
784.404;12506.847;  -13.865;20443.152
784.973;13042.966;  -13.095;19699.150
785.542;12953.444;  -11.575;19763.828
786.111;12792.937;   -9.705;20341.408
786.679;12252.882;  -12.105;20207.967
787.248;11995.104;  -12.455;19516.465
787.817;11828.390;  -11.535;18900.363
788.385;11436.956;   -9.765;17879.121
788.954;10860.626;  -14.005;17658.301
789.522;10362.149;  -11.955;17788.879
790.090;10921.418;  -10.135;18118.277
790.659;11276.516;  -10.975;18338.736
791.227;10782.537;  -13.375;18508.615
791.795;11255.099;  -12.375;17898.254
792.364;11603.097;  -10.725;17295.133
792.932;11856.366;   -9.715;16822.051
793.500;12001.037;  -12.675;17040.148
794.068;12217.393;  -13.495;17179.787
794.636;12313.175;  -10.885;16664.246
795.204;11785.352;  -11.045;16524.545
795.772;11868.706;  -13.175;17274.564
796.340;11427.672;  -12.445;17891.002
796.908;11286.920;   -9.735;17648.561
797.476;11170.937;   -9.815;17064.080
798.044;10708.693;  -13.985;16672.777
798.612; 9876.543;  -13.115;17023.996
799.180; 9461.920;  -10.185;16561.615
799.747; 9393.958;   -9.055;15962.773
800.315; 9137.694;  -12.385;15296.992
800.883; 8791.714;  -15.035;14801.771
801.450; 8774.889;  -10.365;14534.430
802.018; 8825.735;   -9.855;14173.248
802.585; 8981.355;  -11.905;14029.547
803.153; 9056.452;  -11.585;13836.846
803.720; 8901.842;   -9.095;13567.324
804.287; 8490.017;   -9.135;13360.622
804.855; 8103.399;  -11.604;13681.981
805.422; 7954.778;  -11.794;13536.560
805.989; 7940.833;  -10.734;13355.958
806.556; 8140.901;  -10.444;13747.896
807.124; 8401.299;  -12.764;13987.376
807.691; 8357.779;  -12.964;14038.674
808.258; 8150.452;  -11.134;14120.152
808.825; 7829.416;   -9.854;13860.111
809.392; 7874.647;  -10.504;13268.790
809.959; 7397.696;  -13.054;12680.389
810.526; 7003.597;   -8.294;12427.308
811.093; 7083.952;   -8.394;12030.105
811.659; 7655.019;  -12.304;11653.664
812.226; 8090.502;  -13.944;11637.183
812.793; 7744.999;  -10.484;11611.521
813.360; 7133.139;  -10.144;11885.181
813.926; 6858.010;  -11.684;12770.539
814.493; 6662.922;  -13.644;12677.638
815.060; 6302.397;   -9.724;11974.336
815.626; 6325.338;   -9.854;11594.715
816.193; 6718.176;  -13.254;11579.474
816.759; 6729.883;  -13.204;11666.972
817.325; 6802.234;   -9.434;11325.530
817.892; 7162.650;  -10.134;11105.369
818.458; 7587.068;  -13.474;10843.928
819.024; 7209.156;  -11.854;10714.406
819.591; 6877.957;  -10.244;10469.165
820.157; 6672.073;  -10.704;10235.523
820.723; 6200.361;  -12.324;10847.563
821.289; 5881.587;   -9.444;11040.980
821.855; 5761.349;   -8.374;10357.100
822.421; 5689.853;  -10.234; 9978.918
822.987; 5684.927;  -13.294; 9754.177
823.553; 5414.777;  -10.884;10065.755
824.119; 5262.130;   -8.884;10036.294
824.685; 5333.016;   -6.784;10029.192
825.251; 5404.237;  -12.004;10199.230
825.816; 5356.879;  -11.474; 9820.189
826.382; 5143.859;   -9.174; 9297.248
826.948; 5363.883;   -9.214; 9381.347
827.513; 5721.767;  -10.774; 9450.726
828.079; 5525.078;  -11.924; 9472.444
828.645; 4987.919;  -10.543; 9292.643
829.210; 4935.551;  -10.533; 9065.341
829.776; 4927.326;  -10.753; 9132.620
830.341; 4806.874;  -10.173; 9092.878
830.906; 4991.708;  -10.743; 9078.557
831.472; 5310.057;  -11.113; 8534.535
832.037; 5019.875;  -10.603; 8677.874
832.602; 4477.336;  -13.323; 8628.692
833.167; 4242.661;  -10.823; 8879.031
833.733; 4184.913;  -10.113; 9189.790
834.298; 4301.943;  -13.583; 9052.608
834.863; 4340.762;  -12.703; 8895.087
835.428; 4320.169;  -10.523; 8824.266
835.993; 4205.614;   -6.963; 8845.385
836.558; 4084.234;  -10.763; 8888.563
837.123; 4222.883;   -9.903; 8966.582
837.688; 4430.319;   -9.913; 8617.860
838.253; 4644.241;  -10.283; 8590.699
838.817; 4842.018;  -12.963; 8443.797
839.382; 4746.233;  -14.243; 8799.356
839.947; 4441.542;  -10.733; 8810.595
840.511; 4144.125;   -9.383; 8796.394
841.076; 3777.982;  -12.563; 8347.231
841.641; 3836.551;  -12.953; 8224.330
842.205; 3938.554;   -7.043; 8223.349
842.770; 4058.791;   -8.163; 8622.107
843.334; 4243.069;  -12.503; 8410.386
843.898; 4203.659;  -11.693; 8337.465
844.463; 4216.567;  -10.203; 8506.283
845.027; 3984.042;   -9.533; 8280.962
845.591; 3802.863;  -13.443; 8231.141
846.156; 3771.640;  -13.143; 7969.179
846.720; 3651.078;   -9.433; 7768.278
847.284; 3521.081;  -11.033; 7630.957
847.848; 3394.745;  -10.403; 7472.395
848.412; 3313.702;  -11.553; 7437.394
848.976; 3356.364;   -8.393; 7674.592
849.540; 3300.029;   -8.713; 7836.011
850.104; 3424.767;  -12.463; 7913.669
850.668; 3759.538;  -12.973; 7694.508
851.232; 3841.279;  -10.793; 7756.887
851.796; 3680.723;  -10.662; 7926.545
852.359; 3403.181;  -13.082; 7827.844
852.923; 3248.325;  -12.192; 7641.163
853.487; 3067.392;  -11.912; 7342.501
854.050; 3020.245;  -10.892; 7042.820
854.614; 3149.543;  -13.992; 7151.338
855.177; 3273.891;  -11.732; 7105.077
855.741; 3307.351;   -8.962; 6989.675
856.304; 3199.839;   -9.442; 6596.634
856.868; 3147.589;  -14.192; 6356.272
857.431; 3244.447;  -12.702; 6468.571
857.995; 3363.606;   -9.942; 6373.210
858.558; 3369.654;   -9.112; 6324.448
859.121; 3097.806;  -12.932; 6408.327
859.684; 2984.972;  -13.442; 6347.886
860.247; 3091.797;  -10.632; 6321.264
860.810; 3079.361;  -11.272; 6301.903
861.374; 2825.137;   -9.832; 6607.881
861.937; 2579.675;  -11.762; 6408.200
862.500; 2580.446;   -9.722; 6572.639
863.062; 2761.828;  -10.512; 6387.297
863.625; 2929.837;  -11.232; 6190.836
864.188; 3088.841;  -14.112; 5807.254
864.751; 3148.899;  -11.302; 5682.413
865.314; 3034.366;  -10.112; 5547.492
865.876; 2835.882;  -12.182; 5500.150
866.439; 2823.408;  -10.722; 5415.909
867.002; 2767.443;   -9.252; 5501.567
867.564; 2557.888;   -9.572; 5413.946
868.127; 2341.446;  -13.142; 5160.325
868.689; 2243.089;  -12.902; 5133.183
869.252; 2143.781;   -9.732; 5252.382
869.814; 2055.445;   -9.432; 5297.141
870.377; 2065.801;  -11.552; 5390.919
870.939; 2134.256;   -9.052; 5599.898
871.501; 2188.513;  -10.982; 5248.336
872.063; 2185.261;  -12.292; 4854.235
872.626; 2150.290;  -14.912; 4817.074
873.188; 2185.003;  -13.112; 4987.732
873.750; 2151.316;  -13.442; 4868.651
874.312; 2053.553;   -9.402; 4779.330
874.874; 1965.042;  -11.062; 4866.348
875.436; 1876.583;  -13.931; 4718.887
875.998; 1862.419;   -9.561; 4660.005
876.560; 1879.037;  -11.321; 4462.964
877.122; 1821.966;  -12.221; 4145.042
877.683; 1737.494;  -12.191; 4056.481
878.245; 1674.793;  -12.101; 3950.740
878.807; 1719.034;   -8.971; 4058.958
879.369; 1738.343;  -12.071; 3954.677
879.930; 1642.239;  -14.621; 3941.495
880.492; 1583.970;  -10.311; 4067.014
881.053; 1545.495;  -10.901; 3859.633
881.615; 1433.717;  -14.411; 3776.071
882.176; 1341.241;  -13.761; 3734.750
882.738; 1299.209;   -9.181; 3678.489
883.299; 1276.471;  -11.791; 3405.407
883.860; 1282.682;  -13.121; 3351.106
884.422; 1280.948;  -11.211; 3394.044
884.983; 1231.879;  -10.091; 3166.443
885.544; 1152.354;   -8.461; 3189.802
886.105; 1074.144;  -12.361; 3160.360
886.666; 1011.367;  -14.141; 3093.059
887.227;  959.295;  -11.361; 2941.957
887.788;  900.522;  -11.401; 2974.836
888.349;  839.562;  -13.791; 2721.214
888.910;  838.084;  -13.191; 2696.493
889.471;  846.525;   -9.881; 2560.172
890.032;  829.470;   -9.881; 2558.190
890.593;  806.926;  -10.371; 2567.669
891.153;  779.469;  -13.301; 2460.307
891.714;  730.478;  -11.431; 2372.046
892.275;  691.016;  -11.291; 2309.505
892.835;  650.167;  -11.471; 2382.543
893.396;  598.130;  -11.541; 2295.502
893.956;  543.879;  -11.181; 2162.420
894.517;  510.295;  -11.741; 2125.439
895.077;  504.195;  -11.671; 2086.978
895.638;  503.312;  -11.311; 2126.316
896.198;  476.134;   -9.831; 1838.275
896.758;  435.468;   -8.421; 1892.813
897.319;  405.748;  -12.351; 1792.232
897.879;  388.783;  -13.511; 1762.751
898.439;  363.386;  -12.001; 1661.149
898.999;  341.979;  -10.180; 1781.468
899.559;  332.315;  -12.030; 1703.347
900.119;  327.821;  -15.710; 1537.525
900.679;  323.971;   -8.900; 1638.384
901.239;  310.469;   -8.340; 1527.902
901.799;  300.310;  -13.910; 1456.441
902.359;  294.136;  -13.460; 1357.140
902.919;  287.946;  -11.490; 1331.118
903.479;  276.534;  -12.110; 1317.257
904.038;  255.699;  -11.720; 1262.595
904.598;  240.160;  -13.610; 1152.034
905.158;  237.259;  -11.040; 1240.893
905.717;  230.927;  -10.900; 1233.691
906.277;  219.345;  -15.080; 1217.330
906.836;  208.419;  -13.380; 1222.408
907.396;  201.902;  -10.780; 1193.047
907.955;  195.054;   -8.500; 1182.526
908.515;  188.991;  -12.760; 1099.364
909.074;  182.370;  -11.900; 1092.863
909.633;  177.356;   -8.950; 1069.121
910.192;  173.584;   -8.770; 1196.460
910.752;  168.198;  -12.390; 1029.960
911.311;  164.145;  -13.680; 1009.780
911.870;  160.938;  -12.370;  971.460
912.429;  164.064;  -10.900; 1094.080
912.988;  162.631;  -11.690; 1081.060
913.547;  156.643;  -13.240;  940.380
914.106;  151.970;  -11.990;  999.420
914.665;  150.226;   -9.990;  984.020
915.224;  149.188;  -12.880; 1035.760
915.782;  149.016;  -12.350;  922.560
916.341;  147.941;   -9.110; 1049.840
916.900;  145.282;   -9.270;  925.260
917.458;  141.968;  -13.240;  884.220
918.017;  141.723;  -13.550;  942.600
918.576;  141.598;  -12.320;  904.440
919.134;  140.449;  -11.490;  837.980
919.693;  138.520;  -13.670;  893.060
920.251;  135.623;  -15.470;  876.500
920.809;  134.366;  -11.290;  839.580
921.368;  135.412;  -10.210;  885.360
921.926;  133.699;  -12.140;  842.940
922.484;  131.862;  -13.080;  903.360
923.042;  132.040;  -11.720;  880.340
923.601;  135.192;   -7.480;  998.680
924.159;  133.560;  -11.570;  935.560
924.717;  128.334;  -13.840;  841.080
925.275;  130.302;  -10.640;  903.240
925.833;  129.917;  -11.540;  779.320
926.391;  130.810;  -12.960;  938.380
926.949;  128.385;  -14.130;  857.680
927.506;  128.831;  -11.750;  903.500
928.064;  130.360;  -10.250;  877.580
928.622;  128.357;  -13.030;  880.100
929.180;  128.188;  -13.400;  814.180
929.737;  129.860;  -10.700;  808.540
930.295;  133.640;  -10.070;  928.480
930.853;  135.288;  -11.960;  849.100
931.410;  134.481;  -13.120;  821.120
931.968;  133.873;  -10.770;  940.660
932.525;  135.097;  -10.680;  909.380
933.082;  135.035;  -13.130;  811.440
933.640;  135.188;  -13.210;  925.900
934.197;  133.388;  -11.060;  886.360
934.754;  135.046;   -9.580;  897.780
935.312;  137.672;  -14.000;  863.340
935.869;  141.465;  -10.710; 1012.980
936.426;  141.938;   -9.860;  872.800
936.983;  143.862;   -9.710;  889.020
937.540;  142.220;  -13.990;  838.280
938.097;  139.699;  -14.040;  940.120
938.654;  140.490;  -10.310;  898.860
939.211;  144.133;  -10.560;  952.480
939.768;  147.334;  -13.900;  915.420
940.324;  150.238;  -14.760;  904.200
940.881;  150.974;  -10.370;  878.500
941.438;  152.309;   -8.260; 1021.200
941.995;  147.742;  -12.540;  992.560
942.551;  145.097;  -14.670;  875.620
943.108;  146.002;  -10.450;  937.920
943.664;  149.099;  -10.750;  869.340
944.221;  151.709;  -11.550; 1088.140
944.777;  148.113;  -14.770;  869.680
945.334;  149.708;  -12.820;  884.840
945.890;  152.223;  -10.130;  946.480
946.446;  152.041;  -13.470;  947.020
947.003;  152.769;  -12.120;  964.940
947.559;  155.106;   -9.980; 1063.040
948.115;  155.261;   -9.080; 1026.540
948.671;  153.330;  -10.830;  967.300
949.227;  150.374;  -12.440;  859.560
949.783;  148.077;  -12.910;  858.900
950.339;  150.677;  -10.270;  991.000
950.895;  149.820;  -13.630; 1023.840
951.451;  149.299;  -15.100;  925.280
952.007;  149.733;  -11.330;  998.540
952.563;  150.534;  -10.580;  937.780
953.118;  149.701;  -13.440;  904.940
953.674;  148.175;  -12.710;  935.780
954.230;  148.444;  -10.350;  949.640
954.785;  145.719;   -9.190;  936.640
955.341;  144.501;  -11.200;  998.160
955.897;  141.297;  -16.560;  834.660
956.452;  142.376;  -12.570;  953.840
957.008;  143.189;   -7.970; 1083.640
957.563;  140.325;  -11.940; 1009.540
958.118;  135.318;  -13.450;  877.700
958.674;  135.930;  -12.030;  946.780
959.229;  137.163;   -9.410; 1013.980
959.784;  135.799;  -12.000;  832.400
960.339;  133.842;  -14.780; 1001.280
960.894;  130.917;   -9.860;  963.760
961.449;  127.710;   -9.970;  859.960
962.004;  127.844;  -10.900; 1212.840
962.559;  121.433;  -13.150;  860.140
963.114;  119.682;  -13.740;  742.480
963.669;  119.788;   -9.820;  915.500
964.224;  118.130;  -13.890;  874.340
964.779;  116.674;  -12.600;  828.420
965.334;  117.566;  -10.950; 1017.860
965.888;  117.398;  -11.170;  875.360
966.443;  119.782;  -12.540;  972.380
966.998;  118.534;  -15.780;  819.460
967.552;  118.522;   -9.760;  908.380
968.107;  114.557;   -9.060;  868.300
968.661;  115.199;  -11.950;  922.440
969.216;  115.392;  -12.800;  856.280
969.770;  115.798;  -11.210;  917.200
970.324;  115.312;  -11.610;  923.140
970.879;  112.283;  -11.370;  947.180
971.433;  109.150;  -12.540;  952.720
971.987;  103.813;  -11.320;  895.340
972.541;  101.666;  -10.720;  917.100
973.095;  101.300;   -9.680; 1009.460
973.649;   99.571;  -11.440;  809.480
974.203;   98.942;  -11.210;  829.040
974.757;   99.174;  -10.240;  855.220
975.311;   98.582;  -13.720;  872.600
975.865;   97.108;  -13.770;  881.820
976.419;   95.753;  -11.690;  857.400
976.973;   96.656;   -9.510;  849.620
977.526;   97.794;  -12.620;  949.920
978.080;   96.380;  -12.010;  796.780
978.634;   98.138;  -10.170;  921.320
979.187;   96.132;   -9.020;  905.400
979.741;   93.006;   -9.820; 1018.380
980.294;   87.697;  -14.870;  789.160
980.848;   85.981;  -12.380;  717.220
981.401;   88.206;  -10.350;  816.540
981.955;   90.781;  -13.720;  844.300
982.508;   89.339;  -11.490;  746.340
983.061;   89.221;  -10.000;  915.260
983.615;   86.338;  -11.480;  798.800
984.168;   83.255;  -13.220;  770.080
984.721;   81.417;  -13.960;  880.760
985.274;   81.242;  -10.870;  867.500
985.827;   80.772;   -9.790;  834.220
986.380;   78.536;  -13.120;  721.340
986.933;   77.464;  -12.450;  864.800
987.486;   75.883;  -10.210;  861.920
988.039;   75.320;   -8.430;  863.100
988.591;   73.427;  -10.520;  893.260
989.144;   70.458;  -14.860;  737.260
989.697;   69.442;  -13.080;  758.740
990.250;   70.585;  -10.150;  858.100
990.802;   69.002;  -13.430;  755.860
991.355;   70.764;  -12.750;  974.880
991.907;   68.804;  -12.040;  864.320
992.460;   66.845;  -11.330;  753.760
993.012;   65.899;  -13.610;  749.540
993.565;   63.764;  -13.460;  711.360
994.117;   65.546;   -9.360;  950.780
994.669;   62.384;  -11.300;  701.320
995.221;   60.263;  -13.540;  791.920
995.774;   58.179;  -13.430;  787.580
996.326;   57.220;  -12.520;  740.220
996.878;   57.152;  -10.950;  838.420
997.430;   55.088;  -14.300;  699.860
997.982;   53.687;  -13.760;  750.140
998.534;   53.279;  -11.530;  739.060
999.086;   52.768;  -10.310;  738.220
999.638;   51.389;  -12.530;  661.380
1000.190;   49.674;  -11.840;  699.320
1000.741;   50.633;  -10.260;  742.700
1001.293;   50.231;   -8.860;  686.020
1001.845;   48.992;  -13.700;  676.640
1002.396;   48.124;  -12.100;  743.400
1002.948;   47.536;  -12.760;  737.400
1003.500;   46.926;  -10.380;  723.780
1004.051;   47.727;  -11.900;  907.580
1004.603;   45.427;  -12.250;  791.820
1005.154;   41.115;  -13.210;  608.980
1005.705;   41.292;  -10.950;  723.960
1006.257;   40.553;  -13.880;  707.220
1006.808;   39.511;  -12.840;  685.460
1007.359;   39.083;  -10.570;  763.240
1007.910;   38.559;   -9.620;  646.640
1008.461;   38.112;  -13.630;  732.940
1009.013;   36.745;  -17.200;  588.340
1009.564;   37.963;  -10.200;  793.520
1010.115;   36.505;  -12.570;  597.040
1010.665;   35.825;  -15.150;  602.160
1011.216;   35.258;  -14.480;  667.920
1011.767;   35.002;  -11.340;  697.920
1012.318;   36.427;   -9.780;  736.980
1012.869;   35.545;  -12.380;  679.000
1013.419;   32.970;  -15.560;  603.120
1013.970;   33.996;  -11.010;  666.640
1014.521;   33.857;  -11.610;  620.620
1015.071;   34.153;  -13.450;  670.380
1015.622;   33.492;  -13.870;  635.460
1016.172;   31.811;  -11.610;  596.820
1016.723;   33.455;  -12.120;  614.380
1017.273;   32.455;  -13.620;  604.160
1017.823;   32.249;  -14.140;  650.340
1018.374;   31.822;  -12.800;  611.760
1018.924;   32.266;  -12.340;  716.880
1019.474;   31.971;  -11.410;  718.880
1020.024;   30.258;  -14.770;  657.580
1020.574;   30.751;   -9.780;  726.160
1021.124;   32.084;   -8.560;  673.580
1021.674;   30.832;  -15.190;  559.120
1022.224;   30.503;  -13.530;  708.940
1022.774;   30.690;  -13.280;  668.820
1023.324;   32.401;  -10.690;  753.520
1023.874;   32.299;  -10.240;  875.760
1024.423;   28.854;  -12.540;  613.700
1024.973;   28.543;  -10.010;  610.760
1025.523;   28.490;  -10.550;  620.960
1026.072;   29.171;  -13.560;  606.420
1026.622;   27.728;  -15.120;  675.740
1027.172;   29.311;  -11.260;  715.660
1027.721;   28.506;  -11.410;  601.220
1028.270;   28.646;  -13.530;  663.400
1028.820;   27.402;  -13.680;  638.080
1029.369;   27.729;  -13.520;  612.700
1029.918;   29.444;  -10.980;  649.840
1030.468;   27.527;  -13.530;  564.780
1031.017;   27.029;  -13.170;  634.800
1031.566;   25.966;  -12.200;  608.900
1032.115;   27.922;   -9.960;  694.500
1032.664;   26.401;  -13.210;  596.480
1033.213;   26.977;  -12.500;  735.420
1033.762;   25.994;  -11.910;  635.620
1034.311;   26.748;   -9.640;  677.220
1034.860;   27.064;  -13.310;  691.000
1035.408;   26.029;  -11.830;  722.720
1035.957;   26.918;  -12.000;  719.540
1036.506;   24.368;  -11.690;  530.800
1037.055;   27.072;  -10.990;  844.320
1037.603;   24.659;  -15.120;  664.000
1038.152;   23.225;  -12.450;  534.760
1038.700;   24.543;  -10.560;  585.740
1039.249;   24.193;  -11.080;  681.220
1039.797;   24.279;  -12.540;  633.360
1040.345;   24.064;  -11.920;  705.420
1040.894;   25.077;  -11.410;  625.300
1041.442;   23.759;  -14.320;  632.200
1041.990;   22.496;  -16.240;  559.160
1042.538;   22.469;  -11.680;  536.180
1043.087;   23.138;  -10.760;  570.860
1043.635;   24.270;  -11.850;  670.500
1044.183;   22.405;  -15.480;  586.400
1044.731;   22.102;  -11.770;  576.000
1045.279;   22.639;  -13.090;  674.920
1045.827;   24.528;  -12.440;  892.400
1046.374;   21.597;  -13.840;  515.420
1046.922;   19.947;  -13.220;  590.580
1047.470;   23.667;  -10.230;  691.300
1048.018;   22.440;  -14.590;  647.960
1048.565;   22.836;  -12.050;  708.600
1049.113;   20.511;  -11.650;  557.000
1049.660;   21.913;  -10.510;  629.660
1050.208;   21.699;  -13.310;  675.640
1050.755;   20.183;  -15.900;  606.580
1051.303;   21.180;  -11.430;  686.820
1051.850;   20.538;   -8.480;  635.120
1052.397;   19.135;  -15.010;  473.960
1052.945;   19.770;  -13.960;  617.760
1053.492;   21.158;  -13.150;  741.840
1054.039;   21.548;   -9.630;  720.180
1054.586;   19.974;  -13.680;  557.240
1055.133;   20.557;  -14.570;  693.140
1055.680;   19.812;  -13.820;  646.620
1056.227;   19.248;  -11.730;  542.780
1056.774;   20.878;  -12.480;  794.980
1057.321;   17.779;  -13.930;  523.260
1057.868;   18.633;  -11.690;  651.320
1058.415;   18.745;   -9.520;  651.980
1058.961;   19.218;  -13.160;  678.940
1059.508;   18.037;  -12.920;  643.820
1060.055;   18.311;  -11.920;  581.780
1060.601;   18.777;  -11.500;  624.300
1061.148;   18.854;  -14.330;  616.820
1061.694;   17.841;  -16.870;  592.580
1062.241;   17.321;  -10.330;  596.320
1062.787;   18.428;  -10.620;  663.140
1063.334;   19.727;  -10.110;  808.560
1063.880;   17.467;  -13.400;  668.360
1064.426;   17.258;  -10.680;  706.820
1064.972;   16.926;   -9.920;  601.340
1065.518;   16.524;  -10.980;  566.640
1066.065;   16.987;  -14.890;  624.460
1066.611;   16.352;  -12.870;  598.800
1067.157;   17.913;  -12.950;  641.860
1067.703;   16.636;  -13.540;  668.480
1068.249;   16.156;  -13.540;  605.220
1068.794;   16.191;  -12.600;  626.880
1069.340;   15.907;  -10.620;  578.960
1069.886;   16.403;  -12.830;  590.700
1070.432;   15.217;  -14.870;  541.720
1070.977;   15.361;  -11.980;  601.080
1071.523;   16.076;   -8.200;  573.060
1072.068;   15.720;  -12.330;  582.000
1072.614;   15.501;  -16.370;  527.760
1073.160;   15.433;  -11.100;  687.040
1073.705;   15.604;  -10.480;  572.520
1074.250;   14.654;  -14.520;  559.900
1074.796;   16.054;  -11.460;  655.160
1075.341;   15.784;  -11.950;  664.100
1075.886;   15.072;  -11.460;  594.240
1076.431;   15.038;  -13.770;  649.880
1076.976;   13.863;  -12.680;  639.220
1077.521;   13.671;  -13.170;  583.080
1078.067;   13.611;  -10.860;  579.400
1078.612;   14.686;  -13.920;  661.620
1079.156;   13.957;  -13.880;  601.540
1079.701;   14.147;  -13.120;  693.260
1080.246;   14.544;   -9.940;  696.300
1080.791;   13.928;  -14.740;  625.020
1081.336;   13.995;  -13.750;  659.320
1081.880;   13.201;  -13.400;  649.680
1082.425;   13.256;  -12.220;  573.480
1082.970;   14.974;  -11.610;  717.040
1083.514;   12.703;  -13.580;  597.000
1084.059;   12.199;  -12.810;  586.720
1084.603;   12.944;  -12.320;  565.840
1085.147;   13.115;  -13.190;  645.220
1085.692;   13.806;  -12.480;  716.800
1086.236;   11.305;  -13.020;  503.140
1086.780;   14.221;   -9.190;  751.440
1087.325;   13.532;  -12.480;  654.620
1087.869;   12.092;  -12.450;  610.700
1088.413;   12.090;  -12.240;  705.040
1088.957;   10.743;   -9.020;  543.400
1089.501;   13.575;  -10.320;  766.640
1090.045;   11.843;  -12.720;  726.480
1090.589;   10.109;  -13.690;  569.920
1091.133;   12.052;  -10.020;  673.340
1091.676;   12.504;  -12.330;  591.940
1092.220;   11.150;  -14.970;  600.920
1092.764;   12.003;  -12.430;  706.960
1093.307;   12.056;   -9.800;  673.780
1093.851;   11.217;  -14.970;  556.540
1094.395;   11.434;  -15.310;  683.140
1094.938;   10.297;  -10.370;  632.520
1095.482;   11.470;  -11.050;  559.800
1096.025;   11.627;  -11.840;  710.880
1096.568;   11.322;  -12.840;  779.280
1097.112;    8.700;  -14.700;  508.180
1097.655;   11.181;   -8.720;  603.000
1098.198;    9.911;  -13.610;  600.180
1098.741;    9.290;  -13.350;  612.860
1099.285;    9.776;  -11.230;  657.300
1099.828;    8.697;  -11.840;  439.400
1100.371;   10.167;  -10.840;  608.160
1100.914;    9.625;  -14.190;  682.660
1101.457;    9.593;  -11.240;  679.900
1101.999;    8.975;  -11.270;  584.680
1102.542;    9.506;  -11.480;  641.440
1103.085;    8.483;  -11.750;  658.500
1103.628;    9.863;  -11.400;  762.060
1104.170;    9.449;  -10.490;  588.280
1104.713;    9.319;  -10.600;  646.700
1105.256;    7.618;  -14.360;  557.440
1105.798;    7.199;  -13.210;  499.980
1106.341;    9.953;  -10.270;  728.900
1106.883;    8.801;  -12.200;  521.340
1107.425;    7.809;  -13.110;  668.180
1107.968;    8.513;  -12.840;  612.380
1108.510;    9.159;   -6.480;  684.960
1109.052;    7.182;  -13.940;  612.620
1109.594;    6.492;  -13.690;  554.440
1110.136;    7.689;  -11.880;  643.220
1110.679;    7.576;   -9.500;  633.080
1111.221;    7.979;  -14.160;  604.460
1111.763;    6.882;  -13.980;  559.220
1112.304;    6.499;  -13.880;  547.140
1112.846;    7.599;  -12.210;  666.240
1113.388;    9.914;  -11.390;  942.180
1113.930;    7.244;  -14.540;  694.200
1114.472;    5.895;  -12.640;  606.540
1115.013;    5.464;  -11.620;  551.280
1115.555;    6.094;  -13.640;  587.100
1116.097;    5.615;  -15.380;  579.480
1116.638;    6.024;  -12.640;  684.600
1117.180;    7.187;   -9.850;  667.740
1117.721;    6.868;  -13.690;  568.580
1118.262;    6.760;  -12.680;  677.960
1118.804;    6.375;  -12.530;  637.340
1119.345;    5.828;  -11.690;  578.400
1119.886;    7.214;  -13.380;  704.040
1120.427;    5.212;  -14.070;  589.020
1120.969;    4.285;  -13.500;  597.920
1121.510;    4.781;  -11.480;  563.060
1122.051;    6.138;  -12.830;  723.580
1122.592;    5.330;  -14.290;  655.420
1123.133;    3.433;  -12.400;  547.940
1123.673;    6.217;  -10.130;  706.480
1124.214;    5.459;  -12.930;  612.460
1124.755;    6.082;  -14.380;  639.460
1125.296;    4.220;  -14.000;  627.320
1125.836;    5.215;  -10.070;  691.500
1126.377;    5.466;  -12.640;  599.660
1126.918;    4.676;  -12.960;  614.980
1127.458;    3.888;  -13.350;  622.220
1127.999;    5.284;  -10.750;  656.980
1128.539;    5.820;  -12.350;  694.240
1129.079;    3.949;  -14.860;  632.720
1129.620;    3.367;  -13.840;  558.100
1130.160;    4.350;  -12.330;  539.480
1130.700;    4.228;  -14.530;  640.840
1131.240;    4.726;  -12.530;  643.700
1131.781;    3.562;  -14.450;  619.680
1132.321;    4.283;   -9.790;  599.120
1132.861;    4.047;  -14.860;  564.200
1133.401;    2.821;  -14.290;  593.940
1133.941;    3.570;  -11.750;  626.280
1134.481;    3.107;   -9.920;  597.580
1135.020;    3.550;  -12.290;  609.160
1135.560;    3.091;  -11.650;  674.940
1136.100;    1.991;  -16.270;  501.160
1136.640;    2.587;  -10.890;  510.480
1137.179;    3.149;  -14.180;  537.960
1137.719;    3.012;  -16.250;  605.400
1138.258;    2.542;  -14.230;  587.360
1138.798;    3.364;   -9.090;  663.780
1139.337;    1.987;  -15.130;  482.840
1139.877;    2.830;  -13.680;  642.360
1140.416;    4.402;  -11.320;  878.060
1140.955;    2.073;  -10.860;  535.380
1141.494;    2.537;  -12.920;  669.280
1142.034;    2.240;  -13.930;  583.520
1142.573;    2.739;  -11.440;  646.280
1143.112;    1.425;  -12.000;  553.480
1143.651;    2.520;  -13.670;  536.480
1144.190;    3.019;  -12.730;  691.640
1144.729;    1.973;  -14.560;  607.420
1145.267;    1.997;  -11.830;  584.900
1145.806;    3.121;  -12.230;  637.040
1146.345;    1.030;  -14.130;  635.020
1146.884;    1.677;  -11.590;  622.500
1147.422;    0.807;  -12.550;  533.060
1147.961;    3.206;  -11.180;  708.460
1148.500;    1.755;  -11.510;  669.720
1149.038;    2.056;  -11.640;  632.500
1149.577;    2.193;  -10.130;  698.640
1150.115;   -0.181;  -13.970;  452.280
1150.653;    1.101;  -14.520;  607.340
1151.192;    0.203;  -12.810;  552.920
1151.730;    1.738;   -9.100;  652.560
1152.268;    0.166;  -12.220;  589.520
1152.806;    0.688;  -14.140;  571.180
1153.344;   -1.059;  -12.350;  577.640
1153.882;    0.608;   -8.980;  600.060
1154.421;   -0.498;  -15.190;  470.620
1154.958;   -0.332;  -15.210;  595.240
1155.496;    0.642;  -12.850;  645.280
1156.034;    1.218;   -9.940;  721.880
1156.572;    1.588;  -13.570;  667.060
1157.110;   -0.955;  -14.590;  473.940
1157.647;    0.464;  -13.030;  676.960
1158.185;   -0.733;  -12.140;  564.320
1158.723;   -0.710;  -14.390;  509.200
1159.260;   -0.330;  -14.090;  701.700
1159.798;   -0.208;  -11.920;  658.160
1160.335;    0.112;  -11.110;  631.820

