
Integration time [ms]:   3.276
Averaging Nr. [scans]: 1000
Smoothing Nr. [pixels]: 0
Data measured with spectrometer [name]: 7414430SP
Wave   ;Sample   ;Dark     ;Reference
[nm]   ;[counts] ;[counts] ;[counts] 

288.544;  149.832;    7.793;  793.890
289.143;  154.129;    7.462;  681.602
289.742;  155.532;    8.602;  828.814
290.341;  139.614;    1.321;  789.841
290.940;  128.789;   -0.709;  730.702
291.538;  130.300;    0.881;  881.108
292.137;  130.335;    0.122;  792.581
292.736;  134.805;   -1.929;  975.101
293.335;  131.341;   -8.229;  735.086
293.934;  131.403;   -5.279;  781.677
294.532;  131.136;   -1.369; 1031.958
295.131;  116.873;   -7.641;  834.394
295.730;  116.969;   -8.420;  809.588
296.328;  115.647;   -5.611;  783.442
296.927;  115.916;   -5.781;  779.652
297.525;  116.930;   -6.361;  781.236
298.124;  107.615;  -11.382;  654.009
298.722;  110.556;   -7.641;  761.933
299.321;  109.254;   -6.811;  708.597
299.919;  106.880;   -6.991;  751.918
300.518;  103.472;  -10.362;  689.338
301.116;  105.273;   -9.581;  691.381
301.715;  105.343;   -4.891;  730.222
302.313;  103.907;   -8.801;  704.943
302.911;  100.608;   -8.522;  733.830
303.509;  104.182;   -6.171;  925.627
304.108;  102.941;   -7.311;  760.383
304.706;  102.132;   -8.321;  801.664
305.304;   96.387;  -10.222;  796.707
305.902;  101.702;   -6.021;  784.484
306.500;   97.607;   -4.971;  728.200
307.098;   95.548;   -7.061;  746.560
307.696;   94.404;   -8.801;  780.432
308.294;   94.368;   -6.411;  731.359
308.892;   96.820;   -2.901;  759.769
309.490;   93.070;   -5.041;  712.161
310.088;   90.271;   -5.002;  788.444
310.686;   95.713;   -2.041;  821.749
311.284;   91.027;   -2.351;  766.040
311.882;   88.911;   -4.422;  731.225
312.480;   85.681;   -4.192;  697.167
313.078;   87.505;   -1.172;  808.331
313.675;   87.463;   -2.601;  691.600
314.273;   82.842;   -1.312;  797.837
314.871;   82.210;   -3.942;  589.829
315.468;   79.793;   -2.802;  652.090
316.066;   83.240;   -0.701;  694.427
316.664;   76.045;   -4.362;  656.351
317.261;   80.363;   -2.872;  910.128
317.859;   75.052;   -2.022;  768.735
318.456;   76.411;   -0.531;  830.096
319.054;   72.538;   -3.912;  787.828
319.651;   70.527;   -4.752;  759.928
320.249;   69.614;   -2.602;  810.188
320.846;   67.708;   -0.821;  714.286
321.443;   64.871;   -4.642;  832.135
322.041;   61.164;   -5.002;  812.315
322.638;   59.161;   -3.982;  701.456
323.235;   60.751;   -3.411;  665.683
323.833;   58.234;   -7.361;  740.354
324.430;   52.804;   -8.611;  615.900
325.027;   54.166;   -4.061;  876.855
325.624;   53.848;   -4.031;  644.532
326.221;   50.918;   -7.481;  689.717
326.818;   51.124;   -5.281;  818.332
327.415;   53.744;   -7.460;  748.828
328.012;   53.633;   -5.510;  690.585
328.609;   52.298;   -7.880;  731.389
329.206;   49.981;   -8.331;  778.621
329.803;   50.268;   -5.121;  737.841
330.400;   52.564;   -4.510;  704.260
330.997;   54.620;   -6.441;  817.147
331.594;   53.267;   -8.831;  788.185
332.191;   57.824;   -7.621;  728.722
332.787;   60.822;   -4.591;  844.463
333.384;   59.313;   -7.412;  763.093
333.981;   58.517;   -8.293;  815.687
334.578;   60.831;   -7.052;  708.378
335.174;   64.571;   -3.102;  731.469
335.771;   63.976;   -5.943;  836.456
336.367;   60.003;   -7.393;  710.631
336.964;   63.673;   -4.063;  793.266
337.561;   62.234;   -3.813;  731.112
338.157;   57.678;   -4.654;  911.916
338.754;   55.457;   -7.934;  796.589
339.350;   53.417;   -4.414;  722.493
339.946;   56.553;   -4.664;  773.135
340.543;   48.357;   -6.375;  846.136
341.139;   41.687;   -9.815;  720.836
341.735;   39.354;   -4.526;  772.593
342.332;   38.399;   -4.895;  691.472
342.928;   39.842;   -4.295;  795.394
343.524;   32.991;   -5.476;  761.684
344.120;   28.958;   -5.856;  738.562
344.716;   32.416;   -2.155;  723.717
345.313;   30.123;   -6.275;  795.342
345.909;   24.560;   -8.815;  627.336
346.505;   26.839;   -5.305;  740.247
347.101;   27.303;   -2.674;  827.864
347.697;   27.458;   -4.344;  785.398
348.293;   22.968;   -9.975;  627.244
348.889;   23.251;   -5.774;  745.914
349.485;   22.422;   -5.004;  688.205
350.081;   22.841;   -4.704;  772.592
350.676;   18.138;   -6.635;  691.606
351.272;   22.267;   -4.504;  809.530
351.868;   22.231;   -3.914;  780.497
352.464;   19.377;   -9.044;  723.932
353.059;   15.881;   -8.314;  646.017
353.655;   19.068;   -7.024;  777.063
354.251;   19.981;   -5.343;  759.845
354.846;   14.636;   -8.604;  740.646
355.442;   12.750;   -6.945;  753.071
356.038;   14.443;   -7.564;  751.708
356.633;   14.098;   -5.814;  728.594
357.229;   11.381;   -7.364;  724.757
357.824;   10.742;   -8.024;  703.600
358.420;    9.741;   -9.384;  679.726
359.015;   10.225;   -5.104;  695.357
359.610;   11.277;   -6.854;  763.920
360.206;    4.750;  -10.185;  603.240
360.801;    7.619;   -7.054;  646.503
361.396;   10.415;   -5.034;  725.975
361.992;    5.600;   -8.284;  668.220
362.587;    2.847;   -8.625;  670.160
363.182;    5.331;   -7.674;  689.631
363.777;    5.512;   -5.164;  738.242
364.372;    6.182;   -8.604;  737.314
364.967;    1.584;   -9.055;  680.744
365.563;    5.677;   -6.114;  815.567
366.158;    2.466;   -5.814;  685.161
366.753;    3.564;   -7.854;  649.263
367.348;    1.081;   -7.804;  746.056
367.942;    1.249;   -7.954;  697.298
368.537;    0.695;   -4.984;  754.245
369.132;    1.314;   -8.564;  703.428
369.727;   -2.721;   -8.855;  638.079
370.322;   -1.566;   -6.245;  580.186
370.917;   -2.132;   -6.425;  710.646
371.511;    0.547;   -6.294;  861.834
372.106;   -3.514;   -7.685;  776.964
372.701;   -5.792;   -7.335;  585.988
373.296;   -0.969;   -4.564;  863.135
373.890;   -5.621;  -10.235;  647.840
374.485;   -6.843;   -7.885;  691.199
375.079;   -3.776;   -7.324;  738.685
375.674;   -2.445;   -3.494;  812.970
376.268;   -6.203;   -8.525;  691.759
376.863;  -12.882;  -10.086;  580.327
377.457;   -6.459;   -7.025;  662.490
378.052;   -7.890;   -3.585;  764.884
378.646;   -8.691;   -7.595;  741.167
379.240;   -9.331;   -8.335;  721.176
379.835;   -7.936;   -5.785;  636.978
380.429;  -10.576;   -4.335;  562.557
381.023;   -9.957;   -6.805;  779.205
381.617;  -13.250;   -9.195;  680.106
382.212;   -9.341;   -6.905;  685.303
382.806;   -8.485;   -3.745;  760.690
383.400;  -12.661;   -7.745;  672.281
383.994;  -13.113;   -9.765;  664.870
384.588;   -9.897;   -6.564;  697.701
385.182;   -8.429;   -5.344;  726.624
385.776;  -10.350;   -8.514;  706.875
386.370;  -13.064;   -9.555;  681.968
386.964;  -12.130;   -8.715;  684.155
387.558;  -10.428;   -6.174;  598.360
388.152;  -14.094;   -8.725;  681.959
388.745;  -11.703;   -7.965;  814.707
389.339;  -10.225;   -5.924;  747.642
389.933;   -9.205;   -5.524;  695.370
390.527;   -9.951;   -7.114;  859.029
391.120;  -16.917;  -10.725;  595.318
391.714;  -14.012;   -8.035;  711.633
392.308;  -10.511;   -3.574;  780.253
392.901;  -14.151;   -7.245;  642.460
393.495;  -15.956;   -9.285;  595.414
394.089;  -14.064;   -5.895;  760.452
394.682;  -14.603;   -4.295;  697.188
395.275;  -15.458;   -9.875;  719.927
395.869;  -15.793;   -8.485;  667.314
396.462;  -15.079;   -7.455;  616.609
397.056;  -10.997;   -5.424;  776.621
397.649;  -15.718;   -6.605;  731.575
398.242;  -13.040;   -8.224;  712.645
398.836;  -12.188;   -7.474;  766.408
399.429;  -13.422;   -7.094;  631.041
400.022;  -16.487;   -9.475;  665.902
400.615;  -14.357;   -7.145;  805.609
401.208;  -12.555;   -7.174;  691.451
401.802;  -14.470;   -5.515;  699.329
402.395;  -15.504;   -9.875;  683.502
402.988;  -17.471;   -8.845;  696.627
403.581;  -13.853;   -8.874;  646.878
404.174;  -11.518;   -5.324;  686.568
404.767;  -14.367;   -9.575;  638.583
405.360;  -16.144;  -10.965;  621.445
405.953;  -10.983;   -8.764;  759.034
406.545;  -10.763;   -7.514;  725.342
407.138;  -14.878;  -10.025;  618.350
407.731;  -14.674;  -10.034;  613.303
408.324;   -9.754;   -9.374;  660.554
408.917;  -10.187;   -6.534;  681.864
409.509;  -12.713;   -8.004;  740.396
410.102;  -14.249;   -9.875;  643.948
410.695;   -9.161;   -8.604;  665.758
411.287;   -9.671;   -6.794;  599.821
411.880;  -10.944;   -9.334;  585.421
412.472;  -13.560;  -10.254;  613.092
413.065;  -10.318;   -6.714;  629.408
413.657;   -9.458;   -7.234;  576.678
414.250;   -8.764;  -10.544;  646.681
414.842;  -10.621;   -9.744;  676.353
415.434;   -8.061;   -6.994;  570.463
416.027;   -4.562;   -5.893;  652.196
416.619;   -6.879;   -7.264;  713.400
417.211;   -6.392;  -10.374;  599.352
417.804;   -3.654;   -7.993;  628.499
418.396;   -7.051;   -7.234;  607.643
418.988;   -4.424;   -9.443;  659.238
419.580;   -8.535;  -10.724;  568.276
420.172;   -6.091;  -10.323;  536.196
420.764;   -2.125;   -8.793;  672.482
421.356;   -3.211;  -11.143;  636.898
421.948;   -4.520;   -8.293;  677.661
422.540;    0.639;   -7.893;  680.027
423.132;    0.536;   -7.082;  600.641
423.724;   -2.889;   -8.653;  561.267
424.316;   -0.810;  -10.213;  621.345
424.908;    2.355;   -9.762;  591.517
425.500;    3.110;   -5.572;  647.978
426.092;    2.856;   -8.422;  648.268
426.683;    2.870;   -9.283;  684.836
427.275;    4.922;   -7.852;  641.471
427.867;    6.432;   -5.272;  668.948
428.458;    6.974;   -7.682;  732.344
429.050;    5.619;  -10.612;  680.749
429.642;    8.145;   -9.882;  743.124
430.233;    8.298;   -6.962;  569.356
430.825;    9.808;   -6.842;  724.809
431.416;    7.142;   -9.672;  698.241
432.008;   10.966;   -6.552;  651.723
432.599;   11.632;   -6.891;  656.073
433.190;    8.179;  -10.912;  637.670
433.782;    7.557;  -11.172;  590.395
434.373;   15.308;   -6.061;  884.765
434.964;   13.608;   -8.251;  602.920
435.556;   11.394;   -9.722;  634.537
436.147;   13.942;   -9.082;  758.490
436.738;   13.966;   -8.041;  701.099
437.329;   19.430;   -7.341;  721.723
437.920;   12.916;   -8.162;  666.688
438.511;   12.798;  -11.802;  564.526
439.103;   18.584;  -10.191;  623.998
439.694;   20.769;   -7.601;  681.583
440.285;   21.491;   -8.541;  764.432
440.876;   19.382;   -9.751;  845.738
441.466;   18.914;   -9.401;  575.162
442.057;   24.861;   -7.760;  665.814
442.648;   23.308;   -9.971;  746.255
443.239;   20.954;  -11.001;  620.477
443.830;   25.936;   -7.990;  704.958
444.421;   28.131;   -7.910;  655.474
445.011;   24.255;   -8.131;  693.619
445.602;   24.282;   -7.111;  743.126
446.193;   26.255;  -10.920;  488.117
446.783;   30.676;   -6.500;  640.397
447.374;   26.425;   -8.671;  692.759
447.964;   26.800;  -10.781;  713.770
448.555;   34.714;   -9.650;  822.742
449.145;   31.576;   -8.660;  662.853
449.736;   32.787;   -8.990;  803.179
450.326;   32.532;   -9.500;  713.626
450.917;   37.085;   -8.680;  675.324
451.507;   37.291;   -7.520;  600.661
452.097;   37.151;   -8.590;  746.267
452.688;   37.687;  -11.340;  742.160
453.278;   37.303;  -10.100;  566.840
453.868;   43.177;   -6.019;  793.550
454.458;   40.228;   -9.440;  651.141
455.048;   40.328;  -10.560;  711.783
455.639;   41.810;  -11.799;  567.096
456.229;   45.644;   -6.899;  710.694
456.819;   47.157;   -7.389;  751.158
457.409;   47.163;  -11.119;  773.993
457.999;   50.059;   -9.289;  737.505
458.589;   50.330;   -6.139;  686.606
459.179;   50.695;   -8.729;  717.658
459.769;   47.614;   -9.789;  627.099
460.358;   52.735;  -10.259;  797.262
460.948;   53.207;   -7.299;  689.503
461.538;   54.600;  -10.289;  660.677
462.128;   51.780;  -11.269;  664.934
462.717;   58.905;   -9.368;  710.326
463.307;   62.880;   -7.908;  705.846
463.897;   58.183;   -9.599;  656.942
464.486;   57.277;   -9.769;  837.128
465.076;   61.938;   -8.048;  733.776
465.666;   65.847;   -9.358;  652.900
466.255;   63.140;   -7.919;  785.651
466.845;   62.191;  -11.689;  666.749
467.434;   64.800;   -7.818;  725.873
468.023;   66.071;   -7.678;  658.357
468.613;   63.713;  -10.939;  713.946
469.202;   68.622;  -10.118;  646.507
469.791;   72.356;   -9.108;  737.811
470.381;   73.826;   -6.058;  742.813
470.970;   74.692;  -10.428;  711.099
471.559;   74.142;  -10.268;  733.291
472.148;   77.628;   -8.448;  675.737
472.738;   79.240;   -6.917;  765.466
473.327;   79.358;  -11.978;  637.529
473.916;   78.178;  -11.888;  737.446
474.505;   82.932;   -9.437;  751.703
475.094;   85.557;   -6.747;  806.570
475.683;   84.662;   -9.367;  797.699
476.272;   86.471;  -12.637;  730.632
476.861;   88.544;  -10.027;  706.754
477.449;   95.412;   -8.716;  728.487
478.038;   89.836;   -9.577;  692.513
478.627;   90.117;   -9.718;  714.852
479.216;   97.241;   -8.947;  769.441
479.805;  100.735;   -6.256;  783.375
480.393;   99.195;   -7.937; 1008.945
480.982;   98.731;   -7.717;  874.501
481.571;  105.208;   -9.266;  858.333
482.159;  106.048;   -7.636;  705.386
482.748;  105.616;   -9.667;  821.385
483.336;  109.571;  -10.376;  858.209
483.925;  110.896;   -7.147;  774.373
484.513;  117.389;   -7.996;  758.962
485.102;  114.534;  -10.027;  810.965
485.690;  122.534;  -10.446; 1011.050
486.278;  124.834;   -8.446;  979.329
486.867;  125.210;   -6.356;  809.662
487.455;  127.222;   -9.136;  898.229
488.043;  128.313;  -10.646;  748.361
488.631;  136.804;   -7.456; 1005.079
489.220;  140.732;   -6.636;  908.626
489.808;  140.535;  -11.036;  741.415
490.396;  148.142;  -10.246;  914.645
490.984;  155.007;   -8.556;  830.161
491.572;  164.925;   -5.886;  940.315
492.160;  171.149;   -9.486;  919.081
492.748;  182.495;  -10.976;  884.341
493.336;  206.885;   -8.776; 1019.693
493.924;  233.328;   -5.465;  958.077
494.512;  261.072;   -9.986; 1066.638
495.100;  299.085;  -10.636; 1103.280
495.687;  352.481;  -10.885; 1206.373
496.275;  412.963;   -8.126; 1150.796
496.863;  479.417;  -10.586; 1281.171
497.451;  578.889;  -11.926; 1386.805
498.038;  714.731;  -10.885; 1556.729
498.626;  819.393;   -6.315; 1741.407
499.214;  955.394;   -7.326; 2016.609
499.801; 1144.999;  -11.906; 2220.633
500.389; 1392.579;  -10.466; 2312.494
500.976; 1707.228;   -5.236; 2744.849
501.564; 2112.435;   -8.936; 3148.565
502.151; 2469.046;  -13.176; 3515.999
502.738; 2921.625;  -10.646; 3971.274
503.326; 3305.938;   -9.525; 4403.796
503.913; 3674.919;  -10.856; 5161.749
504.500; 3976.464;  -11.586; 5986.420
505.088; 4405.598;  -10.336; 6381.201
505.675; 4917.333;   -6.355; 6925.547
506.262; 5569.098;   -9.046; 7619.060
506.849; 6295.599;  -10.416; 8733.969
507.436; 6740.894;  -10.305; 9790.121
508.023; 7262.181;   -5.496; 9985.472
508.610; 7529.315;   -7.856;10434.618
509.197; 8193.826;  -10.097;11198.435
509.784; 9568.804;  -10.886;12391.194
510.371;10504.453;   -9.315;13603.713
510.958;11173.091;   -9.936;14426.586
511.545;11957.015;   -9.326;15243.775
512.132;12856.573;  -10.075;15945.876
512.719;13410.000;   -7.796;16340.369
513.305;14225.364;  -10.606;18011.766
513.892;14917.446;  -11.486;19754.971
514.479;16359.384;   -9.126;20967.805
515.066;17906.816;   -6.026;22299.793
515.652;18963.129;   -8.466;22908.660
516.239;20041.969;  -10.886;23798.875
516.825;21100.469;  -11.496;25567.275
517.412;22069.074;   -5.796;28154.959
517.998;22887.348;  -10.506;28344.111
518.585;22943.963;  -10.076;27134.219
519.171;23131.828;   -8.315;27268.576
519.758;24079.182;   -8.596;28964.129
520.344;25831.525;   -8.466;30664.494
520.930;26410.496;  -11.006;32550.605
521.516;28062.518;  -10.495;35422.895
522.103;30556.900;   -5.526;38280.004
522.689;31316.006;   -8.746;37835.117
523.275;30880.447;  -11.376;37288.613
523.861;31471.367;  -11.156;37281.395
524.447;32219.176;   -8.135;37846.949
525.033;31383.037;   -7.896;38321.949
525.619;31358.236;  -12.476;38579.285
526.205;32356.920;   -9.516;40622.875
526.791;33005.094;   -6.926;42258.836
527.377;30935.850;   -8.346;42966.902
527.963;33001.836;   -8.717;42018.949
528.549;34741.047;  -11.016;42476.828
529.135;35782.664;   -8.536;41854.852
529.721;36558.020;   -9.666;41237.711
530.306;36288.031;  -10.066;41259.445
530.892;36341.609;  -11.356;41506.047
531.478;37574.785;   -6.596;43559.613
532.063;39708.219;   -8.836;47695.563
532.649;39766.609;  -10.047;50808.324
533.235;41001.477;   -9.746;51787.500
533.820;42255.859;   -6.566;52145.035
534.406;43081.578;  -10.817;51133.488
534.991;42557.883;   -9.416;49996.805
535.576;41266.789;   -9.036;48882.852
536.162;41219.445;   -6.156;46942.285
536.747;41724.961;  -11.607;45711.746
537.333;44427.996;  -11.787;48510.180
537.918;46410.840;  -12.437;50439.891
538.503;43161.754;   -7.196;50863.711
539.088;37668.887;  -10.556;50906.922
539.673;35888.406;   -8.767;52621.965
540.259;36907.988;  -10.026;52368.094
540.844;37984.945;   -7.416;50879.109
541.429;41816.086;   -9.467;52077.777
542.014;47294.191;   -9.527;52716.695
542.599;48309.480;   -9.946;52363.281
543.184;45647.098;   -7.927;53187.137
543.769;46480.793;   -9.297;54697.605
544.354;45847.559;  -10.127;53913.914
544.938;44983.754;   -9.267;49680.164
545.523;47135.293;   -6.506;47386.277
546.108;49087.512;   -9.787;49151.949
546.693;51309.359;  -11.587;51384.637
547.278;51024.707;  -10.986;51853.254
547.862;47704.035;   -8.206;51173.750
548.447;43213.387;  -10.067;51691.395
549.031;42584.133;   -9.637;52456.703
549.616;47128.066;   -9.926;52714.516
550.201;46341.781;   -6.347;52414.598
550.785;46957.813;   -7.917;52355.059
551.370;46396.020;  -10.867;54589.453
551.954;46505.582;   -9.047;58267.348
552.538;48096.027;   -7.827;59062.176
553.123;46598.527;  -10.287;58115.285
553.707;44070.797;  -12.178;56556.285
554.291;44303.875;   -8.717;56201.668
554.876;45877.563;   -7.457;55335.762
555.460;46756.828;  -10.387;54155.703
556.044;48782.844;   -9.618;53721.484
556.628;47054.504;  -11.567;53731.016
557.212;45650.980;   -8.097;54312.531
557.796;43826.789;  -11.077;53797.773
558.380;43896.633;  -11.108;56145.984
558.964;44676.219;   -9.057;57277.930
559.548;45745.605;   -6.977;56459.641
560.132;43863.742;  -11.457;54434.543
560.716;42685.852;  -11.378;54800.617
561.300;43386.785;   -9.577;57606.945
561.884;44455.266;   -7.127;58972.445
562.467;43567.922;   -7.118;57327.570
563.051;43023.293;  -13.358;54962.434
563.635;43254.000;  -10.178;52594.473
564.219;43412.754;   -7.837;50610.410
564.802;44196.734;  -11.398;49551.180
565.386;44617.773;  -12.788;48370.953
565.969;44444.121;   -9.077;48178.871
566.553;43563.031;   -6.207;49957.305
567.136;43569.434;   -8.568;50369.594
567.720;39708.371;  -11.868;49492.004
568.303;37953.715;   -8.268;50616.352
568.887;38040.000;   -8.698;50727.148
569.470;38250.098;   -6.808;51698.379
570.053;37263.434;  -13.188;52122.078
570.637;36107.898;  -12.037;52536.438
571.220;35653.105;   -8.577;51186.098
571.803;35617.066;   -8.498;51032.762
572.386;37494.105;  -10.498;49609.887
572.969;40186.039;   -9.388;48285.926
573.552;38750.551;   -8.338;47624.285
574.135;37790.695;   -8.518;45498.641
574.718;35209.336;  -13.628;41970.434
575.301;33930.305;  -10.893;41447.137
575.884;32651.279;   -8.158;40923.836
576.467;33809.133;  -10.328;45267.723
577.050;36115.008;  -13.058;48175.543
577.633;37858.141;   -9.458;47729.328
578.216;36657.145;   -8.928;47579.793
578.799;35605.586;   -9.358;47820.996
579.381;34139.203;  -11.388;48115.551
579.964;32468.150;  -11.718;47333.766
580.547;33972.414;   -8.588;46668.969
581.129;34923.328;   -8.859;44466.141
581.712;35289.648;  -10.729;44164.922
582.294;36087.301;  -11.118;46477.855
582.877;36371.613;   -5.218;48244.254
583.459;34178.293;   -8.679;47437.895
584.042;32574.537;  -10.709;46943.219
584.624;33221.352;  -11.669;46792.227
585.206;32571.238;   -8.218;46557.250
585.789;32593.854;  -10.569;45793.773
586.371;35559.141;  -11.859;43836.391
586.953;36429.945;  -10.719;42972.492
587.536;37237.270;   -7.198;42487.211
588.118;37015.113;   -8.720;42086.414
588.700;33557.875;  -10.439;43389.930
589.282;32632.350;   -9.198;43646.039
589.864;33292.559;   -9.199;43438.109
590.446;34579.281;  -11.319;43151.926
591.028;34556.836;  -11.159;42781.867
591.610;33597.469;  -11.779;42839.098
592.192;30822.436;   -7.668;42820.402
592.774;29312.305;  -11.949;40724.277
593.356;28184.211;  -12.129;39874.789
593.937;27611.244;  -10.669;39980.648
594.519;29570.150;   -6.509;42069.633
595.101;31894.227;  -10.849;42976.031
595.683;32139.957;  -11.679;44084.441
596.264;33234.824;   -9.049;43478.797
596.846;32128.219;   -8.849;43803.672
597.427;31407.477;   -9.570;42986.934
598.009;33163.117;  -12.620;42832.219
598.591;33516.070;  -10.039;42580.086
599.172;32574.633;  -10.369;43061.805
599.753;32642.129;   -9.140;41691.469
600.335;34435.320;  -11.430;40692.520
600.916;33210.234;   -9.939;39982.422
601.498;30626.037;   -8.479;40318.617
602.079;29244.193;  -10.920;40670.609
602.660;29157.299;  -11.480;41450.898
603.241;30368.590;  -11.699;41137.738
603.823;29313.861;   -9.579;38868.797
604.404;29122.428;  -10.620;38182.785
604.985;30381.859;  -10.450;38078.047
605.566;29682.807;   -9.129;38056.633
606.147;29612.672;   -7.510;37020.418
606.728;31841.832;  -10.660;37883.359
607.309;30974.254;  -11.740;38748.273
607.890;30106.402;   -9.759;38850.230
608.471;29732.221;   -8.250;37457.918
609.051;29078.008;   -9.240;36066.457
609.632;28143.549;  -12.120;35991.074
610.213;29012.166;   -9.110;37402.641
610.794;29478.289;   -8.030;38383.363
611.374;28646.285;   -8.110;40562.387
611.955;28978.750;  -13.560;38533.727
612.536;30554.486;  -11.400;36951.789
613.116;30309.631;   -8.070;37197.891
613.697;30733.236;  -10.830;38411.125
614.277;29329.035;  -11.641;38673.938
614.858;30125.063;  -13.310;37075.863
615.438;29427.521;   -7.460;35092.906
616.019;26677.217;   -7.601;33666.301
616.599;27418.674;  -12.020;34189.023
617.179;29410.219;  -11.780;36952.047
617.760;30034.881;   -8.570;39582.574
618.340;31236.232;  -11.471;38943.977
618.920;32900.188;  -11.170;37594.156
619.500;32449.891;  -11.071;37866.938
620.080;31588.875;   -7.750;37869.043
620.660;32506.385;  -12.711;36868.617
621.241;33485.332;  -10.211;36352.309
621.821;33632.617;  -10.961;35459.520
622.401;33173.918;   -7.720;35207.414
622.980;32230.268;   -8.981;35980.422
623.560;30670.439;   -9.331;37351.328
624.140;29902.486;   -9.850;34388.582
624.720;25108.217;   -7.451;32368.764
625.300;21422.631;   -9.070;32638.629
625.880;24698.162;  -12.601;34599.035
626.459;28517.238;  -11.751;36831.738
627.039;31633.438;   -9.281;38299.098
627.619;31757.725;   -8.801;38289.574
628.198;30026.191;  -12.071;37220.695
628.778;29227.328;   -9.461;37632.563
629.357;30026.672;   -8.491;38003.012
629.937;30032.203;   -9.721;38402.039
630.516;29284.803;   -9.951;37868.801
631.096;29062.693;  -11.731;35760.410
631.675;31938.893;   -8.572;35225.219
632.254;37272.645;  -11.282;35130.289
632.834;36688.695;  -13.322;35794.570
633.413;34760.293;  -10.301;35788.922
633.992;31740.393;   -8.582;34532.863
634.571;32806.664;   -8.352;33590.113
635.151;35604.949;  -11.912;34943.863
635.730;34051.824;  -10.511;35352.523
636.309;30632.771;   -7.731;35366.605
636.888;28067.307;   -9.952;36165.637
637.467;28769.059;  -11.672;37515.902
638.046;30803.947;   -8.901;39288.695
638.625;33925.383;   -7.912;38279.699
639.204;33593.879;  -10.022;37741.598
639.782;31629.908;  -12.252;38364.551
640.361;28059.883;  -10.041;36740.621
640.940;25089.219;  -11.161;34950.082
641.519;25341.898;   -9.701;34137.398
642.097;28013.361;  -11.271;35654.258
642.676;31157.479;   -8.651;35637.957
643.255;32205.215;   -8.711;36567.074
643.833;31185.426;   -9.581;37809.434
644.412;31523.078;  -13.711;37337.293
644.990;30964.279;  -11.811;37018.531
645.569;30822.447;   -9.411;36518.469
646.147;29480.027;  -10.291;36186.430
646.726;28574.004;  -12.401;36267.688
647.304;29859.064;  -10.411;36647.625
647.882;31949.816;   -9.651;39286.742
648.461;33655.664;   -9.631;39157.703
649.039;32203.357;  -11.881;35412.883
649.617;31638.523;   -9.661;34744.918
650.195;31373.477;   -9.301;35403.098
650.773;30278.982;  -10.511;35053.797
651.352;27705.270;  -11.521;33756.816
651.930;25326.045;  -12.211;31868.773
652.508;23703.148;   -9.171;33121.551
653.086;27452.383;   -9.371;33564.793
653.663;30393.184;  -13.161;34054.668
654.241;29222.006;  -13.031;35693.309
654.819;30825.082;   -9.371;36422.906
655.397;30811.531;  -10.511;38213.484
655.975;30729.279;  -10.371;39507.625
656.553;30904.852;  -10.051;39498.223
657.130;29211.260;  -10.061;40395.480
657.708;28456.041;   -9.561;39242.020
658.286;28393.867;  -11.511;38920.020
658.863;29563.098;  -10.261;40202.898
659.441;32208.463;   -7.531;39677.938
660.018;31391.107;   -9.501;40413.355
660.596;30471.529;  -13.301;39931.414
661.173;32605.168;  -11.211;39604.531
661.750;32789.504;   -9.951;39700.070
662.328;31678.518;   -9.390;39292.809
662.905;30856.541;  -11.330;38235.648
663.482;26512.127;   -9.050;36212.305
664.060;24434.387;   -8.240;35944.945
664.637;27123.619;  -10.050;35170.785
665.214;29035.553;  -11.760;34197.523
665.791;30747.193;  -10.530;34549.520
666.368;29434.615;   -9.690;35118.578
666.945;29948.799;   -9.320;36019.418
667.522;31598.053;  -11.860;36048.438
668.099;32001.072;  -10.770;36243.914
668.676;31444.205;   -6.260;35958.875
669.253;29742.039;   -7.000;37384.730
669.830;30039.182;  -10.190;36779.629
670.407;29740.273;   -9.550;35231.289
670.984;29867.506;   -9.260;35544.270
671.560;30106.105;   -9.280;35466.867
672.137;28795.168;  -11.810;34280.863
672.714;29593.191;  -11.490;34632.863
673.290;29861.115;   -7.740;35135.422
673.867;29999.096;  -10.660;36114.480
674.443;30405.367;  -12.230;36152.859
675.020;28924.166;  -10.450;35327.238
675.596;29786.025;   -9.260;35795.176
676.173;30126.398;  -10.780;35430.355
676.749;29796.152;  -13.690;33549.516
677.326;30090.928;  -11.980;32210.012
677.902;30292.268;   -8.630;32068.871
678.478;29524.256;  -10.730;32583.891
679.054;29315.525;  -10.520;32088.928
679.631;30090.762;  -11.920;30978.848
680.207;31093.078;   -7.490;33160.887
680.783;32478.896;   -9.860;35570.363
681.359;31734.814;  -13.380;36125.184
681.935;30758.375;  -12.480;35240.922
682.511;29400.188;   -7.900;34429.961
683.087;29213.557;   -7.710;34463.680
683.663;29125.301;  -11.480;34648.898
684.239;28434.777;  -14.090;34546.457
684.815;28178.998;   -7.560;35586.375
685.390;28514.002;   -9.910;35821.895
685.966;28963.057;  -11.159;35085.871
686.542;31690.258;  -11.169;34198.230
687.118;33749.270;   -5.959;32847.707
687.693;33950.496;  -10.329;32794.027
688.269;33196.773;  -12.059;33072.367
688.844;31001.846;  -10.909;33141.664
689.420;28940.564;   -8.019;33965.742
689.995;26654.881;   -8.399;34655.523
690.571;25386.359;  -10.949;33576.742
691.146;26044.641;   -9.619;32657.219
691.722;25379.338;   -8.999;32526.979
692.297;25269.789;  -11.589;33014.617
692.872;27394.434;  -11.739;34012.254
693.448;26829.641;  -11.059;34237.434
694.023;26004.953;  -10.139;34142.672
694.598;28184.768;   -9.029;34132.031
695.173;28481.498;  -13.319;34205.250
695.748;27955.152;  -10.169;32882.488
696.323;27818.320;   -8.339;32864.906
696.898;27798.125;   -8.169;33170.004
697.473;27445.654;  -12.309;32432.984
698.048;27150.457;  -10.989;31649.303
698.623;27575.875;   -9.329;30778.141
699.198;29591.002;   -9.849;31140.119
699.773;30450.016;  -12.329;31764.299
700.348;28854.020;  -10.389;31780.816
700.922;28892.125;   -9.269;32046.375
701.497;29331.832;   -9.329;32603.574
702.072;29466.504;  -10.789;34799.871
702.646;28580.875;  -10.839;35793.172
703.221;26484.387;   -9.099;35201.590
703.795;28586.508;  -10.939;34764.527
704.370;29088.760;  -12.859;34307.367
704.944;29338.213;  -11.559;33509.887
705.519;30453.623;   -7.939;31388.584
706.093;31714.482;  -10.499;31340.104
706.668;31867.426;  -11.289;32630.281
707.242;30455.818;  -11.509;32728.779
707.816;28828.811;   -9.639;32947.238
708.390;27412.326;  -11.429;33277.855
708.965;28348.561;  -11.869;33834.336
709.539;28919.752;  -11.689;33709.273
710.113;29502.887;  -10.478;33044.313
710.687;28839.408;  -10.228;31953.992
711.261;26584.453;  -13.698;30505.949
711.835;26281.412;  -13.378;30262.369
712.409;27276.387;   -9.698;31254.447
712.983;28885.830;  -11.898;32754.986
713.557;29750.619;  -15.138;34018.824
714.131;29515.746;  -14.098;34579.625
714.704;28684.576;   -9.958;33890.262
715.278;26290.529;  -10.028;33531.102
715.852;25620.787;  -11.148;33601.660
716.425;26502.021;   -9.068;33515.117
716.999;26922.658;  -10.038;33185.555
717.573;27876.186;   -9.798;33905.996
718.146;29215.658;  -12.378;35199.293
718.720;28803.264;  -11.918;35060.551
719.293;27976.236;   -8.088;34973.230
719.867;30876.191;  -10.888;36394.449
720.440;30978.311;  -11.938;36663.008
721.013;29563.201;  -12.818;35102.426
721.587;28230.143;  -10.298;33985.266
722.160;26610.934;  -10.048;33524.965
722.733;25437.309;  -12.108;32987.043
723.306;25986.195;  -10.818;33066.301
723.880;28205.713;   -8.908;33399.500
724.453;30007.541;   -9.878;33468.297
725.026;28954.623;  -11.188;33816.637
725.599;26440.066;  -11.678;32797.996
726.172;26985.891;   -9.618;33187.434
726.745;28336.691;   -8.258;35136.613
727.318;30008.344;  -12.978;35751.730
727.891;30716.838;  -12.148;35890.430
728.463;30601.498;   -8.968;34822.090
729.036;29502.748;  -10.188;32895.086
729.609;29609.021;  -11.788;31823.225
730.182;26153.754;  -11.788;31445.283
730.754;23612.959;  -10.268;32373.223
731.327;23665.396;   -9.998;33676.820
731.900;23770.070;  -12.228;33417.000
732.472;25313.414;  -13.848;31978.498
733.045;27534.908;   -8.698;30368.777
733.617;27604.695;  -10.607;30574.215
734.190;27014.043;  -11.507;31280.975
734.762;24050.213;  -13.647;31674.412
735.334;22510.721;   -9.767;31247.291
735.907;23007.654;   -9.897;29876.211
736.479;22721.924;  -11.637;29808.488
737.051;22303.344;   -9.567;30233.547
737.623;23723.096;   -8.187;31469.086
738.195;24961.594;  -11.187;31784.225
738.768;26798.500;  -12.337;32120.523
739.340;26524.264;  -12.227;32094.342
739.912;25051.543;  -11.057;31312.680
740.484;23958.855;  -10.207;31946.238
741.056;23068.406;  -10.047;32984.059
741.628;24858.232;  -13.627;33897.715
742.199;27220.076;   -7.177;33213.016
742.771;25512.801;  -10.797;31369.113
743.343;23010.121;  -11.997;31865.473
743.915;21843.207;  -12.867;32388.631
744.487;22119.709;   -7.617;31079.568
745.058;22417.609;   -9.557;30570.107
745.630;23205.311;   -9.877;29970.127
746.201;24069.324;  -14.177;29186.766
746.773;24158.775;   -9.237;28805.723
747.344;23885.967;   -9.847;29591.223
747.916;22518.701;  -11.657;31412.201
748.487;22489.885;  -10.587;32194.898
749.059;23772.160;   -8.707;32533.719
749.630;24913.428;  -10.537;32158.518
750.201;24091.010;  -11.687;30855.395
750.773;22289.623;  -11.647;28622.555
751.344;22275.877;   -7.147;28405.732
751.915;23287.078;   -9.757;28461.551
752.486;22483.887;  -12.427;27842.850
753.057;20055.018;  -12.227;27845.008
753.628;18918.145;  -10.417;27728.107
754.199;20278.506;  -11.767;27381.086
754.770;21537.338;  -11.187;25882.203
755.341;21511.150;  -10.507;25886.184
755.912;21621.279;   -9.387;26050.861
756.483;20867.904;  -10.647;26798.779
757.054;19040.107;  -11.837;27048.238
757.625;17843.951;  -12.716;26294.838
758.195;17658.781;   -9.666;26142.076
758.766;17287.500;   -8.656;26392.234
759.337;18171.254;  -12.856;26334.594
759.907;20215.459;  -13.366;27579.652
760.478;21111.439;   -8.576;28352.770
761.048;20493.592;  -10.526;27325.088
761.619;19752.156;  -11.116;26460.428
762.189;19657.166;  -12.136;26029.826
762.760;20667.756;   -9.456;26430.145
763.330;21845.877;   -7.136;26670.902
763.900;21149.617;  -11.786;26603.021
764.471;18337.768;  -11.546;25542.740
765.041;17101.098;   -8.096;24358.459
765.611;17385.994;   -8.876;23991.297
766.181;17892.697;  -12.196;24470.236
766.751;18660.652;  -11.636;24845.975
767.321;18553.092;  -10.156;24533.633
767.891;16559.500;  -11.766;24916.492
768.461;15924.117;  -14.936;24776.771
769.031;16305.156;  -12.356;24757.988
769.601;17967.752;   -7.526;24181.088
770.171;17976.018;  -10.766;23670.387
770.741;17139.104;  -13.176;22960.045
771.311;17353.309;  -10.616;22917.523
771.880;17641.063;   -9.576;23562.941
772.450;17058.895;  -10.336;24216.500
773.020;17066.125;  -13.516;24140.398
773.589;16831.453;  -13.466;24414.857
774.159;16382.958;   -8.686;23858.717
774.729;15866.533;   -9.476;22942.135
775.298;15286.498;  -13.666;22324.033
775.867;14923.429;  -11.716;21140.313
776.437;14938.356;   -9.906;20838.092
777.006;14555.808;  -12.166;20599.510
777.576;14562.946;  -12.356;20508.809
778.145;14837.718;  -11.646;20732.947
778.714;14686.457;   -8.226;21062.465
779.283;13804.221;   -9.556;20949.664
779.853;13439.312;  -14.116;20508.623
780.422;13886.776;  -11.506;20649.082
780.991;13436.177;   -9.556;21527.520
781.560;12393.912;   -9.095;22632.658
782.129;12189.502;  -12.135;23048.277
782.698;12176.029;  -10.865;23438.555
783.267;11853.043;   -9.335;23267.734
783.836;11834.882;  -11.045;22415.133
784.404;12823.332;  -13.865;20443.152
784.973;13207.285;  -13.095;19699.150
785.542;13015.692;  -11.575;19763.828
786.111;12867.613;   -9.705;20341.408
786.679;12483.239;  -12.105;20207.967
787.248;12290.336;  -12.455;19516.465
787.817;12067.387;  -11.535;18900.363
788.385;11622.740;   -9.765;17879.121
788.954;11003.143;  -14.005;17658.301
789.522;10544.884;  -11.955;17788.879
790.090;11150.803;  -10.135;18118.277
790.659;11544.521;  -10.975;18338.736
791.227;10946.946;  -13.375;18508.615
791.795;11411.629;  -12.375;17898.254
792.364;11844.079;  -10.725;17295.133
792.932;12129.511;   -9.715;16822.051
793.500;12297.006;  -12.675;17040.148
794.068;12517.661;  -13.495;17179.787
794.636;12630.150;  -10.885;16664.246
795.204;12141.854;  -11.045;16524.545
795.772;12180.688;  -13.175;17274.564
796.340;11727.878;  -12.445;17891.002
796.908;11574.916;   -9.735;17648.561
797.476;11531.438;   -9.815;17064.080
798.044;11064.005;  -13.985;16672.777
798.612;10197.054;  -13.115;17023.996
799.180; 9856.917;  -10.185;16561.615
799.747; 9766.899;   -9.055;15962.773
800.315; 9449.781;  -12.385;15296.992
800.883; 9084.503;  -15.035;14801.771
801.450; 9015.338;  -10.365;14534.430
802.018; 9052.182;   -9.855;14173.248
802.585; 9134.448;  -11.905;14029.547
803.153; 9208.368;  -11.585;13836.846
803.720; 9164.025;   -9.095;13567.324
804.287; 8860.085;   -9.135;13360.622
804.855; 8416.130;  -11.604;13681.981
805.422; 8236.184;  -11.794;13536.560
805.989; 8205.946;  -10.734;13355.958
806.556; 8371.065;  -10.444;13747.896
807.124; 8667.549;  -12.764;13987.376
807.691; 8608.523;  -12.964;14038.674
808.258; 8409.792;  -11.134;14120.152
808.825; 8097.020;   -9.854;13860.111
809.392; 8141.781;  -10.504;13268.790
809.959; 7655.390;  -13.054;12680.389
810.526; 7276.424;   -8.294;12427.308
811.093; 7349.331;   -8.394;12030.105
811.659; 7927.771;  -12.304;11653.664
812.226; 8352.317;  -13.944;11637.183
812.793; 7992.384;  -10.484;11611.521
813.360; 7338.346;  -10.144;11885.181
813.926; 6944.175;  -11.684;12770.539
814.493; 6689.301;  -13.644;12677.638
815.060; 6352.495;   -9.724;11974.336
815.626; 6422.076;   -9.854;11594.715
816.193; 6866.756;  -13.254;11579.474
816.759; 6908.469;  -13.204;11666.972
817.325; 7020.376;   -9.434;11325.530
817.892; 7362.200;  -10.134;11105.369
818.458; 7765.314;  -13.474;10843.928
819.024; 7426.244;  -11.854;10714.406
819.591; 7050.859;  -10.244;10469.165
820.157; 6785.935;  -10.704;10235.523
820.723; 6276.313;  -12.324;10847.563
821.289; 5964.290;   -9.444;11040.980
821.855; 5882.013;   -8.374;10357.100
822.421; 5894.109;  -10.234; 9978.918
822.987; 5869.710;  -13.294; 9754.177
823.553; 5555.950;  -10.884;10065.755
824.119; 5395.242;   -8.884;10036.294
824.685; 5471.530;   -6.784;10029.192
825.251; 5544.251;  -12.004;10199.230
825.816; 5476.449;  -11.474; 9820.189
826.382; 5265.029;   -9.174; 9297.248
826.948; 5486.691;   -9.214; 9381.347
827.513; 5880.513;  -10.774; 9450.726
828.079; 5689.250;  -11.924; 9472.444
828.645; 5139.200;  -10.543; 9292.643
829.210; 5084.390;  -10.533; 9065.341
829.776; 5075.440;  -10.753; 9132.620
830.341; 4927.588;  -10.173; 9092.878
830.906; 5082.800;  -10.743; 9078.557
831.472; 5429.525;  -11.113; 8534.535
832.037; 5183.929;  -10.603; 8677.874
832.602; 4625.873;  -13.323; 8628.692
833.167; 4320.342;  -10.823; 8879.031
833.733; 4261.937;  -10.113; 9189.790
834.298; 4359.074;  -13.583; 9052.608
834.863; 4355.069;  -12.703; 8895.087
835.428; 4306.572;  -10.523; 8824.266
835.993; 4236.813;   -6.963; 8845.385
836.558; 4150.290;  -10.763; 8888.563
837.123; 4297.360;   -9.903; 8966.582
837.688; 4490.265;   -9.913; 8617.860
838.253; 4668.369;  -10.283; 8590.699
838.817; 4876.880;  -12.963; 8443.797
839.382; 4819.036;  -14.243; 8799.356
839.947; 4505.018;  -10.733; 8810.595
840.511; 4199.127;   -9.383; 8796.394
841.076; 3838.852;  -12.563; 8347.231
841.641; 3877.836;  -12.953; 8224.330
842.205; 3961.462;   -7.043; 8223.349
842.770; 4100.765;   -8.163; 8622.107
843.334; 4361.161;  -12.503; 8410.386
843.898; 4365.883;  -11.693; 8337.465
844.463; 4390.100;  -10.203; 8506.283
845.027; 4134.336;   -9.533; 8280.962
845.591; 3928.722;  -13.443; 8231.141
846.156; 3938.264;  -13.143; 7969.179
846.720; 3804.145;   -9.433; 7768.278
847.284; 3664.918;  -11.033; 7630.957
847.848; 3490.139;  -10.403; 7472.395
848.412; 3391.947;  -11.553; 7437.394
848.976; 3449.061;   -8.393; 7674.592
849.540; 3400.174;   -8.713; 7836.011
850.104; 3488.532;  -12.463; 7913.669
850.668; 3837.581;  -12.973; 7694.508
851.232; 3958.955;  -10.793; 7756.887
851.796; 3775.937;  -10.662; 7926.545
852.359; 3463.365;  -13.082; 7827.844
852.923; 3303.652;  -12.192; 7641.163
853.487; 3125.281;  -11.912; 7342.501
854.050; 3043.870;  -10.892; 7042.820
854.614; 3174.620;  -13.992; 7151.338
855.177; 3306.286;  -11.732; 7105.077
855.741; 3370.126;   -8.962; 6989.675
856.304; 3272.341;   -9.442; 6596.634
856.868; 3194.213;  -14.192; 6356.272
857.431; 3308.634;  -12.702; 6468.571
857.995; 3428.023;   -9.942; 6373.210
858.558; 3438.302;   -9.112; 6324.448
859.121; 3172.768;  -12.932; 6408.327
859.684; 3055.624;  -13.442; 6347.886
860.247; 3186.049;  -10.632; 6321.264
860.810; 3167.129;  -11.272; 6301.903
861.374; 2919.170;   -9.832; 6607.881
861.937; 2663.740;  -11.762; 6408.200
862.500; 2633.851;   -9.722; 6572.639
863.062; 2800.510;  -10.512; 6387.297
863.625; 2989.208;  -11.232; 6190.836
864.188; 3154.274;  -14.112; 5807.254
864.751; 3209.964;  -11.302; 5682.413
865.314; 3099.486;  -10.112; 5547.492
865.876; 2917.915;  -12.182; 5500.150
866.439; 2921.861;  -10.722; 5415.909
867.002; 2878.802;   -9.252; 5501.567
867.564; 2652.282;   -9.572; 5413.946
868.127; 2425.414;  -13.142; 5160.325
868.689; 2337.647;  -12.902; 5133.183
869.252; 2274.356;   -9.732; 5252.382
869.814; 2191.494;   -9.432; 5297.141
870.377; 2205.010;  -11.552; 5390.919
870.939; 2280.840;   -9.052; 5599.898
871.501; 2337.509;  -10.982; 5248.336
872.063; 2349.383;  -12.292; 4854.235
872.626; 2319.613;  -14.912; 4817.074
873.188; 2338.990;  -13.112; 4987.732
873.750; 2297.195;  -13.442; 4868.651
874.312; 2200.303;   -9.402; 4779.330
874.874; 2110.022;  -11.062; 4866.348
875.436; 2030.123;  -13.931; 4718.887
875.998; 2019.148;   -9.561; 4660.005
876.560; 2028.931;  -11.321; 4462.964
877.122; 1967.135;  -12.221; 4145.042
877.683; 1880.171;  -12.191; 4056.481
878.245; 1833.693;  -12.101; 3950.740
878.807; 1942.023;   -8.971; 4058.958
879.369; 2083.011;  -12.071; 3954.677
879.930; 2071.098;  -14.621; 3941.495
880.492; 1981.587;  -10.311; 4067.014
881.053; 1757.742;  -10.901; 3859.633
881.615; 1334.461;  -14.411; 3776.071
882.176;  984.746;  -13.761; 3734.750
882.738;  834.593;   -9.181; 3678.489
883.299;  831.620;  -11.791; 3405.407
883.860;  895.368;  -13.121; 3351.106
884.422;  961.160;  -11.211; 3394.044
884.983;  982.765;  -10.091; 3166.443
885.544;  957.639;   -8.461; 3189.802
886.105;  932.995;  -12.361; 3160.360
886.666;  907.684;  -14.141; 3093.059
887.227;  878.006;  -11.361; 2941.957
887.788;  835.935;  -11.401; 2974.836
888.349;  791.885;  -13.791; 2721.214
888.910;  801.503;  -13.191; 2696.493
889.471;  821.036;   -9.881; 2560.172
890.032;  811.760;   -9.881; 2558.190
890.593;  793.107;  -10.371; 2567.669
891.153;  768.286;  -13.301; 2460.307
891.714;  722.285;  -11.431; 2372.046
892.275;  689.760;  -11.291; 2309.505
892.835;  656.274;  -11.471; 2382.543
893.396;  603.194;  -11.541; 2295.502
893.956;  550.222;  -11.181; 2162.420
894.517;  517.480;  -11.741; 2125.439
895.077;  512.481;  -11.671; 2086.978
895.638;  511.178;  -11.311; 2126.316
896.198;  484.605;   -9.831; 1838.275
896.758;  443.659;   -8.421; 1892.813
897.319;  412.740;  -12.351; 1792.232
897.879;  396.658;  -13.511; 1762.751
898.439;  371.351;  -12.001; 1661.149
898.999;  347.469;  -10.180; 1781.468
899.559;  339.667;  -12.030; 1703.347
900.119;  334.009;  -15.710; 1537.525
900.679;  332.408;   -8.900; 1638.384
901.239;  319.195;   -8.340; 1527.902
901.799;  308.784;  -13.910; 1456.441
902.359;  302.982;  -13.460; 1357.140
902.919;  296.166;  -11.490; 1331.118
903.479;  282.915;  -12.110; 1317.257
904.038;  260.916;  -11.720; 1262.595
904.598;  245.145;  -13.610; 1152.034
905.158;  240.298;  -11.040; 1240.893
905.717;  233.757;  -10.900; 1233.691
906.277;  223.707;  -15.080; 1217.330
906.836;  214.552;  -13.380; 1222.408
907.396;  207.027;  -10.780; 1193.047
907.955;  199.965;   -8.500; 1182.526
908.515;  194.737;  -12.760; 1099.364
909.074;  188.276;  -11.900; 1092.863
909.633;  182.121;   -8.950; 1069.121
910.192;  177.494;   -8.770; 1196.460
910.752;  172.356;  -12.390; 1029.960
911.311;  167.336;  -13.680; 1009.780
911.870;  162.188;  -12.370;  971.460
912.429;  160.387;  -10.900; 1094.080
912.988;  158.612;  -11.690; 1081.060
913.547;  154.768;  -13.240;  940.380
914.106;  150.782;  -11.990;  999.420
914.665;  149.084;   -9.990;  984.020
915.224;  148.764;  -12.880; 1035.760
915.782;  148.431;  -12.350;  922.560
916.341;  148.703;   -9.110; 1049.840
916.900;  145.725;   -9.270;  925.260
917.458;  143.910;  -13.240;  884.220
918.017;  143.286;  -13.550;  942.600
918.576;  142.941;  -12.320;  904.440
919.134;  141.305;  -11.490;  837.980
919.693;  138.592;  -13.670;  893.060
920.251;  137.049;  -15.470;  876.500
920.809;  135.271;  -11.290;  839.580
921.368;  136.534;  -10.210;  885.360
921.926;  134.084;  -12.140;  842.940
922.484;  133.108;  -13.080;  903.360
923.042;  132.362;  -11.720;  880.340
923.601;  135.751;   -7.480;  998.680
924.159;  134.727;  -11.570;  935.560
924.717;  130.990;  -13.840;  841.080
925.275;  131.373;  -10.640;  903.240
925.833;  132.159;  -11.540;  779.320
926.391;  132.292;  -12.960;  938.380
926.949;  130.517;  -14.130;  857.680
927.506;  130.601;  -11.750;  903.500
928.064;  130.720;  -10.250;  877.580
928.622;  129.538;  -13.030;  880.100
929.180;  129.170;  -13.400;  814.180
929.737;  130.186;  -10.700;  808.540
930.295;  134.148;  -10.070;  928.480
930.853;  135.369;  -11.960;  849.100
931.410;  135.930;  -13.120;  821.120
931.968;  135.691;  -10.770;  940.660
932.525;  135.541;  -10.680;  909.380
933.082;  135.577;  -13.130;  811.440
933.640;  136.485;  -13.210;  925.900
934.197;  134.550;  -11.060;  886.360
934.754;  135.834;   -9.580;  897.780
935.312;  138.281;  -14.000;  863.340
935.869;  143.322;  -10.710; 1012.980
936.426;  142.944;   -9.860;  872.800
936.983;  144.341;   -9.710;  889.020
937.540;  143.667;  -13.990;  838.280
938.097;  142.479;  -14.040;  940.120
938.654;  142.801;  -10.310;  898.860
939.211;  145.623;  -10.560;  952.480
939.768;  149.659;  -13.900;  915.420
940.324;  152.099;  -14.760;  904.200
940.881;  152.020;  -10.370;  878.500
941.438;  153.312;   -8.260; 1021.200
941.995;  149.163;  -12.540;  992.560
942.551;  147.005;  -14.670;  875.620
943.108;  146.496;  -10.450;  937.920
943.664;  149.367;  -10.750;  869.340
944.221;  152.368;  -11.550; 1088.140
944.777;  150.217;  -14.770;  869.680
945.334;  151.714;  -12.820;  884.840
945.890;  154.201;  -10.130;  946.480
946.446;  154.286;  -13.470;  947.020
947.003;  155.878;  -12.120;  964.940
947.559;  157.523;   -9.980; 1063.040
948.115;  156.619;   -9.080; 1026.540
948.671;  154.575;  -10.830;  967.300
949.227;  151.409;  -12.440;  859.560
949.783;  149.508;  -12.910;  858.900
950.339;  150.430;  -10.270;  991.000
950.895;  150.331;  -13.630; 1023.840
951.451;  150.181;  -15.100;  925.280
952.007;  152.215;  -11.330;  998.540
952.563;  153.521;  -10.580;  937.780
953.118;  152.662;  -13.440;  904.940
953.674;  151.720;  -12.710;  935.780
954.230;  151.307;  -10.350;  949.640
954.785;  149.298;   -9.190;  936.640
955.341;  146.973;  -11.200;  998.160
955.897;  144.607;  -16.560;  834.660
956.452;  145.906;  -12.570;  953.840
957.008;  145.800;   -7.970; 1083.640
957.563;  142.644;  -11.940; 1009.540
958.118;  138.370;  -13.450;  877.700
958.674;  139.082;  -12.030;  946.780
959.229;  140.203;   -9.410; 1013.980
959.784;  137.309;  -12.000;  832.400
960.339;  136.654;  -14.780; 1001.280
960.894;  132.186;   -9.860;  963.760
961.449;  129.535;   -9.970;  859.960
962.004;  128.968;  -10.900; 1212.840
962.559;  124.660;  -13.150;  860.140
963.114;  121.641;  -13.740;  742.480
963.669;  121.714;   -9.820;  915.500
964.224;  120.074;  -13.890;  874.340
964.779;  119.919;  -12.600;  828.420
965.334;  120.468;  -10.950; 1017.860
965.888;  119.708;  -11.170;  875.360
966.443;  122.247;  -12.540;  972.380
966.998;  120.945;  -15.780;  819.460
967.552;  119.538;   -9.760;  908.380
968.107;  117.385;   -9.060;  868.300
968.661;  117.191;  -11.950;  922.440
969.216;  118.246;  -12.800;  856.280
969.770;  117.782;  -11.210;  917.200
970.324;  117.703;  -11.610;  923.140
970.879;  114.461;  -11.370;  947.180
971.433;  110.810;  -12.540;  952.720
971.987;  105.788;  -11.320;  895.340
972.541;  103.551;  -10.720;  917.100
973.095;  102.954;   -9.680; 1009.460
973.649;  101.461;  -11.440;  809.480
974.203;  100.795;  -11.210;  829.040
974.757;  100.599;  -10.240;  855.220
975.311;  101.013;  -13.720;  872.600
975.865;   99.771;  -13.770;  881.820
976.419;   97.791;  -11.690;  857.400
976.973;   98.271;   -9.510;  849.620
977.526;  100.053;  -12.620;  949.920
978.080;   99.551;  -12.010;  796.780
978.634;  101.015;  -10.170;  921.320
979.187;   98.678;   -9.020;  905.400
979.741;   95.731;   -9.820; 1018.380
980.294;   90.925;  -14.870;  789.160
980.848;   88.511;  -12.380;  717.220
981.401;   91.519;  -10.350;  816.540
981.955;   93.174;  -13.720;  844.300
982.508;   91.593;  -11.490;  746.340
983.061;   92.446;  -10.000;  915.260
983.615;   88.811;  -11.480;  798.800
984.168;   85.220;  -13.220;  770.080
984.721;   84.401;  -13.960;  880.760
985.274;   84.517;  -10.870;  867.500
985.827;   82.846;   -9.790;  834.220
986.380;   80.507;  -13.120;  721.340
986.933;   80.042;  -12.450;  864.800
987.486;   77.993;  -10.210;  861.920
988.039;   76.545;   -8.430;  863.100
988.591;   75.189;  -10.520;  893.260
989.144;   72.325;  -14.860;  737.260
989.697;   71.349;  -13.080;  758.740
990.250;   72.759;  -10.150;  858.100
990.802;   70.967;  -13.430;  755.860
991.355;   72.110;  -12.750;  974.880
991.907;   70.216;  -12.040;  864.320
992.460;   68.323;  -11.330;  753.760
993.012;   67.150;  -13.610;  749.540
993.565;   66.043;  -13.460;  711.360
994.117;   67.990;   -9.360;  950.780
994.669;   63.279;  -11.300;  701.320
995.221;   62.420;  -13.540;  791.920
995.774;   60.552;  -13.430;  787.580
996.326;   58.232;  -12.520;  740.220
996.878;   57.706;  -10.950;  838.420
997.430;   56.149;  -14.300;  699.860
997.982;   55.799;  -13.760;  750.140
998.534;   54.979;  -11.530;  739.060
999.086;   53.990;  -10.310;  738.220
999.638;   52.616;  -12.530;  661.380
1000.190;   51.955;  -11.840;  699.320
1000.741;   51.408;  -10.260;  742.700
1001.293;   50.735;   -8.860;  686.020
1001.845;   49.161;  -13.700;  676.640
1002.396;   49.025;  -12.100;  743.400
1002.948;   49.419;  -12.760;  737.400
1003.500;   47.556;  -10.380;  723.780
1004.051;   48.445;  -11.900;  907.580
1004.603;   46.317;  -12.250;  791.820
1005.154;   42.597;  -13.210;  608.980
1005.705;   42.223;  -10.950;  723.960
1006.257;   41.454;  -13.880;  707.220
1006.808;   40.604;  -12.840;  685.460
1007.359;   40.432;  -10.570;  763.240
1007.910;   39.827;   -9.620;  646.640
1008.461;   38.516;  -13.630;  732.940
1009.013;   37.861;  -17.200;  588.340
1009.564;   39.090;  -10.200;  793.520
1010.115;   37.370;  -12.570;  597.040
1010.665;   37.064;  -15.150;  602.160
1011.216;   37.130;  -14.480;  667.920
1011.767;   36.012;  -11.340;  697.920
1012.318;   37.199;   -9.780;  736.980
1012.869;   35.371;  -12.380;  679.000
1013.419;   35.198;  -15.560;  603.120
1013.970;   35.333;  -11.010;  666.640
1014.521;   34.774;  -11.610;  620.620
1015.071;   34.741;  -13.450;  670.380
1015.622;   34.532;  -13.870;  635.460
1016.172;   33.303;  -11.610;  596.820
1016.723;   33.631;  -12.120;  614.380
1017.273;   33.728;  -13.620;  604.160
1017.823;   33.069;  -14.140;  650.340
1018.374;   32.710;  -12.800;  611.760
1018.924;   32.854;  -12.340;  716.880
1019.474;   33.534;  -11.410;  718.880
1020.024;   31.782;  -14.770;  657.580
1020.574;   32.371;   -9.780;  726.160
1021.124;   31.920;   -8.560;  673.580
1021.674;   30.980;  -15.190;  559.120
1022.224;   32.241;  -13.530;  708.940
1022.774;   31.780;  -13.280;  668.820
1023.324;   32.585;  -10.690;  753.520
1023.874;   33.147;  -10.240;  875.760
1024.423;   30.826;  -12.540;  613.700
1024.973;   29.916;  -10.010;  610.760
1025.523;   29.509;  -10.550;  620.960
1026.072;   28.381;  -13.560;  606.420
1026.622;   29.608;  -15.120;  675.740
1027.172;   29.726;  -11.260;  715.660
1027.721;   29.612;  -11.410;  601.220
1028.270;   28.940;  -13.530;  663.400
1028.820;   28.717;  -13.680;  638.080
1029.369;   28.481;  -13.520;  612.700
1029.918;   29.247;  -10.980;  649.840
1030.468;   28.130;  -13.530;  564.780
1031.017;   28.845;  -13.170;  634.800
1031.566;   27.702;  -12.200;  608.900
1032.115;   27.679;   -9.960;  694.500
1032.664;   26.428;  -13.210;  596.480
1033.213;   28.197;  -12.500;  735.420
1033.762;   27.167;  -11.910;  635.620
1034.311;   27.355;   -9.640;  677.220
1034.860;   27.245;  -13.310;  691.000
1035.408;   27.268;  -11.830;  722.720
1035.957;   27.449;  -12.000;  719.540
1036.506;   26.609;  -11.690;  530.800
1037.055;   26.954;  -10.990;  844.320
1037.603;   25.641;  -15.120;  664.000
1038.152;   23.620;  -12.450;  534.760
1038.700;   25.263;  -10.560;  585.740
1039.249;   24.976;  -11.080;  681.220
1039.797;   25.196;  -12.540;  633.360
1040.345;   25.241;  -11.920;  705.420
1040.894;   24.540;  -11.410;  625.300
1041.442;   24.672;  -14.320;  632.200
1041.990;   23.668;  -16.240;  559.160
1042.538;   23.406;  -11.680;  536.180
1043.087;   23.675;  -10.760;  570.860
1043.635;   24.208;  -11.850;  670.500
1044.183;   22.972;  -15.480;  586.400
1044.731;   22.678;  -11.770;  576.000
1045.279;   23.648;  -13.090;  674.920
1045.827;   25.179;  -12.440;  892.400
1046.374;   21.720;  -13.840;  515.420
1046.922;   21.273;  -13.220;  590.580
1047.470;   23.206;  -10.230;  691.300
1048.018;   22.469;  -14.590;  647.960
1048.565;   23.763;  -12.050;  708.600
1049.113;   22.097;  -11.650;  557.000
1049.660;   22.239;  -10.510;  629.660
1050.208;   21.720;  -13.310;  675.640
1050.755;   21.358;  -15.900;  606.580
1051.303;   21.768;  -11.430;  686.820
1051.850;   21.009;   -8.480;  635.120
1052.397;   19.589;  -15.010;  473.960
1052.945;   20.649;  -13.960;  617.760
1053.492;   21.027;  -13.150;  741.840
1054.039;   21.166;   -9.630;  720.180
1054.586;   20.493;  -13.680;  557.240
1055.133;   21.544;  -14.570;  693.140
1055.680;   20.853;  -13.820;  646.620
1056.227;   20.405;  -11.730;  542.780
1056.774;   21.012;  -12.480;  794.980
1057.321;   19.283;  -13.930;  523.260
1057.868;   19.822;  -11.690;  651.320
1058.415;   19.785;   -9.520;  651.980
1058.961;   20.052;  -13.160;  678.940
1059.508;   19.560;  -12.920;  643.820
1060.055;   19.284;  -11.920;  581.780
1060.601;   19.845;  -11.500;  624.300
1061.148;   19.952;  -14.330;  616.820
1061.694;   18.477;  -16.870;  592.580
1062.241;   18.510;  -10.330;  596.320
1062.787;   19.262;  -10.620;  663.140
1063.334;   20.250;  -10.110;  808.560
1063.880;   18.206;  -13.400;  668.360
1064.426;   18.220;  -10.680;  706.820
1064.972;   18.100;   -9.920;  601.340
1065.518;   16.257;  -10.980;  566.640
1066.065;   18.220;  -14.890;  624.460
1066.611;   17.417;  -12.870;  598.800
1067.157;   18.510;  -12.950;  641.860
1067.703;   17.774;  -13.540;  668.480
1068.249;   18.257;  -13.540;  605.220
1068.794;   17.033;  -12.600;  626.880
1069.340;   16.603;  -10.620;  578.960
1069.886;   16.318;  -12.830;  590.700
1070.432;   15.560;  -14.870;  541.720
1070.977;   16.268;  -11.980;  601.080
1071.523;   16.471;   -8.200;  573.060
1072.068;   16.598;  -12.330;  582.000
1072.614;   16.100;  -16.370;  527.760
1073.160;   16.651;  -11.100;  687.040
1073.705;   15.824;  -10.480;  572.520
1074.250;   15.584;  -14.520;  559.900
1074.796;   16.417;  -11.460;  655.160
1075.341;   16.142;  -11.950;  664.100
1075.886;   15.799;  -11.460;  594.240
1076.431;   14.961;  -13.770;  649.880
1076.976;   14.855;  -12.680;  639.220
1077.521;   14.962;  -13.170;  583.080
1078.067;   14.369;  -10.860;  579.400
1078.612;   15.008;  -13.920;  661.620
1079.156;   15.110;  -13.880;  601.540
1079.701;   15.123;  -13.120;  693.260
1080.246;   15.609;   -9.940;  696.300
1080.791;   14.726;  -14.740;  625.020
1081.336;   14.204;  -13.750;  659.320
1081.880;   14.846;  -13.400;  649.680
1082.425;   13.782;  -12.220;  573.480
1082.970;   14.948;  -11.610;  717.040
1083.514;   13.696;  -13.580;  597.000
1084.059;   12.379;  -12.810;  586.720
1084.603;   12.779;  -12.320;  565.840
1085.147;   13.437;  -13.190;  645.220
1085.692;   14.295;  -12.480;  716.800
1086.236;   12.285;  -13.020;  503.140
1086.780;   14.463;   -9.190;  751.440
1087.325;   13.337;  -12.480;  654.620
1087.869;   13.600;  -12.450;  610.700
1088.413;   13.039;  -12.240;  705.040
1088.957;   11.518;   -9.020;  543.400
1089.501;   13.572;  -10.320;  766.640
1090.045;   12.651;  -12.720;  726.480
1090.589;   10.890;  -13.690;  569.920
1091.133;   12.299;  -10.020;  673.340
1091.676;   11.645;  -12.330;  591.940
1092.220;   11.798;  -14.970;  600.920
1092.764;   12.663;  -12.430;  706.960
1093.307;   12.370;   -9.800;  673.780
1093.851;   10.274;  -14.970;  556.540
1094.395;   11.743;  -15.310;  683.140
1094.938;   10.559;  -10.370;  632.520
1095.482;   11.251;  -11.050;  559.800
1096.025;   11.962;  -11.840;  710.880
1096.568;   12.478;  -12.840;  779.280
1097.112;    9.586;  -14.700;  508.180
1097.655;   11.493;   -8.720;  603.000
1098.198;   10.057;  -13.610;  600.180
1098.741;    9.829;  -13.350;  612.860
1099.285;   10.977;  -11.230;  657.300
1099.828;    8.802;  -11.840;  439.400
1100.371;   10.099;  -10.840;  608.160
1100.914;   10.270;  -14.190;  682.660
1101.457;    9.967;  -11.240;  679.900
1101.999;    9.167;  -11.270;  584.680
1102.542;    9.451;  -11.480;  641.440
1103.085;    9.648;  -11.750;  658.500
1103.628;   10.139;  -11.400;  762.060
1104.170;    9.429;  -10.490;  588.280
1104.713;    9.647;  -10.600;  646.700
1105.256;    9.050;  -14.360;  557.440
1105.798;    7.647;  -13.210;  499.980
1106.341;   10.025;  -10.270;  728.900
1106.883;    8.222;  -12.200;  521.340
1107.425;    8.158;  -13.110;  668.180
1107.968;    8.680;  -12.840;  612.380
1108.510;    9.694;   -6.480;  684.960
1109.052;    7.290;  -13.940;  612.620
1109.594;    7.326;  -13.690;  554.440
1110.136;    8.496;  -11.880;  643.220
1110.679;    7.638;   -9.500;  633.080
1111.221;    8.249;  -14.160;  604.460
1111.763;    7.384;  -13.980;  559.220
1112.304;    6.577;  -13.880;  547.140
1112.846;    8.434;  -12.210;  666.240
1113.388;    9.934;  -11.390;  942.180
1113.930;    7.533;  -14.540;  694.200
1114.472;    6.694;  -12.640;  606.540
1115.013;    6.412;  -11.620;  551.280
1115.555;    6.343;  -13.640;  587.100
1116.097;    6.303;  -15.380;  579.480
1116.638;    7.438;  -12.640;  684.600
1117.180;    7.308;   -9.850;  667.740
1117.721;    6.883;  -13.690;  568.580
1118.262;    6.811;  -12.680;  677.960
1118.804;    7.261;  -12.530;  637.340
1119.345;    6.184;  -11.690;  578.400
1119.886;    6.674;  -13.380;  704.040
1120.427;    5.963;  -14.070;  589.020
1120.969;    5.259;  -13.500;  597.920
1121.510;    5.307;  -11.480;  563.060
1122.051;    5.945;  -12.830;  723.580
1122.592;    4.999;  -14.290;  655.420
1123.133;    4.324;  -12.400;  547.940
1123.673;    6.923;  -10.130;  706.480
1124.214;    5.292;  -12.930;  612.460
1124.755;    5.570;  -14.380;  639.460
1125.296;    5.155;  -14.000;  627.320
1125.836;    6.077;  -10.070;  691.500
1126.377;    5.237;  -12.640;  599.660
1126.918;    5.763;  -12.960;  614.980
1127.458;    4.787;  -13.350;  622.220
1127.999;    5.346;  -10.750;  656.980
1128.539;    5.813;  -12.350;  694.240
1129.079;    4.862;  -14.860;  632.720
1129.620;    3.989;  -13.840;  558.100
1130.160;    4.280;  -12.330;  539.480
1130.700;    4.310;  -14.530;  640.840
1131.240;    5.202;  -12.530;  643.700
1131.781;    4.006;  -14.450;  619.680
1132.321;    4.199;   -9.790;  599.120
1132.861;    3.226;  -14.860;  564.200
1133.401;    2.920;  -14.290;  593.940
1133.941;    3.483;  -11.750;  626.280
1134.481;    3.911;   -9.920;  597.580
1135.020;    3.796;  -12.290;  609.160
1135.560;    3.673;  -11.650;  674.940
1136.100;    2.418;  -16.270;  501.160
1136.640;    3.343;  -10.890;  510.480
1137.179;    3.313;  -14.180;  537.960
1137.719;    3.524;  -16.250;  605.400
1138.258;    3.078;  -14.230;  587.360
1138.798;    3.819;   -9.090;  663.780
1139.337;    1.729;  -15.130;  482.840
1139.877;    2.984;  -13.680;  642.360
1140.416;    4.785;  -11.320;  878.060
1140.955;    2.546;  -10.860;  535.380
1141.494;    2.958;  -12.920;  669.280
1142.034;    2.064;  -13.930;  583.520
1142.573;    3.231;  -11.440;  646.280
1143.112;    2.468;  -12.000;  553.480
1143.651;    2.191;  -13.670;  536.480
1144.190;    2.840;  -12.730;  691.640
1144.729;    2.541;  -14.560;  607.420
1145.267;    2.347;  -11.830;  584.900
1145.806;    2.459;  -12.230;  637.040
1146.345;    1.346;  -14.130;  635.020
1146.884;    1.939;  -11.590;  622.500
1147.422;    1.397;  -12.550;  533.060
1147.961;    2.834;  -11.180;  708.460
1148.500;    2.390;  -11.510;  669.720
1149.038;    2.651;  -11.640;  632.500
1149.577;    2.313;  -10.130;  698.640
1150.115;    0.216;  -13.970;  452.280
1150.653;    1.943;  -14.520;  607.340
1151.192;    1.604;  -12.810;  552.920
1151.730;    1.487;   -9.100;  652.560
1152.268;    1.303;  -12.220;  589.520
1152.806;    1.264;  -14.140;  571.180
1153.344;   -0.459;  -12.350;  577.640
1153.882;    0.912;   -8.980;  600.060
1154.421;   -0.248;  -15.190;  470.620
1154.958;   -0.047;  -15.210;  595.240
1155.496;    1.114;  -12.850;  645.280
1156.034;    0.948;   -9.940;  721.880
1156.572;    1.778;  -13.570;  667.060
1157.110;    0.579;  -14.590;  473.940
1157.647;    1.228;  -13.030;  676.960
1158.185;   -0.106;  -12.140;  564.320
1158.723;   -1.143;  -14.390;  509.200
1159.260;    0.627;  -14.090;  701.700
1159.798;    1.067;  -11.920;  658.160
1160.335;    0.218;  -11.110;  631.820

