
Integration time [ms]:   3.882
Averaging Nr. [scans]: 1000
Smoothing Nr. [pixels]: 0
Data measured with spectrometer [name]: 7414430SP
Wave   ;Sample   ;Dark     ;Reference
[nm]   ;[counts] ;[counts] ;[counts] 

288.544;  140.351;    7.153;  793.890
289.143;  143.126;    8.402;  681.602
289.742;  144.277;    7.062;  828.814
290.341;  131.990;    0.191;  789.841
290.940;  121.700;    0.321;  730.702
291.538;  121.979;    3.811;  881.108
292.137;  120.580;   -3.438;  792.581
292.736;  125.223;   -2.809;  975.101
293.335;  120.815;   -5.239;  735.086
293.934;  122.048;   -4.939;  781.677
294.532;  122.072;   -2.199; 1031.958
295.131;  108.367;   -6.831;  834.394
295.730;  107.716;   -6.620;  809.588
296.328;  105.660;   -6.471;  783.442
296.927;  105.178;   -6.571;  779.652
297.525;  106.926;   -7.391;  781.236
298.124;   98.122;   -9.402;  654.009
298.722;  101.678;   -5.781;  761.933
299.321;  100.441;   -6.351;  708.597
299.919;   98.784;   -8.661;  751.918
300.518;   93.073;  -11.922;  689.338
301.116;   95.140;   -6.941;  691.381
301.715;   95.999;   -5.471;  730.222
302.313;   95.080;   -8.361;  704.943
302.911;   91.167;   -9.082;  733.830
303.509;   96.162;   -4.571;  925.627
304.108;   93.266;   -7.111;  760.383
304.706;   93.695;   -7.681;  801.664
305.304;   87.833;   -9.162;  796.707
305.902;   92.250;   -6.761;  784.484
306.500;   87.805;   -6.921;  728.200
307.098;   86.381;   -6.491;  746.560
307.696;   84.279;   -6.941;  780.432
308.294;   85.460;   -6.301;  731.359
308.892;   86.948;   -4.771;  759.769
309.490;   82.876;   -5.141;  712.161
310.088;   81.303;   -2.912;  788.444
310.686;   86.162;   -0.421;  821.749
311.284;   81.714;   -3.461;  766.040
311.882;   80.542;   -6.282;  731.225
312.480;   77.085;   -3.632;  697.167
313.078;   78.143;   -2.112;  808.331
313.675;   79.833;   -1.931;  691.600
314.273;   74.818;   -1.442;  797.837
314.871;   73.966;   -3.002;  589.829
315.468;   70.986;   -2.252;  652.090
316.066;   74.615;   -1.091;  694.427
316.664;   68.196;   -4.512;  656.351
317.261;   72.086;   -0.062;  910.128
317.859;   67.735;   -0.952;  768.735
318.456;   68.386;    0.719;  830.096
319.054;   64.982;   -4.002;  787.828
319.651;   62.996;   -4.972;  759.928
320.249;   62.827;   -1.162;  810.188
320.846;   60.437;   -2.651;  714.286
321.443;   58.695;   -3.832;  832.135
322.041;   55.607;   -4.312;  812.315
322.638;   53.219;   -3.872;  701.456
323.235;   54.274;   -4.361;  665.683
323.833;   53.218;   -4.821;  740.354
324.430;   48.346;   -6.971;  615.900
325.027;   48.578;   -4.361;  876.855
325.624;   49.140;   -5.581;  644.532
326.221;   46.459;   -6.601;  689.717
326.818;   46.331;   -7.301;  818.332
327.415;   48.935;   -6.180;  748.828
328.012;   47.949;   -5.920;  690.585
328.609;   46.659;   -8.390;  731.389
329.206;   44.216;   -6.121;  778.621
329.803;   43.849;   -5.241;  737.841
330.400;   46.063;   -7.420;  704.260
330.997;   47.722;   -5.931;  817.147
331.594;   44.906;   -5.641;  788.185
332.191;   50.608;   -6.451;  728.722
332.787;   53.429;   -4.651;  844.463
333.384;   51.460;   -5.472;  763.093
333.981;   48.893;   -6.303;  815.687
334.578;   52.158;   -5.892;  708.378
335.174;   54.300;   -4.102;  731.469
335.771;   53.394;   -8.053;  836.456
336.367;   50.882;   -7.363;  710.631
336.964;   55.222;   -6.243;  793.266
337.561;   53.147;   -5.653;  731.112
338.157;   49.556;   -7.074;  911.916
338.754;   47.036;   -5.474;  796.589
339.350;   44.526;   -5.624;  722.493
339.946;   47.757;   -5.054;  773.135
340.543;   40.853;   -6.695;  846.136
341.139;   34.012;   -6.215;  720.836
341.735;   32.175;   -5.746;  772.593
342.332;   30.847;   -7.335;  691.472
342.928;   32.790;   -4.835;  795.394
343.524;   26.392;   -4.586;  761.684
344.120;   22.539;   -3.946;  738.562
344.716;   25.752;   -4.835;  723.717
345.313;   24.162;   -5.325;  795.342
345.909;   19.232;   -6.535;  627.336
346.505;   20.519;   -4.725;  740.247
347.101;   21.243;   -4.164;  827.864
347.697;   22.544;   -5.274;  785.398
348.293;   15.853;   -7.145;  627.244
348.889;   17.277;   -4.364;  745.914
349.485;   16.469;   -6.404;  688.205
350.081;   18.165;   -7.534;  772.592
350.676;   12.661;   -6.995;  691.606
351.272;   17.570;   -3.544;  809.530
351.868;   17.596;   -5.324;  780.497
352.464;   15.363;   -7.204;  723.932
353.059;   11.103;   -6.894;  646.017
353.655;   14.379;   -3.754;  777.063
354.251;   15.289;   -6.143;  759.845
354.846;    9.944;   -9.464;  740.646
355.442;    6.812;   -7.555;  753.071
356.038;    8.286;   -5.474;  751.708
356.633;    8.919;   -5.914;  728.594
357.229;    8.183;   -8.944;  724.757
357.824;    6.224;   -6.794;  703.600
358.420;    5.095;   -5.754;  679.726
359.015;    5.442;   -5.664;  695.357
359.610;    7.217;   -8.004;  763.920
360.206;    0.741;   -8.815;  603.240
360.801;    2.911;   -8.834;  646.503
361.396;    6.061;   -6.274;  725.975
361.992;    1.582;   -8.574;  668.220
362.587;   -1.907;   -9.265;  670.160
363.182;    0.441;   -5.484;  689.631
363.777;    0.824;   -5.164;  738.242
364.372;    1.827;   -6.954;  737.314
364.967;   -2.552;   -7.065;  680.744
365.563;    1.869;   -5.684;  815.567
366.158;   -1.380;   -6.484;  685.161
366.753;   -0.382;   -8.004;  649.263
367.348;   -2.192;  -10.114;  746.056
367.942;   -2.779;   -7.764;  697.298
368.537;   -2.963;   -4.554;  754.245
369.132;   -2.384;   -7.664;  703.428
369.727;   -7.427;   -8.905;  638.079
370.322;   -5.516;   -4.945;  580.186
370.917;   -5.882;   -7.095;  710.646
371.511;   -2.457;   -6.574;  861.834
372.106;   -6.430;   -6.515;  776.964
372.701;   -9.609;   -8.225;  585.988
373.296;   -3.292;   -4.494;  863.135
373.890;   -9.357;   -7.965;  647.840
374.485;  -11.020;   -9.745;  691.199
375.079;   -7.406;   -5.554;  738.685
375.674;   -5.263;   -4.724;  812.970
376.268;   -8.914;   -8.365;  691.759
376.863;  -15.882;   -8.126;  580.327
377.457;   -9.212;   -6.045;  662.490
378.052;  -11.284;   -6.835;  764.884
378.646;  -11.219;   -9.375;  741.167
379.240;  -12.049;   -6.185;  721.176
379.835;  -11.567;   -6.135;  636.978
380.429;  -13.490;   -8.365;  562.557
381.023;  -12.365;   -7.935;  779.205
381.617;  -15.785;   -8.325;  680.106
382.212;  -12.735;   -7.405;  685.303
382.806;  -10.889;   -4.155;  760.690
383.400;  -14.861;   -8.945;  672.281
383.994;  -16.572;   -8.365;  664.870
384.588;  -12.432;   -7.824;  697.701
385.182;  -10.555;   -7.984;  726.624
385.776;  -12.421;  -10.404;  706.875
386.370;  -15.232;   -7.335;  681.968
386.964;  -14.997;   -7.485;  684.155
387.558;  -13.210;   -8.174;  598.360
388.152;  -15.376;  -10.415;  681.959
388.745;  -14.716;   -9.595;  814.707
389.339;  -12.577;   -6.454;  747.642
389.933;  -12.062;   -5.804;  695.370
390.527;  -12.594;   -6.854;  859.029
391.120;  -19.549;   -7.665;  595.318
391.714;  -16.639;   -7.245;  711.633
392.308;  -12.975;   -4.514;  780.253
392.901;  -16.760;   -7.935;  642.460
393.495;  -18.306;   -8.585;  595.414
394.089;  -16.768;   -5.245;  760.452
394.682;  -17.313;   -6.305;  697.188
395.275;  -16.795;   -9.335;  719.927
395.869;  -18.223;   -7.375;  667.314
396.462;  -17.577;   -7.055;  616.609
397.056;  -12.660;   -5.434;  776.621
397.649;  -17.640;   -9.525;  731.575
398.242;  -14.959;   -7.574;  712.645
398.836;  -14.230;   -5.134;  766.408
399.429;  -15.333;   -6.544;  631.041
400.022;  -18.975;   -9.215;  665.902
400.615;  -16.190;   -8.105;  805.609
401.208;  -14.735;   -7.614;  691.451
401.802;  -16.364;   -8.085;  699.329
402.395;  -17.253;   -9.575;  683.502
402.988;  -18.711;   -9.285;  696.627
403.581;  -16.146;   -7.514;  646.878
404.174;  -13.387;   -6.404;  686.568
404.767;  -15.782;   -8.775;  638.583
405.360;  -18.981;   -7.415;  621.445
405.953;  -13.849;   -5.624;  759.034
406.545;  -12.823;   -6.474;  725.342
407.138;  -16.550;   -8.445;  618.350
407.731;  -16.091;  -10.044;  613.303
408.324;  -11.602;   -8.484;  660.554
408.917;  -12.647;   -7.624;  681.864
409.509;  -13.748;   -8.304;  740.396
410.102;  -16.877;   -8.495;  643.948
410.695;  -11.107;   -7.824;  665.758
411.287;  -11.699;   -7.754;  599.821
411.880;  -11.655;   -9.294;  585.421
412.472;  -14.728;   -8.814;  613.092
413.065;  -13.520;   -6.674;  629.408
413.657;  -11.341;   -9.664;  576.678
414.250;  -10.025;  -10.264;  646.681
414.842;  -12.198;   -8.664;  676.353
415.434;  -10.542;   -8.584;  570.463
416.027;   -5.915;   -9.423;  652.196
416.619;   -7.854;  -10.764;  713.400
417.211;   -8.712;   -7.404;  599.352
417.804;   -5.806;   -7.383;  628.499
418.396;   -9.233;   -8.334;  607.643
418.988;   -7.066;   -9.633;  659.238
419.580;   -9.826;  -10.554;  568.276
420.172;   -8.502;   -8.683;  536.196
420.764;   -3.463;   -9.713;  672.482
421.356;   -4.455;  -11.303;  636.898
421.948;   -5.564;   -8.453;  677.661
422.540;   -1.568;   -5.793;  680.027
423.132;   -2.857;   -7.162;  600.641
423.724;   -5.052;   -7.933;  561.267
424.316;   -2.824;   -9.083;  621.345
424.908;    0.068;   -8.392;  591.517
425.500;    1.180;   -8.062;  647.978
426.092;    1.757;   -9.692;  648.268
426.683;    1.130;   -8.223;  684.836
427.275;    3.097;   -8.602;  641.471
427.867;    5.004;   -8.382;  668.948
428.458;    6.064;  -10.472;  732.344
429.050;    4.481;   -9.112;  680.749
429.642;    5.968;   -7.752;  743.124
430.233;    6.326;   -8.832;  569.356
430.825;    7.859;   -8.292;  724.809
431.416;    4.955;   -7.522;  698.241
432.008;    8.341;   -9.262;  651.723
432.599;    9.233;   -6.441;  656.073
433.190;    6.499;   -9.222;  637.670
433.782;    5.297;  -11.832;  590.395
434.373;   12.845;   -7.121;  884.765
434.964;   11.379;   -9.141;  602.920
435.556;    9.128;   -9.332;  634.537
436.147;   12.464;   -8.892;  758.490
436.738;   11.802;   -8.151;  701.099
437.329;   17.167;   -8.281;  721.723
437.920;   10.924;   -9.062;  666.688
438.511;   10.120;  -11.182;  564.526
439.103;   16.670;   -7.461;  623.998
439.694;   18.387;   -8.541;  681.583
440.285;   20.183;   -7.351;  764.432
440.876;   17.973;   -8.201;  845.738
441.466;   16.647;  -10.381;  575.162
442.057;   21.727;   -7.620;  665.814
442.648;   21.421;   -8.461;  746.255
443.239;   19.451;   -8.991;  620.477
443.830;   23.426;   -7.910;  704.958
444.421;   26.391;   -7.340;  655.474
445.011;   22.903;   -8.981;  693.619
445.602;   22.237;   -9.341;  743.126
446.193;   22.706;  -11.390;  488.117
446.783;   28.147;  -11.240;  640.397
447.374;   23.719;   -8.471;  692.759
447.964;   25.235;   -8.471;  713.770
448.555;   32.641;   -6.590;  822.742
449.145;   29.037;   -8.200;  662.853
449.736;   30.451;  -11.040;  803.179
450.326;   29.424;   -9.640;  713.626
450.917;   33.676;   -9.480;  675.324
451.507;   33.880;   -8.020;  600.661
452.097;   34.766;  -10.210;  746.267
452.688;   36.828;   -7.810;  742.160
453.278;   34.753;   -9.360;  566.840
453.868;   40.323;   -8.669;  793.550
454.458;   38.041;  -10.950;  651.141
455.048;   37.778;  -10.200;  711.783
455.639;   39.297;   -9.369;  567.096
456.229;   42.600;   -7.739;  710.694
456.819;   45.680;   -8.939;  751.158
457.409;   44.406;   -7.169;  773.993
457.999;   47.353;   -7.779;  737.505
458.589;   47.165;   -7.039;  686.606
459.179;   47.875;   -9.019;  717.658
459.769;   45.871;   -8.909;  627.099
460.358;   50.015;   -8.659;  797.262
460.948;   50.173;   -8.209;  689.503
461.538;   51.678;   -9.879;  660.677
462.128;   50.200;   -9.379;  664.934
462.717;   56.505;   -9.158;  710.326
463.307;   59.530;   -8.638;  705.846
463.897;   55.632;   -8.869;  656.942
464.486;   54.189;   -7.409;  837.128
465.076;   59.322;   -9.618;  733.776
465.666;   62.159;   -7.578;  652.900
466.255;   60.237;   -9.369;  785.651
466.845;   59.418;  -10.049;  666.749
467.434;   61.972;   -8.168;  725.873
468.023;   62.768;   -9.188;  658.357
468.613;   61.031;   -9.849;  713.946
469.202;   64.382;  -12.958;  646.507
469.791;   68.616;   -9.488;  737.811
470.381;   71.079;   -6.468;  742.813
470.970;   70.469;  -10.248;  711.099
471.559;   69.869;  -11.428;  733.291
472.148;   72.783;   -9.738;  675.737
472.738;   76.167;   -7.877;  765.466
473.327;   75.325;  -11.868;  637.529
473.916;   75.023;   -8.578;  737.446
474.505;   78.387;  -11.137;  751.703
475.094;   81.943;   -9.407;  806.570
475.683;   81.558;   -9.977;  797.699
476.272;   81.682;  -10.807;  730.632
476.861;   84.199;  -11.017;  706.754
477.449;   91.367;  -10.316;  728.487
478.038;   86.233;  -10.187;  692.513
478.627;   86.433;  -12.458;  714.852
479.216;   93.337;  -10.127;  769.441
479.805;   95.748;   -6.256;  783.375
480.393;   96.040;   -8.737; 1008.945
480.982;   94.770;   -9.087;  874.501
481.571;   99.983;   -7.806;  858.333
482.159;  101.045;  -10.596;  705.386
482.748;  100.852;  -11.507;  821.385
483.336;  105.200;   -8.366;  858.209
483.925;  105.416;   -7.497;  774.373
484.513;  111.905;   -8.326;  758.962
485.102;  109.201;  -10.277;  810.965
485.690;  117.653;   -8.256; 1011.050
486.278;  118.365;   -7.146;  979.329
486.867;  118.713;   -7.986;  809.662
487.455;  121.187;   -9.926;  898.229
488.043;  122.141;  -10.026;  748.361
488.631;  130.031;   -7.226; 1005.079
489.220;  133.856;   -8.696;  908.626
489.808;  133.974;  -12.276;  741.415
490.396;  141.165;   -9.386;  914.645
490.984;  144.648;   -8.506;  830.161
491.572;  154.712;   -8.226;  940.315
492.160;  159.577;   -9.836;  919.081
492.748;  169.112;  -10.316;  884.341
493.336;  186.262;   -7.146; 1019.693
493.924;  206.911;   -7.965;  958.077
494.512;  229.753;  -10.316; 1066.638
495.100;  261.345;  -10.186; 1103.280
495.687;  308.214;   -7.805; 1206.373
496.275;  364.648;   -9.686; 1150.796
496.863;  432.640;  -11.566; 1281.171
497.451;  519.396;  -11.406; 1386.805
498.038;  639.231;   -8.235; 1556.729
498.626;  744.365;   -7.485; 1741.407
499.214;  884.768;   -8.646; 2016.609
499.801; 1099.069;   -9.936; 2220.633
500.389; 1268.106;   -8.056; 2312.494
500.976; 1428.038;   -6.166; 2744.849
501.564; 1611.979;   -9.126; 3148.565
502.151; 1881.370;  -12.456; 3515.999
502.738; 2254.930;  -10.056; 3971.274
503.326; 2648.501;  -10.605; 4403.796
503.913; 2976.085;  -10.576; 5161.749
504.500; 3436.511;   -9.056; 5986.420
505.088; 3894.982;  -10.136; 6381.201
505.675; 4584.144;   -9.075; 6925.547
506.262; 5080.043;  -11.346; 7619.060
506.849; 5749.726;   -9.376; 8733.969
507.436; 6284.279;   -7.365; 9790.121
508.023; 6619.906;   -8.686; 9985.472
508.610; 7004.223;   -8.846;10434.618
509.197; 7933.517;   -9.077;11198.435
509.784; 9120.521;  -10.246;12391.194
510.371; 9466.228;   -9.825;13603.713
510.958;10035.556;  -10.896;14426.586
511.545;10821.963;   -9.006;15243.775
512.132;11697.965;   -8.765;15945.876
512.719;12692.301;   -8.286;16340.369
513.305;14588.635;   -9.256;18011.766
513.892;16717.426;  -11.106;19754.971
514.479;18133.154;   -8.576;20967.805
515.066;19186.789;   -9.046;22299.793
515.652;19679.410;  -10.676;22908.660
516.239;21206.393;  -10.166;23798.875
516.825;21805.041;  -11.266;25567.275
517.412;21397.471;   -7.446;28154.959
517.998;21904.684;  -10.916;28344.111
518.585;21254.992;   -9.166;27134.219
519.171;21033.467;  -10.135;27268.576
519.758;22599.594;   -8.806;28964.129
520.344;25475.494;   -6.716;30664.494
520.930;27170.051;  -10.166;32550.605
521.516;27526.145;   -9.615;35422.895
522.103;28872.322;   -8.656;38280.004
522.689;31243.699;   -9.646;37835.117
523.275;32020.121;  -10.786;37288.613
523.861;32983.648;   -9.266;37281.395
524.447;32992.633;   -8.285;37846.949
525.033;33043.906;   -9.426;38321.949
525.619;32303.502;   -9.836;38579.285
526.205;32923.270;   -8.136;40622.875
526.791;33897.637;   -9.986;42258.836
527.377;35611.313;   -8.236;42966.902
527.963;34693.473;  -12.117;42018.949
528.549;33460.570;   -8.376;42476.828
529.135;34455.809;   -8.696;41854.852
529.721;35961.129;   -9.686;41237.711
530.306;38014.934;   -8.616;41259.445
530.892;40963.195;   -9.396;41506.047
531.478;41369.328;   -9.926;43559.613
532.063;42946.309;  -10.236;47695.563
532.649;45048.945;   -8.257;50808.324
533.235;46499.410;  -11.476;51787.500
533.820;45600.520;   -8.156;52145.035
534.406;43859.699;  -12.257;51133.488
534.991;41985.156;   -8.686;49996.805
535.576;39835.750;   -9.426;48882.852
536.162;39946.891;   -8.436;46942.285
536.747;38756.746;  -10.957;45711.746
537.333;37910.258;  -13.147;48510.180
537.918;40739.805;   -9.027;50439.891
538.503;42172.469;   -8.256;50863.711
539.088;45741.656;  -10.576;50906.922
539.673;47673.039;  -10.907;52621.965
540.259;47639.520;   -9.126;52368.094
540.844;44867.574;   -9.026;50879.109
541.429;45888.094;   -9.597;52077.777
542.014;49577.793;  -11.447;52716.695
542.599;50718.520;   -9.236;52363.281
543.184;48926.004;  -12.267;53187.137
543.769;50229.141;  -10.367;54697.605
544.354;50571.086;  -10.887;53913.914
544.938;44866.996;  -11.687;49680.164
545.523;40166.367;   -8.286;47386.277
546.108;41325.691;   -9.317;49151.949
546.693;43498.660;  -10.187;51384.637
547.278;42785.375;   -9.926;51853.254
547.862;41973.008;   -9.196;51173.750
548.447;40854.555;   -9.657;51691.395
549.031;40679.031;   -9.127;52456.703
549.616;44359.473;  -10.836;52714.516
550.201;47723.234;   -8.507;52414.598
550.785;48359.055;  -10.537;52355.059
551.370;48240.648;  -11.727;54589.453
551.954;48829.418;   -9.457;58267.348
552.538;48404.473;   -8.147;59062.176
553.123;46489.230;   -9.397;58115.285
553.707;44197.863;   -9.558;56556.285
554.291;45197.727;   -9.417;56201.668
554.876;45257.828;   -7.627;55335.762
555.460;43350.242;  -10.457;54155.703
556.044;41188.555;  -10.078;53721.484
556.628;41727.840;   -9.407;53731.016
557.212;42025.945;   -7.957;54312.531
557.796;41916.879;  -11.327;53797.773
558.380;45989.250;  -10.868;56145.984
558.964;47096.219;   -9.637;57277.930
559.548;45385.816;   -8.807;56459.641
560.132;46182.719;  -10.187;54434.543
560.716;45582.816;   -9.868;54800.617
561.300;46088.188;  -10.217;57606.945
561.884;46300.793;   -4.947;58972.445
562.467;45565.352;   -9.588;57327.570
563.051;44120.477;  -11.138;54962.434
563.635;41837.453;   -9.358;52594.473
564.219;40703.387;   -9.797;50610.410
564.802;40034.906;   -9.918;49551.180
565.386;36792.973;  -10.838;48370.953
565.969;35954.551;   -8.037;48178.871
566.553;37197.051;   -5.667;49957.305
567.136;37415.500;   -8.258;50369.594
567.720;37684.680;  -11.278;49492.004
568.303;40600.152;   -9.028;50616.352
568.887;40474.277;   -7.508;50727.148
569.470;39237.883;  -11.068;51698.379
570.053;39445.211;  -10.028;52122.078
570.637;38102.000;  -11.077;52536.438
571.220;37638.508;   -8.747;51186.098
571.803;39104.359;   -8.868;51032.762
572.386;41255.207;  -10.608;49609.887
572.969;41045.867;  -10.548;48285.926
573.552;38801.406;   -7.898;47624.285
574.135;39628.363;   -9.918;45498.641
574.718;35894.906;  -10.328;41970.434
575.301;33120.160;   -9.548;41447.137
575.884;30345.412;   -8.768;40923.836
576.467;33472.816;   -9.858;45267.723
577.050;33644.527;  -11.018;48175.543
577.633;34405.551;  -10.048;47729.328
578.216;33719.730;  -10.268;47579.793
578.799;31194.510;  -11.808;47820.996
579.381;31264.516;   -7.338;48115.551
579.964;34095.809;   -9.728;47333.766
580.547;35349.223;   -8.928;46668.969
581.129;36636.152;   -9.149;44466.141
581.712;37036.508;  -11.359;44164.922
582.294;34832.484;  -10.738;46477.855
582.877;33337.387;   -8.788;48244.254
583.459;33475.855;   -9.859;47437.895
584.042;35772.602;   -9.649;46943.219
584.624;35572.367;  -10.529;46792.227
585.206;33985.961;  -10.298;46557.250
585.789;33613.426;  -11.029;45793.773
586.371;31693.000;   -9.359;43836.391
586.953;31100.633;   -8.799;42972.492
587.536;30912.789;   -8.928;42487.211
588.118;30879.313;   -9.180;42086.414
588.700;30385.633;  -10.519;43389.930
589.282;29354.359;   -8.098;43646.039
589.864;29493.605;   -8.139;43438.109
590.446;31042.781;  -10.509;43151.926
591.028;31330.932;  -11.119;42781.867
591.610;32933.609;  -10.019;42839.098
592.192;33055.336;   -8.838;42820.402
592.774;29830.336;  -11.549;40724.277
593.356;26801.777;  -11.609;39874.789
593.937;26100.318;  -10.019;39980.648
594.519;28387.934;   -7.839;42069.633
595.101;30913.123;  -10.779;42976.031
595.683;32254.992;  -10.049;44084.441
596.264;32101.414;   -9.969;43478.797
596.846;31575.387;   -9.699;43803.672
597.427;30438.904;  -10.970;42986.934
598.009;29873.145;  -13.090;42832.219
598.591;29339.227;   -9.509;42580.086
599.172;29592.689;   -9.019;43061.805
599.753;30178.969;  -13.310;41691.469
600.335;30750.979;  -11.010;40692.520
600.916;29758.688;  -10.309;39982.422
601.498;28018.822;   -8.209;40318.617
602.079;26359.600;  -11.440;40670.609
602.660;26824.834;   -8.690;41450.898
603.241;28863.941;  -12.759;41137.738
603.823;29458.188;  -10.409;38868.797
604.404;30025.664;  -11.790;38182.785
604.985;32383.111;  -10.280;38078.047
605.566;34033.387;   -8.059;38056.633
606.147;31434.320;   -8.960;37020.418
606.728;29027.389;  -10.710;37883.359
607.309;28331.143;  -12.760;38748.273
607.890;27015.711;   -9.959;38850.230
608.471;27321.217;   -9.780;37457.918
609.051;28850.676;   -8.940;36066.457
609.632;29548.746;  -12.070;35991.074
610.213;29641.410;   -9.610;37402.641
610.794;30068.332;   -8.750;38383.363
611.374;30620.592;  -11.100;40562.387
611.955;31041.133;  -12.200;38533.727
612.536;31211.930;  -10.410;36951.789
613.116;30334.674;  -10.010;37197.891
613.697;28679.438;  -10.480;38411.125
614.277;28626.400;  -12.751;38673.938
614.858;27699.090;  -11.600;37075.863
615.438;27492.277;   -8.190;35092.906
616.019;26214.945;   -8.941;33666.301
616.599;28042.467;  -13.540;34189.023
617.179;30860.611;  -10.890;36952.047
617.760;30162.307;   -7.610;39582.574
618.340;28200.648;  -14.441;38943.977
618.920;27764.160;   -9.180;37594.156
619.500;29920.729;  -11.881;37866.938
620.080;31660.473;   -9.870;37869.043
620.660;30416.652;  -13.211;36868.617
621.241;29248.061;  -11.921;36352.309
621.821;28924.588;  -10.271;35459.520
622.401;30041.543;   -8.200;35207.414
622.980;31493.525;  -11.141;35980.422
623.560;30630.119;  -14.321;37351.328
624.140;29147.617;   -9.360;34388.582
624.720;25370.789;   -7.481;32368.764
625.300;22988.717;  -12.730;32638.629
625.880;26648.738;  -11.441;34599.035
626.459;29876.516;  -10.971;36831.738
627.039;33582.184;   -9.011;38299.098
627.619;34336.199;   -8.521;38289.574
628.198;32405.707;   -9.861;37220.695
628.778;31238.893;   -8.841;37632.563
629.357;31529.018;   -9.891;38003.012
629.937;31974.816;  -11.871;38402.039
630.516;31559.637;  -10.641;37868.801
631.096;33496.605;  -11.391;35760.410
631.675;35144.098;   -6.622;35225.219
632.254;32073.750;  -13.002;35130.289
632.834;30706.992;  -11.622;35794.570
633.413;31616.994;   -8.321;35788.922
633.992;29814.848;   -7.732;34532.863
634.571;29593.391;  -10.992;33590.113
635.151;28958.627;  -10.422;34943.863
635.730;30304.396;  -11.511;35352.523
636.309;30835.197;   -7.901;35366.605
636.888;29901.131;  -11.452;36165.637
637.467;28855.268;  -10.672;37515.902
638.046;29148.143;   -9.301;39288.695
638.625;30507.484;  -11.452;38279.699
639.204;31319.652;  -12.262;37741.598
639.782;31739.736;  -11.892;38364.551
640.361;30573.379;  -11.411;36740.621
640.940;25481.850;  -11.501;34950.082
641.519;27406.107;  -10.921;34137.398
642.097;31107.529;  -10.101;35654.258
642.676;29910.178;  -10.821;35637.957
643.255;31054.760;   -8.631;36567.074
643.833;33583.422;  -11.411;37809.434
644.412;36190.543;  -12.021;37337.293
644.990;36487.145;  -12.271;37018.531
645.569;35340.371;   -9.741;36518.469
646.147;33032.578;   -9.051;36186.430
646.726;32945.836;  -13.861;36267.688
647.304;33130.023;   -9.461;36647.625
647.882;32772.035;  -13.171;39286.742
648.461;33264.922;  -11.911;39157.703
649.039;32061.225;   -9.541;35412.883
649.617;31173.592;   -8.901;34744.918
650.195;29143.973;   -8.591;35403.098
650.773;28520.225;  -13.031;35053.797
651.352;27573.410;  -12.211;33756.816
651.930;25450.916;  -11.361;31868.773
652.508;22570.900;   -8.601;33121.551
653.086;25186.861;   -9.991;33564.793
653.663;29539.258;  -11.931;34054.668
654.241;31774.514;  -10.821;35693.309
654.819;33250.332;   -9.341;36422.906
655.397;30999.840;  -10.851;38213.484
655.975;29700.365;  -11.461;39507.625
656.553;29844.973;   -8.841;39498.223
657.130;29322.084;  -10.371;40395.480
657.708;29982.289;  -11.071;39242.020
658.286;29541.119;  -11.141;38920.020
658.863;30238.088;  -10.861;40202.898
659.441;34405.914;  -11.181;39677.938
660.018;34765.684;  -10.851;40413.355
660.596;34374.719;  -12.571;39931.414
661.173;34889.699;  -12.141;39604.531
661.750;34977.289;  -11.571;39700.070
662.328;32361.109;  -10.780;39292.809
662.905;29616.818;  -10.750;38235.648
663.482;26309.633;  -11.320;36212.305
664.060;25596.350;  -10.160;35944.945
664.637;30360.303;  -13.120;35170.785
665.214;32515.303;  -11.500;34197.523
665.791;30721.490;  -12.430;34549.520
666.368;28340.045;   -9.840;35118.578
666.945;27454.191;  -11.290;36019.418
667.522;28081.570;  -13.540;36048.438
668.099;28714.225;  -10.250;36243.914
668.676;28048.844;  -11.270;35958.875
669.253;26988.873;   -8.210;37384.730
669.830;26233.545;   -9.710;36779.629
670.407;25704.561;   -9.700;35231.289
670.984;26353.119;   -9.190;35544.270
671.560;25659.021;   -9.560;35466.867
672.137;25239.551;  -11.820;34280.863
672.714;27792.926;  -12.460;34632.863
673.290;32175.879;  -10.940;35135.422
673.867;33075.824;  -10.510;36114.480
674.443;29778.896;  -12.110;36152.859
675.020;30984.125;  -11.760;35327.238
675.596;31914.434;   -9.380;35795.176
676.173;30443.139;  -11.120;35430.355
676.749;29282.387;  -13.390;33549.516
677.326;28573.162;  -12.600;32210.012
677.902;27608.016;  -10.830;32068.871
678.478;27562.834;  -12.400;32583.891
679.054;29472.521;   -8.610;32088.928
679.631;29547.992;  -11.640;30978.848
680.207;29381.719;   -8.140;33160.887
680.783;30379.279;  -12.300;35570.363
681.359;29421.348;  -10.910;36125.184
681.935;29613.559;  -11.040;35240.922
682.511;30387.545;  -11.130;34429.961
683.087;30677.109;  -11.080;34463.680
683.663;32831.273;  -10.530;34648.898
684.239;32517.600;  -12.120;34546.457
684.815;30090.730;   -8.870;35586.375
685.390;29141.756;   -8.940;35821.895
685.966;29102.482;  -12.109;35085.871
686.542;28160.330;  -13.539;34198.230
687.118;28083.422;  -10.379;32847.707
687.693;28423.982;  -10.189;32794.027
688.269;27240.859;  -12.939;33072.367
688.844;26065.814;   -8.679;33141.664
689.420;26960.979;  -10.919;33965.742
689.995;27331.969;   -7.489;34655.523
690.571;26715.607;  -12.199;33576.742
691.146;26596.254;   -8.979;32657.219
691.722;27902.346;   -9.119;32526.979
692.297;26568.377;  -10.519;33014.617
692.872;26244.627;  -10.629;34012.254
693.448;26872.063;  -12.119;34237.434
694.023;27700.205;   -8.219;34142.672
694.598;25964.914;  -13.209;34132.031
695.173;25010.857;  -11.879;34205.250
695.748;25846.738;  -12.039;32882.488
696.323;25528.473;  -11.779;32864.906
696.898;26297.338;  -10.219;33170.004
697.473;27321.094;  -13.639;32432.984
698.048;27706.947;  -11.239;31649.303
698.623;29857.750;  -10.859;30778.141
699.198;31853.352;  -13.379;31140.119
699.773;32449.242;  -13.409;31764.299
700.348;32769.047;  -12.329;31780.816
700.922;33227.863;   -8.749;32046.375
701.497;33440.188;  -12.449;32603.574
702.072;32395.678;   -8.879;34799.871
702.646;30324.871;  -10.719;35793.172
703.221;28823.686;   -8.469;35201.590
703.795;28635.402;  -11.389;34764.527
704.370;28603.896;  -12.499;34307.367
704.944;28487.299;  -11.449;33509.887
705.519;27806.047;  -10.659;31388.584
706.093;27103.217;  -12.909;31340.104
706.668;27253.199;  -13.509;32630.281
707.242;26499.730;  -10.049;32728.779
707.816;24587.898;  -10.629;32947.238
708.390;24089.992;  -11.829;33277.855
708.965;24438.807;  -11.159;33834.336
709.539;25359.516;  -11.069;33709.273
710.113;24881.174;  -10.908;33044.313
710.687;23522.670;   -9.488;31953.992
711.261;23540.809;  -13.068;30505.949
711.835;26140.426;  -12.748;30262.369
712.409;27232.043;  -10.678;31254.447
712.983;26396.387;  -11.658;32754.986
713.557;26958.727;  -13.718;34018.824
714.131;27626.904;  -13.388;34579.625
714.704;27770.010;   -9.818;33890.262
715.278;28429.051;  -11.818;33531.102
715.852;29533.820;  -11.328;33601.660
716.425;29893.797;   -9.118;33515.117
716.999;30069.318;  -10.188;33185.555
717.573;30422.150;   -9.808;33905.996
718.146;33101.664;  -11.478;35199.293
718.720;33168.531;  -10.998;35060.551
719.293;31150.631;   -9.508;34973.230
719.867;30371.600;  -12.138;36394.449
720.440;29177.221;  -11.288;36663.008
721.013;31648.441;  -11.428;35102.426
721.587;32718.264;  -11.698;33985.266
722.160;33456.887;  -11.608;33524.965
722.733;32516.705;  -11.428;32987.043
723.306;31608.637;  -12.518;33066.301
723.880;31625.844;   -7.408;33399.500
724.453;30572.432;  -11.048;33468.297
725.026;29329.318;  -11.678;33816.637
725.599;28028.010;  -10.978;32797.996
726.172;27171.523;   -8.838;33187.434
726.745;28027.086;  -11.438;35136.613
727.318;28595.445;   -9.828;35751.730
727.891;26932.734;  -10.868;35890.430
728.463;24989.105;  -11.348;34822.090
729.036;23610.352;  -11.608;32895.086
729.609;23845.906;  -14.738;31823.225
730.182;24978.645;   -8.448;31445.283
730.754;26146.135;  -11.228;32373.223
731.327;26282.256;  -12.018;33676.820
731.900;27988.707;  -13.748;33417.000
732.472;28133.852;  -10.928;31978.498
733.045;26804.922;   -9.478;30368.777
733.617;25368.635;  -12.967;30574.215
734.190;24414.465;  -11.707;31280.975
734.762;23190.857;  -11.067;31674.412
735.334;22562.801;  -10.587;31247.291
735.907;21752.826;  -11.947;29876.211
736.479;22282.205;  -11.667;29808.488
737.051;24765.150;  -10.187;30233.547
737.623;27022.043;   -6.887;31469.086
738.195;29744.688;  -12.117;31784.225
738.768;31656.699;  -14.077;32120.523
739.340;31206.584;  -12.207;32094.342
739.912;28246.852;   -8.977;31312.680
740.484;26275.461;  -11.017;31946.238
741.056;26899.025;  -13.517;32984.059
741.628;28842.451;  -11.507;33897.715
742.199;29205.338;   -7.597;33213.016
742.771;29855.779;  -12.227;31369.113
743.343;29529.717;  -12.427;31865.473
743.915;28206.801;   -9.827;32388.631
744.487;27234.898;  -10.007;31079.568
745.058;25481.367;  -11.887;30570.107
745.630;24473.072;  -10.787;29970.127
746.201;23610.668;  -10.887;29186.766
746.773;23392.043;   -9.707;28805.723
747.344;24341.258;  -11.137;29591.223
747.916;24710.385;  -11.887;31412.201
748.487;24160.574;   -9.707;32194.898
749.059;23587.326;  -10.027;32533.719
749.630;23460.660;  -11.787;32158.518
750.201;22336.816;  -12.767;30855.395
750.773;21858.506;  -11.497;28622.555
751.344;22641.049;   -9.937;28405.732
751.915;23063.973;  -11.567;28461.551
752.486;22404.545;  -13.267;27842.850
753.057;20416.076;  -10.627;27845.008
753.628;18980.389;  -11.657;27728.107
754.199;21214.783;  -12.097;27381.086
754.770;23011.043;  -11.447;25882.203
755.341;23103.645;  -11.997;25886.184
755.912;20848.906;  -10.207;26050.861
756.483;18962.256;  -10.937;26798.779
757.054;18813.928;  -11.527;27048.238
757.625;19169.236;  -12.886;26294.838
758.195;19666.541;  -11.226;26142.076
758.766;19751.820;  -12.366;26392.234
759.337;18564.338;  -11.946;26334.594
759.907;18619.514;  -13.856;27579.652
760.478;19526.104;   -9.606;28352.770
761.048;19280.639;  -11.606;27325.088
761.619;19208.359;  -11.036;26460.428
762.189;18764.559;  -12.206;26029.826
762.760;20178.859;   -9.666;26430.145
763.330;21133.252;   -9.796;26670.902
763.900;19265.791;  -10.896;26603.021
764.471;17686.043;  -11.726;25542.740
765.041;18152.207;   -9.656;24358.459
765.611;19117.463;  -11.276;23991.297
766.181;18941.145;  -12.116;24470.236
766.751;18359.652;  -12.376;24845.975
767.321;18230.318;  -11.626;24533.633
767.891;18465.520;  -10.426;24916.492
768.461;17550.967;  -13.456;24776.771
769.031;15580.871;  -11.616;24757.988
769.601;15299.451;  -11.356;24181.088
770.171;15480.359;  -11.586;23670.387
770.741;15865.405;  -12.696;22960.045
771.311;15906.664;  -10.226;22917.523
771.880;15626.148;  -11.146;23562.941
772.450;16447.270;  -11.716;24216.500
773.020;16836.561;  -13.226;24140.398
773.589;16519.199;  -12.586;24414.857
774.159;16279.846;  -10.246;23858.717
774.729;15744.918;  -11.586;22942.135
775.298;14819.521;  -15.926;22324.033
775.867;14816.572;  -10.426;21140.313
776.437;14761.583;  -11.416;20838.092
777.006;13395.727;  -12.766;20599.510
777.576;13320.162;  -13.666;20508.809
778.145;13802.308;  -10.066;20732.947
778.714;13556.658;  -10.276;21062.465
779.283;13854.547;  -12.086;20949.664
779.853;15200.824;  -14.016;20508.623
780.422;15722.505;  -12.376;20649.082
780.991;14609.209;   -9.246;21527.520
781.560;13709.905;   -9.775;22632.658
782.129;13510.563;  -12.495;23048.277
782.698;13138.535;  -11.775;23438.555
783.267;13285.554;  -10.065;23267.734
783.836;13778.531;  -12.455;22415.133
784.404;14512.487;  -13.385;20443.152
784.973;15396.567;  -11.045;19699.150
785.542;15017.671;   -9.505;19763.828
786.111;14141.410;   -9.385;20341.408
786.679;14125.814;  -13.475;20207.967
787.248;14162.491;  -11.245;19516.465
787.817;12223.028;  -12.485;18900.363
788.385;10415.546;  -11.165;17879.121
788.954;11095.381;  -11.755;17658.301
789.522;12075.448;   -9.625;17788.879
790.090;11741.729;   -9.665;18118.277
790.659;11239.577;   -9.295;18338.736
791.227;12151.616;  -12.175;18508.615
791.795;13584.497;  -12.145;17898.254
792.364;13497.102;  -11.575;17295.133
792.932;12173.445;  -11.085;16822.051
793.500;11030.820;  -11.345;17040.148
794.068;10803.430;  -12.565;17179.787
794.636;11732.150;  -12.105;16664.246
795.204;12297.242;  -11.995;16524.545
795.772;11765.276;  -12.615;17274.564
796.340;11344.579;  -12.425;17891.002
796.908;11130.912;  -11.455;17648.561
797.476;10643.210;  -12.165;17064.080
798.044;10365.123;  -15.795;16672.777
798.612;10466.348;  -10.985;17023.996
799.180;11124.977;  -12.055;16561.615
799.747;11470.130;  -12.525;15962.773
800.315;10296.292;  -14.765;15296.992
800.883; 9008.603;  -12.435;14801.771
801.450; 8849.696;  -11.295;14534.430
802.018; 9331.219;  -11.185;14173.248
802.585; 9343.488;  -11.625;14029.547
803.153; 8354.720;  -10.665;13836.846
803.720; 7912.641;  -10.275;13567.324
804.287; 7826.700;  -12.865;13360.622
804.855; 8079.054;  -12.324;13681.981
805.422; 8391.125;  -11.574;13536.560
805.989; 8217.239;  -11.004;13355.958
806.556; 8455.160;  -12.214;13747.896
807.124; 8930.170;  -13.304;13987.376
807.691; 8661.313;  -12.034;14038.674
808.258; 7944.703;  -11.014;14120.152
808.825; 7840.675;  -11.804;13860.111
809.392; 7778.802;  -11.544;13268.790
809.959; 7608.738;  -14.954;12680.389
810.526; 7988.475;  -10.214;12427.308
811.093; 8532.173;  -10.754;12030.105
811.659; 8149.049;  -12.194;11653.664
812.226; 6933.923;   -9.194;11637.183
812.793; 6559.289;   -9.644;11611.521
813.360; 7386.691;  -11.544;11885.181
813.926; 8294.419;  -12.814;12770.539
814.493; 8298.200;  -11.524;12677.638
815.060; 7965.391;  -12.254;11974.336
815.626; 7494.461;  -12.114;11594.715
816.193; 7111.075;  -11.994;11579.474
816.759; 6962.113;  -11.464;11666.972
817.325; 6655.827;  -10.444;11325.530
817.892; 6348.490;  -11.124;11105.369
818.458; 6188.509;  -11.864;10843.928
819.024; 6411.299;  -10.634;10714.406
819.591; 6510.068;  -10.554;10469.165
820.157; 6777.349;  -13.334;10235.523
820.723; 7073.014;  -13.044;10847.563
821.289; 7216.807;   -9.664;11040.980
821.855; 7401.921;  -10.994;10357.100
822.421; 7430.204;  -11.784; 9978.918
822.987; 7382.287;  -12.554; 9754.177
823.553; 7801.621;  -12.554;10065.755
824.119; 7681.110;   -8.544;10036.294
824.685; 6698.352;  -12.144;10029.192
825.251; 6107.054;  -12.754;10199.230
825.816; 5663.471;  -11.354; 9820.189
826.382; 5407.007;  -11.004; 9297.248
826.948; 5465.500;  -11.004; 9381.347
827.513; 5392.078;  -12.474; 9450.726
828.079; 5365.866;  -13.084; 9472.444
828.645; 5514.924;  -10.813; 9292.643
829.210; 5277.137;  -11.593; 9065.341
829.776; 5186.159;  -12.633; 9132.620
830.341; 5215.557;  -10.473; 9092.878
830.906; 5028.258;   -8.763; 9078.557
831.472; 4759.872;  -13.453; 8534.535
832.037; 4179.469;  -12.173; 8677.874
832.602; 3946.639;  -14.093; 8628.692
833.167; 4202.385;  -13.593; 8879.031
833.733; 4734.595;  -10.793; 9189.790
834.298; 5140.776;  -14.783; 9052.608
834.863; 4760.988;  -11.023; 8895.087
835.428; 4490.729;  -11.113; 8824.266
835.993; 4920.333;   -9.983; 8845.385
836.558; 5155.294;  -13.003; 8888.563
837.123; 4958.791;  -10.733; 8966.582
837.688; 4554.091;   -9.683; 8617.860
838.253; 4385.455;  -12.253; 8590.699
838.817; 4389.908;  -11.643; 8443.797
839.382; 4335.542;  -11.953; 8799.356
839.947; 4428.223;  -11.443; 8810.595
840.511; 4807.739;  -10.843; 8796.394
841.076; 5098.951;  -13.533; 8347.231
841.641; 4921.202;  -11.743; 8224.330
842.205; 4364.510;  -10.013; 8223.349
842.770; 4020.569;  -11.023; 8622.107
843.334; 4097.757;  -14.273; 8410.386
843.898; 4490.473;  -11.323; 8337.465
844.463; 4889.402;  -10.263; 8506.283
845.027; 5074.366;  -10.353; 8280.962
845.591; 5007.238;  -12.163; 8231.141
846.156; 4845.666;  -12.263; 7969.179
846.720; 4820.095;  -11.553; 7768.278
847.284; 4626.349;  -12.393; 7630.957
847.848; 3851.868;  -12.623; 7472.395
848.412; 3230.642;  -11.863; 7437.394
848.976; 3161.979;  -10.203; 7674.592
849.540; 3371.792;  -10.603; 7836.011
850.104; 3590.508;  -12.423; 7913.669
850.668; 3610.796;  -14.613; 7694.508
851.232; 3625.934;  -12.873; 7756.887
851.796; 3865.304;  -14.192; 7926.545
852.359; 4069.573;  -13.652; 7827.844
852.923; 4006.821;  -11.402; 7641.163
853.487; 3686.905;  -12.022; 7342.501
854.050; 3489.614;  -15.202; 7042.820
854.614; 3492.158;  -14.592; 7151.338
855.177; 3451.619;  -12.572; 7105.077
855.741; 3457.962;   -9.932; 6989.675
856.304; 3381.003;  -12.192; 6596.634
856.868; 3244.465;  -13.462; 6356.272
857.431; 3238.023;  -11.542; 6468.571
857.995; 3354.794;  -12.062; 6373.210
858.558; 3188.270;  -11.142; 6324.448
859.121; 3033.491;  -11.742; 6408.327
859.684; 3074.991;  -10.332; 6347.886
860.247; 3168.309;  -11.962; 6321.264
860.810; 3223.494;  -12.332; 6301.903
861.374; 3113.085;  -10.292; 6607.881
861.937; 2961.672;  -12.062; 6408.200
862.500; 2997.438;  -11.702; 6572.639
863.062; 3129.255;  -13.852; 6387.297
863.625; 3203.854;  -12.972; 6190.836
864.188; 3176.221;  -10.292; 5807.254
864.751; 3128.042;  -12.382; 5682.413
865.314; 2924.708;  -13.232; 5547.492
865.876; 2587.715;  -12.772; 5500.150
866.439; 2312.064;  -11.952; 5415.909
867.002; 2359.590;   -9.332; 5501.567
867.564; 2689.793;  -11.712; 5413.946
868.127; 2868.466;  -12.012; 5160.325
868.689; 2560.939;  -11.882; 5133.183
869.252; 2202.532;  -11.572; 5252.382
869.814; 2091.763;  -10.692; 5297.141
870.377; 2131.870;  -12.392; 5390.919
870.939; 2185.382;  -10.582; 5599.898
871.501; 2223.125;  -12.782; 5248.336
872.063; 2246.701;  -15.612; 4854.235
872.626; 2307.703;  -13.922; 4817.074
873.188; 2293.842;  -13.832; 4987.732
873.750; 2232.279;  -10.962; 4868.651
874.312; 2273.434;  -11.022; 4779.330
874.874; 2325.598;  -13.152; 4866.348
875.436; 2259.902;  -13.401; 4718.887
875.998; 2157.502;   -8.891; 4660.005
876.560; 2058.868;  -12.591; 4462.964
877.122; 1983.070;  -14.531; 4145.042
877.683; 1936.733;  -10.781; 4056.481
878.245; 1849.148;  -14.281; 3950.740
878.807; 1797.192;  -10.311; 4058.958
879.369; 1747.713;  -13.201; 3954.677
879.930; 1702.729;  -12.061; 3941.495
880.492; 1695.617;   -9.181; 4067.014
881.053; 1714.048;  -12.051; 3859.633
881.615; 1685.271;  -11.501; 3776.071
882.176; 1587.903;  -12.221; 3734.750
882.738; 1478.964;   -8.931; 3678.489
883.299; 1407.923;  -13.571; 3405.407
883.860; 1413.136;  -12.331; 3351.106
884.422; 1351.521;  -10.201; 3394.044
884.983; 1217.305;  -12.521; 3166.443
885.544; 1096.835;  -12.291; 3189.802
886.105; 1037.703;  -12.991; 3160.360
886.666; 1019.448;  -12.901; 3093.059
887.227; 1012.435;  -12.061; 2941.957
887.788;  988.191;  -11.641; 2974.836
888.349;  935.358;  -14.691; 2721.214
888.910;  886.458;   -9.681; 2696.493
889.471;  882.323;   -9.971; 2560.172
890.032;  897.152;  -13.151; 2558.190
890.593;  876.644;  -12.051; 2567.669
891.153;  829.878;  -12.841; 2460.307
891.714;  793.012;  -13.561; 2372.046
892.275;  761.496;  -12.401; 2309.505
892.835;  726.672;  -13.191; 2382.543
893.396;  684.612;  -12.551; 2295.502
893.956;  661.450;  -11.981; 2162.420
894.517;  644.642;  -12.221; 2125.439
895.077;  610.717;  -12.021; 2086.978
895.638;  550.311;  -10.891; 2126.316
896.198;  494.706;  -13.171; 1838.275
896.758;  462.088;  -11.891; 1892.813
897.319;  438.536;  -12.491; 1792.232
897.879;  424.073;  -12.401; 1762.751
898.439;  393.353;  -13.431; 1661.149
898.999;  373.970;  -11.340; 1781.468
899.559;  364.591;  -13.930; 1703.347
900.119;  343.320;  -13.730; 1537.525
900.679;  325.088;   -9.210; 1638.384
901.239;  307.689;  -10.860; 1527.902
901.799;  289.751;  -11.450; 1456.441
902.359;  270.203;  -13.800; 1357.140
902.919;  263.860;  -12.130; 1331.118
903.479;  267.265;  -12.650; 1317.257
904.038;  260.446;  -16.110; 1262.595
904.598;  245.718;  -13.690; 1152.034
905.158;  232.971;  -10.290; 1240.893
905.717;  225.733;  -10.670; 1233.691
906.277;  225.980;  -14.040; 1217.330
906.836;  225.738;  -13.510; 1222.408
907.396;  219.553;  -11.530; 1193.047
907.955;  209.086;  -13.190; 1182.526
908.515;  196.703;  -12.950; 1099.364
909.074;  187.454;  -12.390; 1092.863
909.633;  182.333;  -10.340; 1069.121
910.192;  181.297;  -11.170; 1196.460
910.752;  176.644;  -14.200; 1029.960
911.311;  170.182;  -13.810; 1009.780
911.870;  167.170;  -12.750;  971.460
912.429;  166.995;  -12.380; 1094.080
912.988;  164.486;  -11.930; 1081.060
913.547;  157.836;  -10.990;  940.380
914.106;  154.983;  -11.200;  999.420
914.665;  153.299;  -13.150;  984.020
915.224;  151.653;  -13.310; 1035.760
915.782;  148.648;  -13.340;  922.560
916.341;  149.589;  -10.710; 1049.840
916.900;  146.252;  -12.980;  925.260
917.458;  144.674;  -13.060;  884.220
918.017;  142.177;  -10.900;  942.600
918.576;  141.317;  -11.630;  904.440
919.134;  141.749;  -12.860;  837.980
919.693;  142.278;  -15.160;  893.060
920.251;  140.856;  -13.470;  876.500
920.809;  140.147;  -13.700;  839.580
921.368;  141.941;  -13.420;  885.360
921.926;  142.319;  -14.710;  842.940
922.484;  142.062;  -12.560;  903.360
923.042;  141.658;  -11.930;  880.340
923.601;  142.454;  -10.270;  998.680
924.159;  140.698;  -12.960;  935.560
924.717;  138.878;  -13.040;  841.080
925.275;  142.833;  -12.560;  903.240
925.833;  143.453;  -13.040;  779.320
926.391;  145.153;  -13.360;  938.380
926.949;  143.284;  -13.940;  857.680
927.506;  144.358;   -9.400;  903.500
928.064;  145.512;  -10.940;  877.580
928.622;  145.065;  -13.180;  880.100
929.180;  142.920;  -12.730;  814.180
929.737;  145.251;  -12.840;  808.540
930.295;  149.183;  -11.810;  928.480
930.853;  152.414;  -13.650;  849.100
931.410;  154.284;  -13.580;  821.120
931.968;  156.094;  -12.020;  940.660
932.525;  157.944;  -13.320;  909.380
933.082;  160.077;  -13.800;  811.440
933.640;  164.296;  -11.380;  925.900
934.197;  166.846;  -11.480;  886.360
934.754;  170.968;  -13.220;  897.780
935.312;  170.724;  -14.950;  863.340
935.869;  167.622;  -10.940; 1012.980
936.426;  161.529;  -12.100;  872.800
936.983;  162.961;  -12.930;  889.020
937.540;  164.238;  -14.250;  838.280
938.097;  168.330;  -12.600;  940.120
938.654;  176.520;  -11.260;  898.860
939.211;  180.756;  -13.020;  952.480
939.768;  182.730;  -15.760;  915.420
940.324;  183.832;  -13.920;  904.200
940.881;  178.890;  -11.620;  878.500
941.438;  176.093;   -9.870; 1021.200
941.995;  172.288;  -13.920;  992.560
942.551;  170.485;  -12.830;  875.620
943.108;  172.413;  -11.980;  937.920
943.664;  177.484;  -13.740;  869.340
944.221;  187.924;  -12.670; 1088.140
944.777;  190.291;  -13.250;  869.680
945.334;  189.940;  -13.000;  884.840
945.890;  188.847;  -13.020;  946.480
946.446;  181.649;  -13.880;  947.020
947.003;  169.604;  -12.660;  964.940
947.559;  153.719;   -8.730; 1063.040
948.115;  137.657;  -11.960; 1026.540
948.671;  129.716;  -12.360;  967.300
949.227;  128.688;  -12.700;  859.560
949.783;  132.799;  -13.450;  858.900
950.339;  139.448;  -10.620;  991.000
950.895;  141.196;  -14.770; 1023.840
951.451;  141.361;  -13.650;  925.280
952.007;  142.291;  -11.180;  998.540
952.563;  143.281;  -11.680;  937.780
953.118;  143.551;  -13.280;  904.940
953.674;  145.976;  -12.510;  935.780
954.230;  148.045;  -12.220;  949.640
954.785;  145.190;  -12.190;  936.640
955.341;  140.851;  -12.270;  998.160
955.897;  135.027;  -14.900;  834.660
956.452;  135.668;  -12.520;  953.840
957.008;  136.833;   -9.410; 1083.640
957.563;  134.717;  -11.280; 1009.540
958.118;  133.196;  -13.470;  877.700
958.674;  134.417;  -12.190;  946.780
959.229;  136.781;  -12.760; 1013.980
959.784;  141.861;  -15.710;  832.400
960.339;  148.237;  -12.540; 1001.280
960.894;  149.655;  -11.680;  963.760
961.449;  146.256;  -11.410;  859.960
962.004;  145.231;  -10.430; 1212.840
962.559;  138.901;  -14.040;  860.140
963.114;  135.805;  -14.270;  742.480
963.669;  138.297;  -11.320;  915.500
964.224;  136.772;  -14.620;  874.340
964.779;  134.586;  -14.150;  828.420
965.334;  134.245;  -10.850; 1017.860
965.888;  133.506;  -14.530;  875.360
966.443;  135.553;  -13.520;  972.380
966.998;  131.742;  -13.370;  819.460
967.552;  128.656;   -9.960;  908.380
968.107;  124.017;  -12.360;  868.300
968.661;  125.609;  -12.270;  922.440
969.216;  124.261;  -12.140;  856.280
969.770;  125.239;  -11.860;  917.200
970.324;  124.605;  -12.170;  923.140
970.879;  123.829;  -14.160;  947.180
971.433;  120.531;  -12.940;  952.720
971.987;  117.600;  -10.180;  895.340
972.541;  116.643;  -12.130;  917.100
973.095;  117.211;  -14.980; 1009.460
973.649;  115.268;  -14.480;  809.480
974.203;  115.985;  -13.530;  829.040
974.757;  118.535;  -12.060;  855.220
975.311;  116.614;  -13.240;  872.600
975.865;  113.585;  -12.550;  881.820
976.419;  111.708;  -13.180;  857.400
976.973;  112.388;  -14.100;  849.620
977.526;  112.251;  -13.330;  949.920
978.080;  107.681;  -15.390;  796.780
978.634;  107.456;  -11.670;  921.320
979.187;  105.336;  -10.640;  905.400
979.741;  105.589;  -13.330; 1018.380
980.294;  101.685;  -14.480;  789.160
980.848;   99.394;  -13.420;  717.220
981.401;   97.956;  -12.360;  816.540
981.955;   96.225;  -12.480;  844.300
982.508;   92.581;  -14.000;  746.340
983.061;   92.915;  -10.440;  915.260
983.615;   87.891;  -14.340;  798.800
984.168;   85.520;  -14.950;  770.080
984.721;   85.731;  -13.270;  880.760
985.274;   83.331;  -12.240;  867.500
985.827;   80.939;  -12.720;  834.220
986.380;   77.179;  -14.920;  721.340
986.933;   76.161;  -12.860;  864.800
987.486;   75.737;  -10.440;  861.920
988.039;   74.991;  -11.820;  863.100
988.591;   73.336;  -13.760;  893.260
989.144;   72.225;  -14.080;  737.260
989.697;   72.341;  -13.440;  758.740
990.250;   73.410;  -12.050;  858.100
990.802;   71.581;  -14.550;  755.860
991.355;   72.312;  -10.770;  974.880
991.907;   69.619;  -11.710;  864.320
992.460;   66.926;  -12.650;  753.760
993.012;   66.875;  -13.860;  749.540
993.565;   64.242;  -14.310;  711.360
994.117;   64.179;   -9.920;  950.780
994.669;   60.392;  -13.420;  701.320
995.221;   60.708;  -14.200;  791.920
995.774;   59.761;  -13.400;  787.580
996.326;   58.632;  -11.850;  740.220
996.878;   58.071;  -12.230;  838.420
997.430;   56.361;  -14.260;  699.860
997.982;   55.400;  -11.430;  750.140
998.534;   56.063;  -11.590;  739.060
999.086;   54.519;  -11.960;  738.220
999.638;   54.365;  -13.640;  661.380
1000.190;   53.247;  -13.660;  699.320
1000.741;   53.300;   -9.980;  742.700
1001.293;   52.317;  -11.860;  686.020
1001.845;   51.565;  -14.280;  676.640
1002.396;   51.567;  -12.270;  743.400
1002.948;   51.355;  -13.670;  737.400
1003.500;   49.178;  -12.010;  723.780
1004.051;   50.788;  -11.890;  907.580
1004.603;   49.234;  -11.220;  791.820
1005.154;   45.738;  -13.210;  608.980
1005.705;   44.902;  -11.850;  723.960
1006.257;   44.222;  -13.670;  707.220
1006.808;   43.272;  -12.060;  685.460
1007.359;   42.809;  -10.250;  763.240
1007.910;   41.683;  -13.440;  646.640
1008.461;   41.811;  -13.170;  732.940
1009.013;   40.388;  -14.590;  588.340
1009.564;   41.571;  -12.100;  793.520
1010.115;   39.469;  -14.000;  597.040
1010.665;   39.831;  -15.020;  602.160
1011.216;   39.195;  -12.560;  667.920
1011.767;   37.906;  -11.330;  697.920
1012.318;   39.151;  -11.450;  736.980
1012.869;   38.610;  -11.000;  679.000
1013.419;   37.483;  -11.760;  603.120
1013.970;   38.397;  -11.800;  666.640
1014.521;   37.336;  -14.750;  620.620
1015.071;   38.185;  -14.430;  670.380
1015.622;   36.698;  -14.170;  635.460
1016.172;   35.084;  -11.700;  596.820
1016.723;   35.618;  -13.230;  614.380
1017.273;   36.021;  -16.120;  604.160
1017.823;   35.719;  -13.360;  650.340
1018.374;   35.669;  -13.710;  611.760
1018.924;   35.571;  -11.050;  716.880
1019.474;   36.286;  -14.120;  718.880
1020.024;   33.134;  -12.990;  657.580
1020.574;   34.122;  -12.010;  726.160
1021.124;   34.676;  -12.080;  673.580
1021.674;   33.517;  -15.860;  559.120
1022.224;   34.379;  -11.710;  708.940
1022.774;   34.180;  -13.030;  668.820
1023.324;   34.473;  -11.000;  753.520
1023.874;   35.522;  -13.270;  875.760
1024.423;   32.853;  -14.570;  613.700
1024.973;   32.132;  -12.620;  610.760
1025.523;   31.728;  -12.630;  620.960
1026.072;   31.389;  -14.110;  606.420
1026.622;   30.649;  -15.390;  675.740
1027.172;   32.325;   -9.090;  715.660
1027.721;   30.860;  -12.250;  601.220
1028.270;   31.977;  -15.590;  663.400
1028.820;   30.516;  -13.840;  638.080
1029.369;   30.268;  -13.170;  612.700
1029.918;   30.778;  -14.080;  649.840
1030.468;   30.592;  -13.860;  564.780
1031.017;   30.417;  -12.970;  634.800
1031.566;   29.074;  -12.320;  608.900
1032.115;   30.350;  -13.140;  694.500
1032.664;   29.536;  -14.560;  596.480
1033.213;   30.205;  -11.620;  735.420
1033.762;   28.804;  -13.190;  635.620
1034.311;   29.252;  -13.460;  677.220
1034.860;   29.335;  -15.770;  691.000
1035.408;   28.585;  -13.100;  722.720
1035.957;   28.916;  -12.880;  719.540
1036.506;   26.892;  -13.640;  530.800
1037.055;   30.256;  -12.420;  844.320
1037.603;   28.275;  -13.740;  664.000
1038.152;   25.763;  -13.840;  534.760
1038.700;   27.150;  -10.770;  585.740
1039.249;   27.454;  -13.520;  681.220
1039.797;   27.186;  -13.060;  633.360
1040.345;   26.829;  -11.760;  705.420
1040.894;   26.562;  -10.790;  625.300
1041.442;   26.547;  -15.420;  632.200
1041.990;   24.796;  -14.550;  559.160
1042.538;   24.341;  -15.620;  536.180
1043.087;   25.462;  -14.940;  570.860
1043.635;   27.325;  -12.100;  670.500
1044.183;   24.989;  -13.200;  586.400
1044.731;   24.626;  -11.630;  576.000
1045.279;   24.918;  -14.200;  674.920
1045.827;   27.917;  -12.510;  892.400
1046.374;   23.905;  -14.960;  515.420
1046.922;   23.427;  -11.850;  590.580
1047.470;   24.944;  -13.770;  691.300
1048.018;   24.905;  -15.380;  647.960
1048.565;   25.618;  -14.010;  708.600
1049.113;   23.604;  -14.620;  557.000
1049.660;   23.242;  -14.940;  629.660
1050.208;   23.844;  -14.540;  675.640
1050.755;   22.705;  -13.710;  606.580
1051.303;   23.228;  -11.880;  686.820
1051.850;   23.262;  -12.160;  635.120
1052.397;   21.398;  -15.110;  473.960
1052.945;   21.531;  -14.770;  617.760
1053.492;   23.302;  -12.320;  741.840
1054.039;   23.792;  -13.290;  720.180
1054.586;   22.620;  -15.210;  557.240
1055.133;   22.610;  -12.920;  693.140
1055.680;   22.818;  -12.610;  646.620
1056.227;   20.795;  -12.620;  542.780
1056.774;   23.461;  -13.010;  794.980
1057.321;   21.424;  -16.180;  523.260
1057.868;   21.391;  -11.230;  651.320
1058.415;   21.418;  -10.890;  651.980
1058.961;   22.644;  -12.530;  678.940
1059.508;   21.358;  -14.120;  643.820
1060.055;   20.173;  -13.340;  581.780
1060.601;   21.006;  -12.920;  624.300
1061.148;   21.081;  -14.430;  616.820
1061.694;   20.216;  -14.140;  592.580
1062.241;   20.479;  -12.550;  596.320
1062.787;   20.638;  -13.370;  663.140
1063.334;   23.047;  -12.260;  808.560
1063.880;   20.293;  -10.800;  668.360
1064.426;   20.304;   -9.920;  706.820
1064.972;   19.408;  -12.970;  601.340
1065.518;   18.235;  -14.440;  566.640
1066.065;   19.025;  -12.680;  624.460
1066.611;   18.218;  -13.520;  598.800
1067.157;   18.881;  -11.100;  641.860
1067.703;   19.223;  -14.100;  668.480
1068.249;   18.944;  -13.750;  605.220
1068.794;   18.330;  -11.070;  626.880
1069.340;   18.169;  -13.210;  578.960
1069.886;   18.975;  -14.850;  590.700
1070.432;   17.104;  -14.580;  541.720
1070.977;   16.515;  -12.930;  601.080
1071.523;   18.184;  -11.970;  573.060
1072.068;   18.118;  -13.730;  582.000
1072.614;   16.501;  -14.550;  527.760
1073.160;   17.832;  -13.690;  687.040
1073.705;   16.696;  -14.780;  572.520
1074.250;   17.138;  -15.430;  559.900
1074.796;   17.342;  -11.620;  655.160
1075.341;   17.086;  -11.580;  664.100
1075.886;   17.011;  -13.190;  594.240
1076.431;   17.531;  -13.630;  649.880
1076.976;   16.400;  -11.670;  639.220
1077.521;   15.773;  -11.600;  583.080
1078.067;   15.034;  -13.920;  579.400
1078.612;   17.127;  -12.910;  661.620
1079.156;   15.865;  -15.340;  601.540
1079.701;   15.167;  -12.560;  693.260
1080.246;   16.893;  -12.490;  696.300
1080.791;   16.372;  -14.550;  625.020
1081.336;   15.977;  -15.210;  659.320
1081.880;   15.946;  -11.280;  649.680
1082.425;   14.641;  -12.830;  573.480
1082.970;   17.091;  -11.680;  717.040
1083.514;   15.558;  -15.500;  597.000
1084.059;   13.957;  -11.770;  586.720
1084.603;   13.583;  -13.480;  565.840
1085.147;   15.387;  -13.940;  645.220
1085.692;   16.051;  -13.170;  716.800
1086.236;   13.492;  -15.740;  503.140
1086.780;   15.575;  -10.750;  751.440
1087.325;   15.079;  -14.900;  654.620
1087.869;   14.148;  -15.160;  610.700
1088.413;   15.134;  -11.030;  705.040
1088.957;   12.727;  -15.210;  543.400
1089.501;   15.361;  -12.310;  766.640
1090.045;   15.150;  -12.790;  726.480
1090.589;   11.442;  -14.040;  569.920
1091.133;   14.095;  -12.800;  673.340
1091.676;   13.462;  -13.600;  591.940
1092.220;   12.787;  -12.960;  600.920
1092.764;   13.348;  -10.830;  706.960
1093.307;   13.411;  -12.390;  673.780
1093.851;   12.576;  -15.850;  556.540
1094.395;   12.478;  -12.980;  683.140
1094.938;   12.499;  -13.670;  632.520
1095.482;   12.065;  -12.740;  559.800
1096.025;   13.343;  -13.340;  710.880
1096.568;   13.709;  -10.500;  779.280
1097.112;    9.336;  -13.500;  508.180
1097.655;   12.239;  -13.060;  603.000
1098.198;   11.182;  -13.240;  600.180
1098.741;   10.921;  -15.490;  612.860
1099.285;   11.611;  -13.410;  657.300
1099.828;    9.779;  -15.640;  439.400
1100.371;   12.174;  -13.980;  608.160
1100.914;   10.677;  -13.990;  682.660
1101.457;   11.794;  -15.030;  679.900
1101.999;   10.065;  -12.480;  584.680
1102.542;   11.880;  -12.410;  641.440
1103.085;   10.693;  -14.730;  658.500
1103.628;   11.513;  -12.190;  762.060
1104.170;   10.224;  -12.360;  588.280
1104.713;   11.092;  -13.350;  646.700
1105.256;    9.886;  -14.930;  557.440
1105.798;    8.286;  -15.150;  499.980
1106.341;   11.535;  -13.230;  728.900
1106.883;   10.103;  -14.680;  521.340
1107.425;   10.182;  -14.810;  668.180
1107.968;    9.504;  -12.940;  612.380
1108.510;   10.737;  -10.550;  684.960
1109.052;    8.888;  -15.640;  612.620
1109.594;    8.781;  -14.440;  554.440
1110.136;    9.496;  -11.380;  643.220
1110.679;    8.488;  -13.090;  633.080
1111.221;    9.605;  -14.230;  604.460
1111.763;    8.176;  -14.260;  559.220
1112.304;    8.328;  -14.510;  547.140
1112.846;    9.109;  -14.700;  666.240
1113.388;   12.886;  -12.270;  942.180
1113.930;    9.518;  -13.340;  694.200
1114.472;    7.826;  -12.560;  606.540
1115.013;    6.856;  -14.280;  551.280
1115.555;    7.579;  -14.010;  587.100
1116.097;    6.999;  -14.730;  579.480
1116.638;    8.436;  -12.160;  684.600
1117.180;    8.502;  -14.320;  667.740
1117.721;    8.039;  -15.730;  568.580
1118.262;    8.552;  -13.480;  677.960
1118.804;    7.936;  -11.530;  637.340
1119.345;    7.473;  -13.540;  578.400
1119.886;    9.026;  -14.470;  704.040
1120.427;    7.157;  -13.030;  589.020
1120.969;    6.535;  -13.150;  597.920
1121.510;    6.058;  -13.940;  563.060
1122.051;    7.772;  -12.310;  723.580
1122.592;    6.289;  -13.870;  655.420
1123.133;    5.331;  -12.890;  547.940
1123.673;    7.597;  -13.300;  706.480
1124.214;    7.631;  -14.000;  612.460
1124.755;    7.069;  -13.210;  639.460
1125.296;    5.853;  -13.450;  627.320
1125.836;    7.623;  -12.610;  691.500
1126.377;    6.688;  -15.840;  599.660
1126.918;    6.989;  -11.830;  614.980
1127.458;    5.584;  -11.830;  622.220
1127.999;    6.506;  -11.490;  656.980
1128.539;    6.331;  -12.900;  694.240
1129.079;    5.118;  -14.910;  632.720
1129.620;    4.413;  -12.920;  558.100
1130.160;    4.715;  -14.640;  539.480
1130.700;    6.567;  -13.270;  640.840
1131.240;    5.921;  -14.110;  643.700
1131.781;    5.205;  -13.130;  619.680
1132.321;    5.234;  -15.220;  599.120
1132.861;    4.751;  -15.670;  564.200
1133.401;    4.073;  -13.970;  593.940
1133.941;    4.588;  -13.740;  626.280
1134.481;    4.347;  -13.200;  597.580
1135.020;    5.032;  -14.830;  609.160
1135.560;    5.510;  -14.590;  674.940
1136.100;    3.253;  -13.730;  501.160
1136.640;    3.875;  -15.240;  510.480
1137.179;    4.203;  -14.710;  537.960
1137.719;    4.563;  -14.090;  605.400
1138.258;    3.918;  -12.470;  587.360
1138.798;    4.767;  -12.580;  663.780
1139.337;    3.538;  -16.480;  482.840
1139.877;    4.511;  -13.970;  642.360
1140.416;    6.885;   -9.870;  878.060
1140.955;    3.591;  -14.860;  535.380
1141.494;    4.350;  -14.530;  669.280
1142.034;    3.441;  -13.940;  583.520
1142.573;    3.770;  -11.160;  646.280
1143.112;    3.201;  -15.050;  553.480
1143.651;    3.433;  -15.390;  536.480
1144.190;    3.900;  -12.990;  691.640
1144.729;    3.421;  -12.220;  607.420
1145.267;    3.009;  -14.020;  584.900
1145.806;    3.721;  -12.740;  637.040
1146.345;    2.833;  -14.810;  635.020
1146.884;    2.776;  -12.920;  622.500
1147.422;    2.607;  -13.930;  533.060
1147.961;    4.235;  -11.830;  708.460
1148.500;    3.346;  -12.710;  669.720
1149.038;    2.978;  -14.420;  632.500
1149.577;    3.725;  -13.920;  698.640
1150.115;    1.734;  -17.050;  452.280
1150.653;    2.757;  -14.890;  607.340
1151.192;    2.232;  -15.270;  552.920
1151.730;    2.824;  -13.160;  652.560
1152.268;    2.535;  -15.430;  589.520
1152.806;    1.762;  -15.880;  571.180
1153.344;    0.810;  -13.240;  577.640
1153.882;    2.209;  -13.010;  600.060
1154.421;    1.316;  -16.180;  470.620
1154.958;    1.274;  -13.880;  595.240
1155.496;    2.469;  -13.590;  645.280
1156.034;    2.075;  -11.910;  721.880
1156.572;    3.411;  -12.010;  667.060
1157.110;   -0.349;  -16.250;  473.940
1157.647;    2.148;  -15.230;  676.960
1158.185;    0.659;  -13.770;  564.320
1158.723;    0.548;  -15.300;  509.200
1159.260;    1.793;  -13.130;  701.700
1159.798;    1.993;  -11.300;  658.160
1160.335;    1.165;  -13.210;  631.820

