
Integration time [ms]:   3.276
Averaging Nr. [scans]: 1000
Smoothing Nr. [pixels]: 0
Data measured with spectrometer [name]: 7414430SP
Wave   ;Sample   ;Dark     ;Reference
[nm]   ;[counts] ;[counts] ;[counts] 

288.544;  159.618;    7.793;  793.890
289.143;  161.775;    7.462;  681.602
289.742;  163.005;    8.602;  828.814
290.341;  150.764;    1.321;  789.841
290.940;  140.218;   -0.709;  730.702
291.538;  141.526;    0.881;  881.108
292.137;  138.714;    0.122;  792.581
292.736;  141.955;   -1.929;  975.101
293.335;  139.226;   -8.229;  735.086
293.934;  140.258;   -5.279;  781.677
294.532;  139.384;   -1.369; 1031.958
295.131;  125.698;   -7.641;  834.394
295.730;  125.065;   -8.420;  809.588
296.328;  123.794;   -5.611;  783.442
296.927;  123.717;   -5.781;  779.652
297.525;  124.326;   -6.361;  781.236
298.124;  114.824;  -11.382;  654.009
298.722;  119.718;   -7.641;  761.933
299.321;  117.301;   -6.811;  708.597
299.919;  115.006;   -6.991;  751.918
300.518;  111.444;  -10.362;  689.338
301.116;  111.893;   -9.581;  691.381
301.715;  112.417;   -4.891;  730.222
302.313;  112.207;   -8.801;  704.943
302.911;  106.846;   -8.522;  733.830
303.509;  111.716;   -6.171;  925.627
304.108;  109.366;   -7.311;  760.383
304.706;  108.175;   -8.321;  801.664
305.304;  102.727;  -10.222;  796.707
305.902;  108.874;   -6.021;  784.484
306.500;  103.430;   -4.971;  728.200
307.098;  102.169;   -7.061;  746.560
307.696;  100.708;   -8.801;  780.432
308.294;  101.071;   -6.411;  731.359
308.892;  102.644;   -2.901;  759.769
309.490;   98.599;   -5.041;  712.161
310.088;   96.667;   -5.002;  788.444
310.686;  100.802;   -2.041;  821.749
311.284;   96.718;   -2.351;  766.040
311.882;   94.245;   -4.422;  731.225
312.480;   91.455;   -4.192;  697.167
313.078;   92.868;   -1.172;  808.331
313.675;   94.117;   -2.601;  691.600
314.273;   88.680;   -1.312;  797.837
314.871;   87.114;   -3.942;  589.829
315.468;   85.420;   -2.802;  652.090
316.066;   88.735;   -0.701;  694.427
316.664;   80.616;   -4.362;  656.351
317.261;   85.125;   -2.872;  910.128
317.859;   80.995;   -2.022;  768.735
318.456;   81.131;   -0.531;  830.096
319.054;   77.266;   -3.912;  787.828
319.651;   76.117;   -4.752;  759.928
320.249;   75.075;   -2.602;  810.188
320.846;   73.325;   -0.821;  714.286
321.443;   70.124;   -4.642;  832.135
322.041;   66.562;   -5.002;  812.315
322.638;   64.389;   -3.982;  701.456
323.235;   65.540;   -3.411;  665.683
323.833;   63.133;   -7.361;  740.354
324.430;   57.764;   -8.611;  615.900
325.027;   57.874;   -4.061;  876.855
325.624;   58.609;   -4.031;  644.532
326.221;   56.219;   -7.481;  689.717
326.818;   55.052;   -5.281;  818.332
327.415;   57.819;   -7.460;  748.828
328.012;   57.913;   -5.510;  690.585
328.609;   55.845;   -7.880;  731.389
329.206;   53.148;   -8.331;  778.621
329.803;   53.658;   -5.121;  737.841
330.400;   56.215;   -4.510;  704.260
330.997;   58.194;   -6.441;  817.147
331.594;   57.090;   -8.831;  788.185
332.191;   61.006;   -7.621;  728.722
332.787;   65.240;   -4.591;  844.463
333.384;   64.917;   -7.412;  763.093
333.981;   62.723;   -8.293;  815.687
334.578;   66.801;   -7.052;  708.378
335.174;   68.660;   -3.102;  731.469
335.771;   68.546;   -5.943;  836.456
336.367;   65.226;   -7.393;  710.631
336.964;   68.131;   -4.063;  793.266
337.561;   67.315;   -3.813;  731.112
338.157;   62.847;   -4.654;  911.916
338.754;   61.337;   -7.934;  796.589
339.350;   59.846;   -4.414;  722.493
339.946;   61.145;   -4.664;  773.135
340.543;   52.996;   -6.375;  846.136
341.139;   47.195;   -9.815;  720.836
341.735;   44.755;   -4.526;  772.593
342.332;   43.192;   -4.895;  691.472
342.928;   43.473;   -4.295;  795.394
343.524;   37.433;   -5.476;  761.684
344.120;   32.533;   -5.856;  738.562
344.716;   36.561;   -2.155;  723.717
345.313;   34.053;   -6.275;  795.342
345.909;   28.616;   -8.815;  627.336
346.505;   30.393;   -5.305;  740.247
347.101;   31.305;   -2.674;  827.864
347.697;   31.279;   -4.344;  785.398
348.293;   26.040;   -9.975;  627.244
348.889;   27.513;   -5.774;  745.914
349.485;   25.827;   -5.004;  688.205
350.081;   27.006;   -4.704;  772.592
350.676;   21.553;   -6.635;  691.606
351.272;   26.136;   -4.504;  809.530
351.868;   25.424;   -3.914;  780.497
352.464;   22.497;   -9.044;  723.932
353.059;   19.124;   -8.314;  646.017
353.655;   23.053;   -7.024;  777.063
354.251;   22.980;   -5.343;  759.845
354.846;   17.682;   -8.604;  740.646
355.442;   16.020;   -6.945;  753.071
356.038;   18.279;   -7.564;  751.708
356.633;   17.806;   -5.814;  728.594
357.229;   15.445;   -7.364;  724.757
357.824;   14.223;   -8.024;  703.600
358.420;   13.737;   -9.384;  679.726
359.015;   13.847;   -5.104;  695.357
359.610;   15.029;   -6.854;  763.920
360.206;    8.513;  -10.185;  603.240
360.801;   11.562;   -7.054;  646.503
361.396;   13.390;   -5.034;  725.975
361.992;    9.079;   -8.284;  668.220
362.587;    6.340;   -8.625;  670.160
363.182;    8.257;   -7.674;  689.631
363.777;    8.739;   -5.164;  738.242
364.372;    8.235;   -8.604;  737.314
364.967;    4.158;   -9.055;  680.744
365.563;    8.655;   -6.114;  815.567
366.158;    6.416;   -5.814;  685.161
366.753;    6.102;   -7.854;  649.263
367.348;    4.997;   -7.804;  746.056
367.942;    4.229;   -7.954;  697.298
368.537;    3.723;   -4.984;  754.245
369.132;    4.038;   -8.564;  703.428
369.727;   -0.121;   -8.855;  638.079
370.322;    1.622;   -6.245;  580.186
370.917;    0.981;   -6.425;  710.646
371.511;    3.723;   -6.294;  861.834
372.106;    0.599;   -7.685;  776.964
372.701;   -2.831;   -7.335;  585.988
373.296;    2.720;   -4.564;  863.135
373.890;   -2.749;  -10.235;  647.840
374.485;   -3.706;   -7.885;  691.199
375.079;   -0.195;   -7.324;  738.685
375.674;    1.333;   -3.494;  812.970
376.268;   -3.402;   -8.525;  691.759
376.863;   -8.785;  -10.086;  580.327
377.457;   -2.687;   -7.025;  662.490
378.052;   -4.607;   -3.585;  764.884
378.646;   -5.539;   -7.595;  741.167
379.240;   -5.650;   -8.335;  721.176
379.835;   -5.513;   -5.785;  636.978
380.429;   -6.634;   -4.335;  562.557
381.023;   -7.545;   -6.805;  779.205
381.617;   -9.277;   -9.195;  680.106
382.212;   -5.462;   -6.905;  685.303
382.806;   -5.139;   -3.745;  760.690
383.400;   -9.330;   -7.745;  672.281
383.994;  -10.383;   -9.765;  664.870
384.588;   -6.090;   -6.564;  697.701
385.182;   -5.914;   -5.344;  726.624
385.776;   -6.968;   -8.514;  706.875
386.370;  -10.150;   -9.555;  681.968
386.964;   -8.879;   -8.715;  684.155
387.558;   -7.244;   -6.174;  598.360
388.152;  -10.503;   -8.725;  681.959
388.745;   -9.022;   -7.965;  814.707
389.339;   -7.171;   -5.924;  747.642
389.933;   -7.259;   -5.524;  695.370
390.527;   -7.009;   -7.114;  859.029
391.120;  -13.049;  -10.725;  595.318
391.714;  -10.140;   -8.035;  711.633
392.308;   -7.934;   -3.574;  780.253
392.901;  -11.120;   -7.245;  642.460
393.495;  -12.476;   -9.285;  595.414
394.089;  -10.959;   -5.895;  760.452
394.682;  -11.230;   -4.295;  697.188
395.275;  -11.457;   -9.875;  719.927
395.869;  -13.842;   -8.485;  667.314
396.462;  -11.801;   -7.455;  616.609
397.056;   -7.955;   -5.424;  776.621
397.649;  -12.520;   -6.605;  731.575
398.242;  -10.258;   -8.224;  712.645
398.836;   -9.580;   -7.474;  766.408
399.429;  -10.366;   -7.094;  631.041
400.022;  -13.365;   -9.475;  665.902
400.615;  -11.886;   -7.145;  805.609
401.208;   -9.466;   -7.174;  691.451
401.802;  -11.119;   -5.515;  699.329
402.395;  -12.717;   -9.875;  683.502
402.988;  -13.982;   -8.845;  696.627
403.581;  -10.438;   -8.874;  646.878
404.174;   -8.137;   -5.324;  686.568
404.767;  -10.411;   -9.575;  638.583
405.360;  -13.835;  -10.965;  621.445
405.953;   -7.498;   -8.764;  759.034
406.545;   -7.227;   -7.514;  725.342
407.138;  -11.785;  -10.025;  618.350
407.731;  -10.544;  -10.034;  613.303
408.324;   -6.524;   -9.374;  660.554
408.917;   -7.940;   -6.534;  681.864
409.509;   -9.096;   -8.004;  740.396
410.102;  -11.579;   -9.875;  643.948
410.695;   -5.173;   -8.604;  665.758
411.287;   -6.493;   -6.794;  599.821
411.880;   -7.894;   -9.334;  585.421
412.472;  -11.259;  -10.254;  613.092
413.065;   -7.590;   -6.714;  629.408
413.657;   -5.909;   -7.234;  576.678
414.250;   -5.226;  -10.544;  646.681
414.842;   -6.817;   -9.744;  676.353
415.434;   -4.462;   -6.994;  570.463
416.027;   -1.306;   -5.893;  652.196
416.619;   -3.483;   -7.264;  713.400
417.211;   -3.552;  -10.374;  599.352
417.804;    0.147;   -7.993;  628.499
418.396;   -3.521;   -7.234;  607.643
418.988;   -1.405;   -9.443;  659.238
419.580;   -4.978;  -10.724;  568.276
420.172;   -2.905;  -10.323;  536.196
420.764;    1.907;   -8.793;  672.482
421.356;    0.411;  -11.143;  636.898
421.948;   -0.563;   -8.293;  677.661
422.540;    4.589;   -7.893;  680.027
423.132;    3.944;   -7.082;  600.641
423.724;    0.209;   -8.653;  561.267
424.316;    2.488;  -10.213;  621.345
424.908;    6.365;   -9.762;  591.517
425.500;    5.891;   -5.572;  647.978
426.092;    7.665;   -8.422;  648.268
426.683;    5.629;   -9.283;  684.836
427.275;    8.959;   -7.852;  641.471
427.867;   10.289;   -5.272;  668.948
428.458;   10.680;   -7.682;  732.344
429.050;    9.527;  -10.612;  680.749
429.642;   11.626;   -9.882;  743.124
430.233;   12.437;   -6.962;  569.356
430.825;   12.996;   -6.842;  724.809
431.416;   11.347;   -9.672;  698.241
432.008;   14.956;   -6.552;  651.723
432.599;   14.596;   -6.891;  656.073
433.190;   12.626;  -10.912;  637.670
433.782;   11.446;  -11.172;  590.395
434.373;   19.506;   -6.061;  884.765
434.964;   17.484;   -8.251;  602.920
435.556;   15.931;   -9.722;  634.537
436.147;   18.391;   -9.082;  758.490
436.738;   18.213;   -8.041;  701.099
437.329;   23.857;   -7.341;  721.723
437.920;   15.982;   -8.162;  666.688
438.511;   16.163;  -11.802;  564.526
439.103;   23.469;  -10.191;  623.998
439.694;   25.148;   -7.601;  681.583
440.285;   25.779;   -8.541;  764.432
440.876;   23.616;   -9.751;  845.738
441.466;   23.810;   -9.401;  575.162
442.057;   29.247;   -7.760;  665.814
442.648;   27.325;   -9.971;  746.255
443.239;   25.650;  -11.001;  620.477
443.830;   30.492;   -7.990;  704.958
444.421;   32.685;   -7.910;  655.474
445.011;   29.011;   -8.131;  693.619
445.602;   28.230;   -7.111;  743.126
446.193;   30.082;  -10.920;  488.117
446.783;   35.478;   -6.500;  640.397
447.374;   29.709;   -8.671;  692.759
447.964;   31.820;  -10.781;  713.770
448.555;   39.161;   -9.650;  822.742
449.145;   36.233;   -8.660;  662.853
449.736;   37.338;   -8.990;  803.179
450.326;   36.175;   -9.500;  713.626
450.917;   41.935;   -8.680;  675.324
451.507;   41.122;   -7.520;  600.661
452.097;   41.822;   -8.590;  746.267
452.688;   42.908;  -11.340;  742.160
453.278;   42.590;  -10.100;  566.840
453.868;   46.897;   -6.019;  793.550
454.458;   44.767;   -9.440;  651.141
455.048;   44.349;  -10.560;  711.783
455.639;   47.523;  -11.799;  567.096
456.229;   50.866;   -6.899;  710.694
456.819;   52.440;   -7.389;  751.158
457.409;   53.153;  -11.119;  773.993
457.999;   55.583;   -9.289;  737.505
458.589;   55.355;   -6.139;  686.606
459.179;   54.982;   -8.729;  717.658
459.769;   53.841;   -9.789;  627.099
460.358;   58.178;  -10.259;  797.262
460.948;   58.288;   -7.299;  689.503
461.538;   60.080;  -10.289;  660.677
462.128;   57.709;  -11.269;  664.934
462.717;   64.244;   -9.368;  710.326
463.307;   67.847;   -7.908;  705.846
463.897;   63.502;   -9.599;  656.942
464.486;   62.593;   -9.769;  837.128
465.076;   67.268;   -8.048;  733.776
465.666;   71.019;   -9.358;  652.900
466.255;   68.366;   -7.919;  785.651
466.845;   67.783;  -11.689;  666.749
467.434;   70.713;   -7.818;  725.873
468.023;   72.403;   -7.678;  658.357
468.613;   69.377;  -10.939;  713.946
469.202;   74.500;  -10.118;  646.507
469.791;   78.824;   -9.108;  737.811
470.381;   80.356;   -6.058;  742.813
470.970;   80.135;  -10.428;  711.099
471.559;   79.523;  -10.268;  733.291
472.148;   83.116;   -8.448;  675.737
472.738;   86.469;   -6.917;  765.466
473.327;   85.698;  -11.978;  637.529
473.916;   85.046;  -11.888;  737.446
474.505;   89.371;   -9.437;  751.703
475.094;   92.151;   -6.747;  806.570
475.683;   91.384;   -9.367;  797.699
476.272;   92.671;  -12.637;  730.632
476.861;   96.008;  -10.027;  706.754
477.449;  102.091;   -8.716;  728.487
478.038;   96.552;   -9.577;  692.513
478.627;   97.551;   -9.718;  714.852
479.216;  104.496;   -8.947;  769.441
479.805;  108.720;   -6.256;  783.375
480.393;  108.337;   -7.937; 1008.945
480.982;  106.821;   -7.717;  874.501
481.571;  114.176;   -9.266;  858.333
482.159;  114.018;   -7.636;  705.386
482.748;  113.770;   -9.667;  821.385
483.336;  118.196;  -10.376;  858.209
483.925;  119.538;   -7.147;  774.373
484.513;  126.665;   -7.996;  758.962
485.102;  123.986;  -10.027;  810.965
485.690;  132.251;  -10.446; 1011.050
486.278;  133.932;   -8.446;  979.329
486.867;  135.328;   -6.356;  809.662
487.455;  138.017;   -9.136;  898.229
488.043;  139.123;  -10.646;  748.361
488.631;  147.994;   -7.456; 1005.079
489.220;  151.954;   -6.636;  908.626
489.808;  153.017;  -11.036;  741.415
490.396;  161.038;  -10.246;  914.645
490.984;  168.032;   -8.556;  830.161
491.572;  180.390;   -5.886;  940.315
492.160;  188.614;   -9.486;  919.081
492.748;  199.954;  -10.976;  884.341
493.336;  225.564;   -8.776; 1019.693
493.924;  258.931;   -5.465;  958.077
494.512;  299.078;   -9.986; 1066.638
495.100;  347.065;  -10.636; 1103.280
495.687;  419.570;  -10.885; 1206.373
496.275;  511.851;   -8.126; 1150.796
496.863;  600.755;  -10.586; 1281.171
497.451;  723.189;  -11.926; 1386.805
498.038;  838.509;  -10.885; 1556.729
498.626;  976.682;   -6.315; 1741.407
499.214; 1209.994;   -7.326; 2016.609
499.801; 1469.886;  -11.906; 2220.633
500.389; 1809.143;  -10.466; 2312.494
500.976; 2118.768;   -5.236; 2744.849
501.564; 2635.360;   -8.936; 3148.565
502.151; 3343.878;  -13.176; 3515.999
502.738; 3774.039;  -10.646; 3971.274
503.326; 4199.177;   -9.525; 4403.796
503.913; 4689.479;  -10.856; 5161.749
504.500; 5231.131;  -11.586; 5986.420
505.088; 5860.367;  -10.336; 6381.201
505.675; 6812.745;   -6.355; 6925.547
506.262; 7419.279;   -9.046; 7619.060
506.849; 7857.104;  -10.416; 8733.969
507.436; 8353.629;  -10.305; 9790.121
508.023; 8755.412;   -5.496; 9985.472
508.610; 8875.112;   -7.856;10434.618
509.197; 9919.230;  -10.097;11198.435
509.784;11372.638;  -10.886;12391.194
510.371;12948.716;   -9.315;13603.713
510.958;14122.403;   -9.936;14426.586
511.545;14668.496;   -9.326;15243.775
512.132;14882.599;  -10.075;15945.876
512.719;15470.459;   -7.796;16340.369
513.305;16860.816;  -10.606;18011.766
513.892;18510.719;  -11.486;19754.971
514.479;19877.047;   -9.126;20967.805
515.066;21445.117;   -6.026;22299.793
515.652;21560.496;   -8.466;22908.660
516.239;22014.066;  -10.886;23798.875
516.825;23542.922;  -11.496;25567.275
517.412;25279.287;   -5.796;28154.959
517.998;26642.061;  -10.506;28344.111
518.585;27635.998;  -10.076;27134.219
519.171;27184.943;   -8.315;27268.576
519.758;27846.246;   -8.596;28964.129
520.344;30535.197;   -8.466;30664.494
520.930;29563.289;  -11.006;32550.605
521.516;27868.549;  -10.495;35422.895
522.103;29841.730;   -5.526;38280.004
522.689;32417.635;   -8.746;37835.117
523.275;33531.797;  -11.376;37288.613
523.861;35648.289;  -11.156;37281.395
524.447;35170.449;   -8.135;37846.949
525.033;35577.957;   -7.896;38321.949
525.619;36657.461;  -12.476;38579.285
526.205;36835.047;   -9.516;40622.875
526.791;36253.660;   -6.926;42258.836
527.377;36036.379;   -8.346;42966.902
527.963;37955.574;   -8.717;42018.949
528.549;39512.145;  -11.016;42476.828
529.135;37819.547;   -8.536;41854.852
529.721;37796.078;   -9.666;41237.711
530.306;36848.398;  -10.066;41259.445
530.892;37888.410;  -11.356;41506.047
531.478;39889.559;   -6.596;43559.613
532.063;42080.840;   -8.836;47695.563
532.649;40384.762;  -10.047;50808.324
533.235;40399.953;   -9.746;51787.500
533.820;42905.695;   -6.566;52145.035
534.406;44714.832;  -10.817;51133.488
534.991;46713.730;   -9.416;49996.805
535.576;45238.859;   -9.036;48882.852
536.162;42398.125;   -6.156;46942.285
536.747;42757.410;  -11.607;45711.746
537.333;45735.906;  -11.787;48510.180
537.918;46809.504;  -12.437;50439.891
538.503;46218.344;   -7.196;50863.711
539.088;46813.578;  -10.556;50906.922
539.673;47911.629;   -8.767;52621.965
540.259;44574.941;  -10.026;52368.094
540.844;43816.172;   -7.416;50879.109
541.429;43332.371;   -9.467;52077.777
542.014;42947.832;   -9.527;52716.695
542.599;46362.184;   -9.946;52363.281
543.184;47710.242;   -7.927;53187.137
543.769;48042.145;   -9.297;54697.605
544.354;48517.496;  -10.127;53913.914
544.938;46245.762;   -9.267;49680.164
545.523;44179.594;   -6.506;47386.277
546.108;46147.949;   -9.787;49151.949
546.693;47117.520;  -11.587;51384.637
547.278;47218.395;  -10.986;51853.254
547.862;47513.285;   -8.206;51173.750
548.447;45866.008;  -10.067;51691.395
549.031;45719.184;   -9.637;52456.703
549.616;46092.184;   -9.926;52714.516
550.201;45140.617;   -6.347;52414.598
550.785;46239.977;   -7.917;52355.059
551.370;47212.203;  -10.867;54589.453
551.954;49392.836;   -9.047;58267.348
552.538;48667.727;   -7.827;59062.176
553.123;46600.352;  -10.287;58115.285
553.707;45746.563;  -12.178;56556.285
554.291;43116.477;   -8.717;56201.668
554.876;44506.281;   -7.457;55335.762
555.460;46891.441;  -10.387;54155.703
556.044;48368.293;   -9.618;53721.484
556.628;49027.105;  -11.567;53731.016
557.212;49712.273;   -8.097;54312.531
557.796;51312.957;  -11.077;53797.773
558.380;49194.730;  -11.108;56145.984
558.964;47246.699;   -9.057;57277.930
559.548;44861.715;   -6.977;56459.641
560.132;41605.719;  -11.457;54434.543
560.716;43102.863;  -11.378;54800.617
561.300;45440.098;   -9.577;57606.945
561.884;44141.473;   -7.127;58972.445
562.467;42604.215;   -7.118;57327.570
563.051;41183.273;  -13.358;54962.434
563.635;39141.027;  -10.178;52594.473
564.219;40887.523;   -7.837;50610.410
564.802;44342.930;  -11.398;49551.180
565.386;44784.332;  -12.788;48370.953
565.969;46030.617;   -9.077;48178.871
566.553;45136.449;   -6.207;49957.305
567.136;43496.590;   -8.568;50369.594
567.720;44614.715;  -11.868;49492.004
568.303;45727.480;   -8.268;50616.352
568.887;44790.398;   -8.698;50727.148
569.470;42217.945;   -6.808;51698.379
570.053;39836.695;  -13.188;52122.078
570.637;37606.836;  -12.037;52536.438
571.220;37845.715;   -8.577;51186.098
571.803;37925.500;   -8.498;51032.762
572.386;40286.988;  -10.498;49609.887
572.969;41245.109;   -9.388;48285.926
573.552;41712.566;   -8.338;47624.285
574.135;41085.148;   -8.518;45498.641
574.718;37830.078;  -13.628;41970.434
575.301;37641.773;  -10.893;41447.137
575.884;37453.469;   -8.158;40923.836
576.467;41624.824;  -10.328;45267.723
577.050;41678.980;  -13.058;48175.543
577.633;40258.164;   -9.458;47729.328
578.216;36783.426;   -8.928;47579.793
578.799;34377.605;   -9.358;47820.996
579.381;35899.293;  -11.388;48115.551
579.964;36104.738;  -11.718;47333.766
580.547;34954.328;   -8.588;46668.969
581.129;35808.730;   -8.859;44466.141
581.712;37562.813;  -10.729;44164.922
582.294;37056.914;  -11.118;46477.855
582.877;37938.078;   -5.218;48244.254
583.459;38274.516;   -8.679;47437.895
584.042;39440.109;  -10.709;46943.219
584.624;37317.113;  -11.669;46792.227
585.206;35945.895;   -8.218;46557.250
585.789;36858.484;  -10.569;45793.773
586.371;37379.047;  -11.859;43836.391
586.953;38565.664;  -10.719;42972.492
587.536;39998.512;   -7.198;42487.211
588.118;38649.039;   -8.720;42086.414
588.700;37368.012;  -10.439;43389.930
589.282;34887.410;   -9.198;43646.039
589.864;32782.086;   -9.199;43438.109
590.446;32769.238;  -11.319;43151.926
591.028;32206.908;  -11.159;42781.867
591.610;32136.158;  -11.779;42839.098
592.192;33500.004;   -7.668;42820.402
592.774;32985.352;  -11.949;40724.277
593.356;31170.281;  -12.129;39874.789
593.937;31060.309;  -10.669;39980.648
594.519;33621.160;   -6.509;42069.633
595.101;33675.801;  -10.849;42976.031
595.683;32317.326;  -11.679;44084.441
596.264;31409.352;   -9.049;43478.797
596.846;31156.723;   -8.849;43803.672
597.427;31146.705;   -9.570;42986.934
598.009;32882.367;  -12.620;42832.219
598.591;32844.609;  -10.039;42580.086
599.172;35072.453;  -10.369;43061.805
599.753;37475.480;   -9.140;41691.469
600.335;36774.133;  -11.430;40692.520
600.916;34084.387;   -9.939;39982.422
601.498;30868.043;   -8.479;40318.617
602.079;30250.840;  -10.920;40670.609
602.660;29901.852;  -11.480;41450.898
603.241;30856.795;  -11.699;41137.738
603.823;31185.045;   -9.579;38868.797
604.404;30861.043;  -10.620;38182.785
604.985;33875.828;  -10.450;38078.047
605.566;34673.965;   -9.129;38056.633
606.147;35670.504;   -7.510;37020.418
606.728;34435.938;  -10.660;37883.359
607.309;32490.541;  -11.740;38748.273
607.890;32070.697;   -9.759;38850.230
608.471;30810.666;   -8.250;37457.918
609.051;31082.766;   -9.240;36066.457
609.632;30917.033;  -12.120;35991.074
610.213;30429.346;   -9.110;37402.641
610.794;31765.320;   -8.030;38383.363
611.374;30666.383;   -8.110;40562.387
611.955;30464.287;  -13.560;38533.727
612.536;31649.988;  -11.400;36951.789
613.116;31120.734;   -8.070;37197.891
613.697;31858.494;  -10.830;38411.125
614.277;31545.674;  -11.641;38673.938
614.858;30872.492;  -13.310;37075.863
615.438;31036.588;   -7.460;35092.906
616.019;29123.418;   -7.601;33666.301
616.599;29765.961;  -12.020;34189.023
617.179;29574.795;  -11.780;36952.047
617.760;28405.225;   -8.570;39582.574
618.340;28887.990;  -11.471;38943.977
618.920;29357.924;  -11.170;37594.156
619.500;30325.922;  -11.071;37866.938
620.080;30826.225;   -7.750;37869.043
620.660;30981.242;  -12.711;36868.617
621.241;31682.695;  -10.211;36352.309
621.821;31263.760;  -10.961;35459.520
622.401;31454.164;   -7.720;35207.414
622.980;33369.480;   -8.981;35980.422
623.560;32131.111;   -9.331;37351.328
624.140;27781.396;   -9.850;34388.582
624.720;23848.676;   -7.451;32368.764
625.300;23576.738;   -9.070;32638.629
625.880;27761.355;  -12.601;34599.035
626.459;31009.631;  -11.751;36831.738
627.039;31175.543;   -9.281;38299.098
627.619;30238.623;   -8.801;38289.574
628.198;30182.211;  -12.071;37220.695
628.778;30954.988;   -9.461;37632.563
629.357;31737.840;   -8.491;38003.012
629.937;31449.912;   -9.721;38402.039
630.516;32182.514;   -9.951;37868.801
631.096;33580.238;  -11.731;35760.410
631.675;36049.707;   -8.572;35225.219
632.254;35808.199;  -11.282;35130.289
632.834;34244.645;  -13.322;35794.570
633.413;34954.637;  -10.301;35788.922
633.992;35047.273;   -8.582;34532.863
634.571;35763.039;   -8.352;33590.113
635.151;35065.852;  -11.912;34943.863
635.730;32744.682;  -10.511;35352.523
636.309;32568.959;   -7.731;35366.605
636.888;32142.715;   -9.952;36165.637
637.467;31472.467;  -11.672;37515.902
638.046;29951.615;   -8.901;39288.695
638.625;29187.211;   -7.912;38279.699
639.204;28386.459;  -10.022;37741.598
639.782;29564.234;  -12.252;38364.551
640.361;31700.094;  -10.041;36740.621
640.940;31519.203;  -11.161;34950.082
641.519;31116.117;   -9.701;34137.398
642.097;32392.129;  -11.271;35654.258
642.676;32429.377;   -8.651;35637.957
643.255;31373.664;   -8.711;36567.074
643.833;31007.729;   -9.581;37809.434
644.412;31853.146;  -13.711;37337.293
644.990;33182.297;  -11.811;37018.531
645.569;35904.652;   -9.411;36518.469
646.147;36464.074;  -10.291;36186.430
646.726;34485.758;  -12.401;36267.688
647.304;33028.465;  -10.411;36647.625
647.882;33623.652;   -9.651;39286.742
648.461;33325.621;   -9.631;39157.703
649.039;31000.307;  -11.881;35412.883
649.617;30881.482;   -9.661;34744.918
650.195;31388.643;   -9.301;35403.098
650.773;30744.465;  -10.511;35053.797
651.352;30579.498;  -11.521;33756.816
651.930;29394.107;  -12.211;31868.773
652.508;28364.943;   -9.171;33121.551
653.086;29617.662;   -9.371;33564.793
653.663;31888.813;  -13.161;34054.668
654.241;30830.189;  -13.031;35693.309
654.819;28856.945;   -9.371;36422.906
655.397;29492.477;  -10.511;38213.484
655.975;29688.785;  -10.371;39507.625
656.553;30660.123;  -10.051;39498.223
657.130;31426.451;  -10.061;40395.480
657.708;28223.766;   -9.561;39242.020
658.286;25235.154;  -11.511;38920.020
658.863;25636.074;  -10.261;40202.898
659.441;28594.533;   -7.531;39677.938
660.018;31195.078;   -9.501;40413.355
660.596;31991.824;  -13.301;39931.414
661.173;34719.102;  -11.211;39604.531
661.750;33634.059;   -9.951;39700.070
662.328;30887.967;   -9.390;39292.809
662.905;29476.883;  -11.330;38235.648
663.482;26684.301;   -9.050;36212.305
664.060;24534.186;   -8.240;35944.945
664.637;28620.357;  -10.050;35170.785
665.214;33335.391;  -11.760;34197.523
665.791;32205.752;  -10.530;34549.520
666.368;31838.627;   -9.690;35118.578
666.945;32254.484;   -9.320;36019.418
667.522;33083.422;  -11.860;36048.438
668.099;32341.221;  -10.770;36243.914
668.676;32476.188;   -6.260;35958.875
669.253;34571.207;   -7.000;37384.730
669.830;34961.926;  -10.190;36779.629
670.407;33749.258;   -9.550;35231.289
670.984;33082.578;   -9.260;35544.270
671.560;31362.512;   -9.280;35466.867
672.137;29596.740;  -11.810;34280.863
672.714;29624.148;  -11.490;34632.863
673.290;30502.004;   -7.740;35135.422
673.867;31052.285;  -10.660;36114.480
674.443;30415.795;  -12.230;36152.859
675.020;28908.672;  -10.450;35327.238
675.596;27420.586;   -9.260;35795.176
676.173;28180.840;  -10.780;35430.355
676.749;28848.291;  -13.690;33549.516
677.326;29994.918;  -11.980;32210.012
677.902;28138.260;   -8.630;32068.871
678.478;26148.699;  -10.730;32583.891
679.054;27862.971;  -10.520;32088.928
679.631;29324.211;  -11.920;30978.848
680.207;30476.676;   -7.490;33160.887
680.783;31572.441;   -9.860;35570.363
681.359;32125.863;  -13.380;36125.184
681.935;30956.021;  -12.480;35240.922
682.511;31531.592;   -7.900;34429.961
683.087;32180.484;   -7.710;34463.680
683.663;32972.121;  -11.480;34648.898
684.239;32461.361;  -14.090;34546.457
684.815;33235.836;   -7.560;35586.375
685.390;33271.652;   -9.910;35821.895
685.966;32881.055;  -11.159;35085.871
686.542;33517.543;  -11.169;34198.230
687.118;32042.953;   -5.959;32847.707
687.693;32125.807;  -10.329;32794.027
688.269;31347.725;  -12.059;33072.367
688.844;32134.563;  -10.909;33141.664
689.420;33628.977;   -8.019;33965.742
689.995;30547.344;   -8.399;34655.523
690.571;29473.881;  -10.949;33576.742
691.146;28635.844;   -9.619;32657.219
691.722;26594.430;   -8.999;32526.979
692.297;25809.928;  -11.589;33014.617
692.872;26680.836;  -11.739;34012.254
693.448;26922.898;  -11.059;34237.434
694.023;28653.887;  -10.139;34142.672
694.598;30731.748;   -9.029;34132.031
695.173;30361.693;  -13.319;34205.250
695.748;27801.271;  -10.169;32882.488
696.323;25509.646;   -8.339;32864.906
696.898;25148.834;   -8.169;33170.004
697.473;28345.402;  -12.309;32432.984
698.048;28380.086;  -10.989;31649.303
698.623;27265.479;   -9.329;30778.141
699.198;28725.717;   -9.849;31140.119
699.773;30113.570;  -12.329;31764.299
700.348;29991.291;  -10.389;31780.816
700.922;28199.336;   -9.269;32046.375
701.497;26476.010;   -9.329;32603.574
702.072;28161.230;  -10.789;34799.871
702.646;28085.344;  -10.839;35793.172
703.221;28618.299;   -9.099;35201.590
703.795;29095.053;  -10.939;34764.527
704.370;27619.570;  -12.859;34307.367
704.944;28899.402;  -11.559;33509.887
705.519;29952.846;   -7.939;31388.584
706.093;31839.641;  -10.499;31340.104
706.668;32859.320;  -11.289;32630.281
707.242;31900.984;  -11.509;32728.779
707.816;30445.799;   -9.639;32947.238
708.390;30027.254;  -11.429;33277.855
708.965;31009.939;  -11.869;33834.336
709.539;31098.426;  -11.689;33709.273
710.113;30607.197;  -10.478;33044.313
710.687;27907.127;  -10.228;31953.992
711.261;27059.275;  -13.698;30505.949
711.835;26747.662;  -13.378;30262.369
712.409;26461.646;   -9.698;31254.447
712.983;26166.303;  -11.898;32754.986
713.557;25134.412;  -15.138;34018.824
714.131;26422.441;  -14.098;34579.625
714.704;26462.771;   -9.958;33890.262
715.278;25723.373;  -10.028;33531.102
715.852;24759.006;  -11.148;33601.660
716.425;24179.115;   -9.068;33515.117
716.999;25744.555;  -10.038;33185.555
717.573;26444.662;   -9.798;33905.996
718.146;27549.281;  -12.378;35199.293
718.720;28156.047;  -11.918;35060.551
719.293;27388.504;   -8.088;34973.230
719.867;26481.520;  -10.888;36394.449
720.440;27259.598;  -11.938;36663.008
721.013;29014.123;  -12.818;35102.426
721.587;30505.484;  -10.298;33985.266
722.160;30421.322;  -10.048;33524.965
722.733;28366.809;  -12.108;32987.043
723.306;25897.113;  -10.818;33066.301
723.880;26182.143;   -8.908;33399.500
724.453;25390.955;   -9.878;33468.297
725.026;25377.105;  -11.188;33816.637
725.599;25705.063;  -11.678;32797.996
726.172;25288.061;   -9.618;33187.434
726.745;26212.467;   -8.258;35136.613
727.318;28820.508;  -12.978;35751.730
727.891;30916.305;  -12.148;35890.430
728.463;32108.256;   -8.968;34822.090
729.036;32269.645;  -10.188;32895.086
729.609;29794.656;  -11.788;31823.225
730.182;27970.846;  -11.788;31445.283
730.754;27327.936;  -10.268;32373.223
731.327;27143.873;   -9.998;33676.820
731.900;26339.867;  -12.228;33417.000
732.472;25386.488;  -13.848;31978.498
733.045;25274.246;   -8.698;30368.777
733.617;24733.918;  -10.607;30574.215
734.190;23376.025;  -11.507;31280.975
734.762;23607.352;  -13.647;31674.412
735.334;24796.498;   -9.767;31247.291
735.907;25019.906;   -9.897;29876.211
736.479;23090.316;  -11.637;29808.488
737.051;22573.619;   -9.567;30233.547
737.623;23405.455;   -8.187;31469.086
738.195;25165.285;  -11.187;31784.225
738.768;25573.865;  -12.337;32120.523
739.340;25029.438;  -12.227;32094.342
739.912;24537.602;  -11.057;31312.680
740.484;25340.998;  -10.207;31946.238
741.056;26514.855;  -10.047;32984.059
741.628;26139.043;  -13.627;33897.715
742.199;26742.313;   -7.177;33213.016
742.771;25178.510;  -10.797;31369.113
743.343;23714.053;  -11.997;31865.473
743.915;23859.004;  -12.867;32388.631
744.487;24361.674;   -7.617;31079.568
745.058;25528.875;   -9.557;30570.107
745.630;25290.607;   -9.877;29970.127
746.201;24093.674;  -14.177;29186.766
746.773;23802.367;   -9.237;28805.723
747.344;23942.387;   -9.847;29591.223
747.916;23995.592;  -11.657;31412.201
748.487;23579.313;  -10.587;32194.898
749.059;23444.955;   -8.707;32533.719
749.630;22448.686;  -10.537;32158.518
750.201;22627.182;  -11.687;30855.395
750.773;22817.459;  -11.647;28622.555
751.344;24153.195;   -7.147;28405.732
751.915;24073.303;   -9.757;28461.551
752.486;23634.705;  -12.427;27842.850
753.057;22083.170;  -12.227;27845.008
753.628;21620.959;  -10.417;27728.107
754.199;21711.949;  -11.767;27381.086
754.770;21225.207;  -11.187;25882.203
755.341;20854.141;  -10.507;25886.184
755.912;21231.248;   -9.387;26050.861
756.483;21581.732;  -10.647;26798.779
757.054;21149.797;  -11.837;27048.238
757.625;19406.219;  -12.716;26294.838
758.195;18903.375;   -9.666;26142.076
758.766;19884.387;   -8.656;26392.234
759.337;19662.768;  -12.856;26334.594
759.907;18987.770;  -13.366;27579.652
760.478;18177.938;   -8.576;28352.770
761.048;18761.605;  -10.526;27325.088
761.619;19299.793;  -11.116;26460.428
762.189;18854.318;  -12.136;26029.826
762.760;18890.951;   -9.456;26430.145
763.330;19137.502;   -7.136;26670.902
763.900;19077.084;  -11.786;26603.021
764.471;18305.480;  -11.546;25542.740
765.041;18065.656;   -8.096;24358.459
765.611;18291.426;   -8.876;23991.297
766.181;18368.256;  -12.196;24470.236
766.751;18955.797;  -11.636;24845.975
767.321;19079.334;  -10.156;24533.633
767.891;18820.586;  -11.766;24916.492
768.461;18483.271;  -14.936;24776.771
769.031;17656.922;  -12.356;24757.988
769.601;17378.535;   -7.526;24181.088
770.171;17812.393;  -10.766;23670.387
770.741;18544.324;  -13.176;22960.045
771.311;18196.795;  -10.616;22917.523
771.880;16803.375;   -9.576;23562.941
772.450;16173.296;  -10.336;24216.500
773.020;16356.301;  -13.516;24140.398
773.589;16301.497;  -13.466;24414.857
774.159;15803.075;   -8.686;23858.717
774.729;15148.471;   -9.476;22942.135
775.298;15156.986;  -13.666;22324.033
775.867;15284.321;  -11.716;21140.313
776.437;14770.703;   -9.906;20838.092
777.006;14637.376;  -12.166;20599.510
777.576;16001.271;  -12.356;20508.809
778.145;15364.644;  -11.646;20732.947
778.714;14027.710;   -8.226;21062.465
779.283;13494.925;   -9.556;20949.664
779.853;13217.551;  -14.116;20508.623
780.422;13527.491;  -11.506;20649.082
780.991;14004.049;   -9.556;21527.520
781.560;14643.140;   -9.095;22632.658
782.129;13524.566;  -12.135;23048.277
782.698;12273.276;  -10.865;23438.555
783.267;11678.104;   -9.335;23267.734
783.836;11970.627;  -11.045;22415.133
784.404;12693.271;  -13.865;20443.152
784.973;12965.366;  -13.095;19699.150
785.542;12916.829;  -11.575;19763.828
786.111;12707.292;   -9.705;20341.408
786.679;12496.074;  -12.105;20207.967
787.248;12156.183;  -12.455;19516.465
787.817;11992.653;  -11.535;18900.363
788.385;11827.005;   -9.765;17879.121
788.954;11663.906;  -14.005;17658.301
789.522;11462.650;  -11.955;17788.879
790.090;10591.020;  -10.135;18118.277
790.659; 9760.052;  -10.975;18338.736
791.227; 9839.784;  -13.375;18508.615
791.795;10200.098;  -12.375;17898.254
792.364;10404.271;  -10.725;17295.133
792.932;10719.606;   -9.715;16822.051
793.500;10470.760;  -12.675;17040.148
794.068;10729.693;  -13.495;17179.787
794.636;10789.979;  -10.885;16664.246
795.204;10439.476;  -11.045;16524.545
795.772;10400.914;  -13.175;17274.564
796.340;10112.902;  -12.445;17891.002
796.908;10249.796;   -9.735;17648.561
797.476;10599.119;   -9.815;17064.080
798.044;10389.919;  -13.985;16672.777
798.612; 9982.352;  -13.115;17023.996
799.180; 9166.192;  -10.185;16561.615
799.747; 8806.610;   -9.055;15962.773
800.315; 9038.712;  -12.385;15296.992
800.883; 8463.033;  -15.035;14801.771
801.450; 7741.891;  -10.365;14534.430
802.018; 7449.207;   -9.855;14173.248
802.585; 7394.313;  -11.905;14029.547
803.153; 7568.189;  -11.585;13836.846
803.720; 7384.547;   -9.095;13567.324
804.287; 7293.271;   -9.135;13360.622
804.855; 7446.220;  -11.604;13681.981
805.422; 7816.437;  -11.794;13536.560
805.989; 8089.167;  -10.734;13355.958
806.556; 8052.586;  -10.444;13747.896
807.124; 8298.013;  -12.764;13987.376
807.691; 8729.681;  -12.964;14038.674
808.258; 8799.803;  -11.134;14120.152
808.825; 8772.875;   -9.854;13860.111
809.392; 8351.438;  -10.504;13268.790
809.959; 7630.902;  -13.054;12680.389
810.526; 6935.727;   -8.294;12427.308
811.093; 6320.304;   -8.394;12030.105
811.659; 6110.282;  -12.304;11653.664
812.226; 6274.408;  -13.944;11637.183
812.793; 6641.222;  -10.484;11611.521
813.360; 6763.651;  -10.144;11885.181
813.926; 6745.854;  -11.684;12770.539
814.493; 6667.390;  -13.644;12677.638
815.060; 6576.499;   -9.724;11974.336
815.626; 6738.755;   -9.854;11594.715
816.193; 6779.932;  -13.254;11579.474
816.759; 6209.068;  -13.204;11666.972
817.325; 5822.350;   -9.434;11325.530
817.892; 5733.202;  -10.134;11105.369
818.458; 5897.072;  -13.474;10843.928
819.024; 6333.172;  -11.854;10714.406
819.591; 6443.544;  -10.244;10469.165
820.157; 6249.729;  -10.704;10235.523
820.723; 6214.003;  -12.324;10847.563
821.289; 6099.989;   -9.444;11040.980
821.855; 6124.689;   -8.374;10357.100
822.421; 6412.408;  -10.234; 9978.918
822.987; 6389.446;  -13.294; 9754.177
823.553; 6130.022;  -10.884;10065.755
824.119; 5921.684;   -8.884;10036.294
824.685; 5476.887;   -6.784;10029.192
825.251; 5408.203;  -12.004;10199.230
825.816; 5170.246;  -11.474; 9820.189
826.382; 4966.545;   -9.174; 9297.248
826.948; 5240.577;   -9.214; 9381.347
827.513; 5656.934;  -10.774; 9450.726
828.079; 5767.397;  -11.924; 9472.444
828.645; 5588.386;  -10.543; 9292.643
829.210; 5455.240;  -10.533; 9065.341
829.776; 5368.767;  -10.753; 9132.620
830.341; 5515.751;  -10.173; 9092.878
830.906; 5566.318;  -10.743; 9078.557
831.472; 5360.167;  -11.113; 8534.535
832.037; 5014.137;  -10.603; 8677.874
832.602; 4888.731;  -13.323; 8628.692
833.167; 4679.130;  -10.823; 8879.031
833.733; 4562.973;  -10.113; 9189.790
834.298; 4442.221;  -13.583; 9052.608
834.863; 4621.397;  -12.703; 8895.087
835.428; 4824.564;  -10.523; 8824.266
835.993; 4736.399;   -6.963; 8845.385
836.558; 4708.740;  -10.763; 8888.563
837.123; 4870.134;   -9.903; 8966.582
837.688; 5234.326;   -9.913; 8617.860
838.253; 5271.316;  -10.283; 8590.699
838.817; 4937.273;  -12.963; 8443.797
839.382; 4827.504;  -14.243; 8799.356
839.947; 4964.268;  -10.733; 8810.595
840.511; 4957.663;   -9.383; 8796.394
841.076; 4811.064;  -12.563; 8347.231
841.641; 4657.093;  -12.953; 8224.330
842.205; 4539.682;   -7.043; 8223.349
842.770; 4345.785;   -8.163; 8622.107
843.334; 4488.325;  -12.503; 8410.386
843.898; 4643.068;  -11.693; 8337.465
844.463; 4231.934;  -10.203; 8506.283
845.027; 3925.221;   -9.533; 8280.962
845.591; 3947.916;  -13.443; 8231.141
846.156; 4005.737;  -13.143; 7969.179
846.720; 3840.065;   -9.433; 7768.278
847.284; 3742.768;  -11.033; 7630.957
847.848; 3726.441;  -10.403; 7472.395
848.412; 3567.254;  -11.553; 7437.394
848.976; 3479.952;   -8.393; 7674.592
849.540; 3448.585;   -8.713; 7836.011
850.104; 3422.091;  -12.463; 7913.669
850.668; 3479.320;  -12.973; 7694.508
851.232; 3456.839;  -10.793; 7756.887
851.796; 3480.574;  -10.662; 7926.545
852.359; 3564.431;  -13.082; 7827.844
852.923; 3531.272;  -12.192; 7641.163
853.487; 3510.268;  -11.912; 7342.501
854.050; 3345.827;  -10.892; 7042.820
854.614; 3383.019;  -13.992; 7151.338
855.177; 3441.282;  -11.732; 7105.077
855.741; 3317.310;   -8.962; 6989.675
856.304; 3195.723;   -9.442; 6596.634
856.868; 3085.337;  -14.192; 6356.272
857.431; 3033.194;  -12.702; 6468.571
857.995; 3030.817;   -9.942; 6373.210
858.558; 3111.133;   -9.112; 6324.448
859.121; 2993.735;  -12.932; 6408.327
859.684; 2827.520;  -13.442; 6347.886
860.247; 2780.222;  -10.632; 6321.264
860.810; 2746.046;  -11.272; 6301.903
861.374; 2680.897;   -9.832; 6607.881
861.937; 2596.221;  -11.762; 6408.200
862.500; 2595.761;   -9.722; 6572.639
863.062; 2578.371;  -10.512; 6387.297
863.625; 2562.413;  -11.232; 6190.836
864.188; 2584.368;  -14.112; 5807.254
864.751; 2594.950;  -11.302; 5682.413
865.314; 2491.407;  -10.112; 5547.492
865.876; 2337.897;  -12.182; 5500.150
866.439; 2197.633;  -10.722; 5415.909
867.002; 2101.386;   -9.252; 5501.567
867.564; 2151.491;   -9.572; 5413.946
868.127; 2191.253;  -13.142; 5160.325
868.689; 2260.506;  -12.902; 5133.183
869.252; 2358.830;   -9.732; 5252.382
869.814; 2291.469;   -9.432; 5297.141
870.377; 2199.232;  -11.552; 5390.919
870.939; 2194.710;   -9.052; 5599.898
871.501; 2149.165;  -10.982; 5248.336
872.063; 2043.683;  -12.292; 4854.235
872.626; 1987.384;  -14.912; 4817.074
873.188; 1903.587;  -13.112; 4987.732
873.750; 1874.007;  -13.442; 4868.651
874.312; 1837.849;   -9.402; 4779.330
874.874; 1799.495;  -11.062; 4866.348
875.436; 1704.829;  -13.931; 4718.887
875.998; 1596.858;   -9.561; 4660.005
876.560; 1583.079;  -11.321; 4462.964
877.122; 1641.759;  -12.221; 4145.042
877.683; 1753.072;  -12.191; 4056.481
878.245; 1787.302;  -12.101; 3950.740
878.807; 1801.919;   -8.971; 4058.958
879.369; 1746.295;  -12.071; 3954.677
879.930; 1624.466;  -14.621; 3941.495
880.492; 1543.620;  -10.311; 4067.014
881.053; 1544.145;  -10.901; 3859.633
881.615; 1536.387;  -14.411; 3776.071
882.176; 1471.501;  -13.761; 3734.750
882.738; 1399.806;   -9.181; 3678.489
883.299; 1390.200;  -11.791; 3405.407
883.860; 1406.639;  -13.121; 3351.106
884.422; 1361.006;  -11.211; 3394.044
884.983; 1279.419;  -10.091; 3166.443
885.544; 1234.332;   -8.461; 3189.802
886.105; 1178.613;  -12.361; 3160.360
886.666; 1116.500;  -14.141; 3093.059
887.227; 1085.429;  -11.361; 2941.957
887.788; 1031.181;  -11.401; 2974.836
888.349;  945.875;  -13.791; 2721.214
888.910;  904.875;  -13.191; 2696.493
889.471;  867.677;   -9.881; 2560.172
890.032;  872.677;   -9.881; 2558.190
890.593;  866.498;  -10.371; 2567.669
891.153;  785.570;  -13.301; 2460.307
891.714;  681.104;  -11.431; 2372.046
892.275;  635.807;  -11.291; 2309.505
892.835;  645.984;  -11.471; 2382.543
893.396;  637.153;  -11.541; 2295.502
893.956;  611.105;  -11.181; 2162.420
894.517;  574.863;  -11.741; 2125.439
895.077;  527.645;  -11.671; 2086.978
895.638;  488.504;  -11.311; 2126.316
896.198;  475.026;   -9.831; 1838.275
896.758;  461.674;   -8.421; 1892.813
897.319;  441.925;  -12.351; 1792.232
897.879;  421.741;  -13.511; 1762.751
898.439;  392.436;  -12.001; 1661.149
898.999;  371.993;  -10.180; 1781.468
899.559;  366.485;  -12.030; 1703.347
900.119;  357.988;  -15.710; 1537.525
900.679;  344.275;   -8.900; 1638.384
901.239;  325.865;   -8.340; 1527.902
901.799;  297.716;  -13.910; 1456.441
902.359;  275.470;  -13.460; 1357.140
902.919;  266.917;  -11.490; 1331.118
903.479;  268.457;  -12.110; 1317.257
904.038;  263.118;  -11.720; 1262.595
904.598;  254.669;  -13.610; 1152.034
905.158;  245.355;  -11.040; 1240.893
905.717;  228.985;  -10.900; 1233.691
906.277;  219.348;  -15.080; 1217.330
906.836;  217.506;  -13.380; 1222.408
907.396;  215.501;  -10.780; 1193.047
907.955;  208.856;   -8.500; 1182.526
908.515;  203.097;  -12.760; 1099.364
909.074;  202.446;  -11.900; 1092.863
909.633;  201.756;   -8.950; 1069.121
910.192;  198.894;   -8.770; 1196.460
910.752;  189.495;  -12.390; 1029.960
911.311;  179.317;  -13.680; 1009.780
911.870;  170.354;  -12.370;  971.460
912.429;  165.239;  -10.900; 1094.080
912.988;  163.753;  -11.690; 1081.060
913.547;  159.963;  -13.240;  940.380
914.106;  158.633;  -11.990;  999.420
914.665;  156.697;   -9.990;  984.020
915.224;  155.147;  -12.880; 1035.760
915.782;  152.644;  -12.350;  922.560
916.341;  152.407;   -9.110; 1049.840
916.900;  149.035;   -9.270;  925.260
917.458;  147.757;  -13.240;  884.220
918.017;  145.956;  -13.550;  942.600
918.576;  144.866;  -12.320;  904.440
919.134;  143.007;  -11.490;  837.980
919.693;  140.927;  -13.670;  893.060
920.251;  140.517;  -15.470;  876.500
920.809;  139.158;  -11.290;  839.580
921.368;  139.616;  -10.210;  885.360
921.926;  137.106;  -12.140;  842.940
922.484;  134.788;  -13.080;  903.360
923.042;  134.442;  -11.720;  880.340
923.601;  134.521;   -7.480;  998.680
924.159;  131.304;  -11.570;  935.560
924.717;  130.446;  -13.840;  841.080
925.275;  130.540;  -10.640;  903.240
925.833;  129.477;  -11.540;  779.320
926.391;  130.176;  -12.960;  938.380
926.949;  130.974;  -14.130;  857.680
927.506;  130.782;  -11.750;  903.500
928.064;  129.809;  -10.250;  877.580
928.622;  130.408;  -13.030;  880.100
929.180;  132.394;  -13.400;  814.180
929.737;  134.277;  -10.700;  808.540
930.295;  137.107;  -10.070;  928.480
930.853;  136.087;  -11.960;  849.100
931.410;  137.538;  -13.120;  821.120
931.968;  139.249;  -10.770;  940.660
932.525;  139.933;  -10.680;  909.380
933.082;  138.975;  -13.130;  811.440
933.640;  140.339;  -13.210;  925.900
934.197;  139.257;  -11.060;  886.360
934.754;  139.672;   -9.580;  897.780
935.312;  140.978;  -14.000;  863.340
935.869;  143.005;  -10.710; 1012.980
936.426;  141.374;   -9.860;  872.800
936.983;  141.898;   -9.710;  889.020
937.540;  142.457;  -13.990;  838.280
938.097;  146.857;  -14.040;  940.120
938.654;  150.678;  -10.310;  898.860
939.211;  150.642;  -10.560;  952.480
939.768;  151.229;  -13.900;  915.420
940.324;  153.261;  -14.760;  904.200
940.881;  156.908;  -10.370;  878.500
941.438;  159.884;   -8.260; 1021.200
941.995;  158.342;  -12.540;  992.560
942.551;  158.315;  -14.670;  875.620
943.108;  159.877;  -10.450;  937.920
943.664;  160.201;  -10.750;  869.340
944.221;  164.346;  -11.550; 1088.140
944.777;  163.944;  -14.770;  869.680
945.334;  161.559;  -12.820;  884.840
945.890;  157.610;  -10.130;  946.480
946.446;  153.884;  -13.470;  947.020
947.003;  155.561;  -12.120;  964.940
947.559;  156.063;   -9.980; 1063.040
948.115;  151.520;   -9.080; 1026.540
948.671;  148.896;  -10.830;  967.300
949.227;  148.998;  -12.440;  859.560
949.783;  149.182;  -12.910;  858.900
950.339;  154.057;  -10.270;  991.000
950.895;  153.360;  -13.630; 1023.840
951.451;  153.355;  -15.100;  925.280
952.007;  151.658;  -11.330;  998.540
952.563;  148.927;  -10.580;  937.780
953.118;  145.092;  -13.440;  904.940
953.674;  144.215;  -12.710;  935.780
954.230;  146.767;  -10.350;  949.640
954.785;  150.761;   -9.190;  936.640
955.341;  152.149;  -11.200;  998.160
955.897;  146.971;  -16.560;  834.660
956.452;  144.837;  -12.570;  953.840
957.008;  142.673;   -7.970; 1083.640
957.563;  138.164;  -11.940; 1009.540
958.118;  134.210;  -13.450;  877.700
958.674;  132.568;  -12.030;  946.780
959.229;  134.270;   -9.410; 1013.980
959.784;  134.401;  -12.000;  832.400
960.339;  135.292;  -14.780; 1001.280
960.894;  132.303;   -9.860;  963.760
961.449;  128.659;   -9.970;  859.960
962.004;  129.688;  -10.900; 1212.840
962.559;  126.867;  -13.150;  860.140
963.114;  124.414;  -13.740;  742.480
963.669;  124.141;   -9.820;  915.500
964.224;  122.563;  -13.890;  874.340
964.779;  121.917;  -12.600;  828.420
965.334;  124.039;  -10.950; 1017.860
965.888;  122.441;  -11.170;  875.360
966.443;  122.384;  -12.540;  972.380
966.998;  119.425;  -15.780;  819.460
967.552;  118.012;   -9.760;  908.380
968.107;  115.930;   -9.060;  868.300
968.661;  115.746;  -11.950;  922.440
969.216;  114.020;  -12.800;  856.280
969.770;  111.791;  -11.210;  917.200
970.324;  111.637;  -11.610;  923.140
970.879;  112.253;  -11.370;  947.180
971.433;  114.840;  -12.540;  952.720
971.987;  113.227;  -11.320;  895.340
972.541;  111.864;  -10.720;  917.100
973.095;  110.703;   -9.680; 1009.460
973.649;  106.666;  -11.440;  809.480
974.203;  104.686;  -11.210;  829.040
974.757;  104.168;  -10.240;  855.220
975.311;  103.931;  -13.720;  872.600
975.865;  103.707;  -13.770;  881.820
976.419;  101.480;  -11.690;  857.400
976.973;   98.637;   -9.510;  849.620
977.526;   97.258;  -12.620;  949.920
978.080;   95.616;  -12.010;  796.780
978.634;   95.431;  -10.170;  921.320
979.187;   93.956;   -9.020;  905.400
979.741;   95.661;   -9.820; 1018.380
980.294;   93.358;  -14.870;  789.160
980.848;   91.853;  -12.380;  717.220
981.401;   92.718;  -10.350;  816.540
981.955;   91.565;  -13.720;  844.300
982.508;   87.049;  -11.490;  746.340
983.061;   87.923;  -10.000;  915.260
983.615;   85.579;  -11.480;  798.800
984.168;   84.394;  -13.220;  770.080
984.721;   82.941;  -13.960;  880.760
985.274;   81.465;  -10.870;  867.500
985.827;   79.967;   -9.790;  834.220
986.380;   77.526;  -13.120;  721.340
986.933;   77.231;  -12.450;  864.800
987.486;   76.455;  -10.210;  861.920
988.039;   76.185;   -8.430;  863.100
988.591;   75.438;  -10.520;  893.260
989.144;   73.540;  -14.860;  737.260
989.697;   72.365;  -13.080;  758.740
990.250;   71.860;  -10.150;  858.100
990.802;   69.362;  -13.430;  755.860
991.355;   69.470;  -12.750;  974.880
991.907;   67.479;  -12.040;  864.320
992.460;   65.487;  -11.330;  753.760
993.012;   65.487;  -13.610;  749.540
993.565;   63.071;  -13.460;  711.360
994.117;   64.263;   -9.360;  950.780
994.669;   60.326;  -11.300;  701.320
995.221;   60.417;  -13.540;  791.920
995.774;   59.020;  -13.430;  787.580
996.326;   57.711;  -12.520;  740.220
996.878;   57.122;  -10.950;  838.420
997.430;   54.716;  -14.300;  699.860
997.982;   53.759;  -13.760;  750.140
998.534;   53.925;  -11.530;  739.060
999.086;   52.578;  -10.310;  738.220
999.638;   51.130;  -12.530;  661.380
1000.190;   50.637;  -11.840;  699.320
1000.741;   50.283;  -10.260;  742.700
1001.293;   49.357;   -8.860;  686.020
1001.845;   48.638;  -13.700;  676.640
1002.396;   48.418;  -12.100;  743.400
1002.948;   47.858;  -12.760;  737.400
1003.500;   46.519;  -10.380;  723.780
1004.051;   46.387;  -11.900;  907.580
1004.603;   45.509;  -12.250;  791.820
1005.154;   42.163;  -13.210;  608.980
1005.705;   41.792;  -10.950;  723.960
1006.257;   41.322;  -13.880;  707.220
1006.808;   40.587;  -12.840;  685.460
1007.359;   40.108;  -10.570;  763.240
1007.910;   39.903;   -9.620;  646.640
1008.461;   39.511;  -13.630;  732.940
1009.013;   37.697;  -17.200;  588.340
1009.564;   38.944;  -10.200;  793.520
1010.115;   36.660;  -12.570;  597.040
1010.665;   36.323;  -15.150;  602.160
1011.216;   36.578;  -14.480;  667.920
1011.767;   36.305;  -11.340;  697.920
1012.318;   36.652;   -9.780;  736.980
1012.869;   35.673;  -12.380;  679.000
1013.419;   34.663;  -15.560;  603.120
1013.970;   34.993;  -11.010;  666.640
1014.521;   34.307;  -11.610;  620.620
1015.071;   34.961;  -13.450;  670.380
1015.622;   34.415;  -13.870;  635.460
1016.172;   33.809;  -11.610;  596.820
1016.723;   33.517;  -12.120;  614.380
1017.273;   32.686;  -13.620;  604.160
1017.823;   33.053;  -14.140;  650.340
1018.374;   32.653;  -12.800;  611.760
1018.924;   33.006;  -12.340;  716.880
1019.474;   32.820;  -11.410;  718.880
1020.024;   30.941;  -14.770;  657.580
1020.574;   32.746;   -9.780;  726.160
1021.124;   32.847;   -8.560;  673.580
1021.674;   30.831;  -15.190;  559.120
1022.224;   32.387;  -13.530;  708.940
1022.774;   31.820;  -13.280;  668.820
1023.324;   31.890;  -10.690;  753.520
1023.874;   33.103;  -10.240;  875.760
1024.423;   29.529;  -12.540;  613.700
1024.973;   30.487;  -10.010;  610.760
1025.523;   29.760;  -10.550;  620.960
1026.072;   29.345;  -13.560;  606.420
1026.622;   29.382;  -15.120;  675.740
1027.172;   30.400;  -11.260;  715.660
1027.721;   28.774;  -11.410;  601.220
1028.270;   29.888;  -13.530;  663.400
1028.820;   28.606;  -13.680;  638.080
1029.369;   28.653;  -13.520;  612.700
1029.918;   28.652;  -10.980;  649.840
1030.468;   28.162;  -13.530;  564.780
1031.017;   28.450;  -13.170;  634.800
1031.566;   27.285;  -12.200;  608.900
1032.115;   27.402;   -9.960;  694.500
1032.664;   26.974;  -13.210;  596.480
1033.213;   28.053;  -12.500;  735.420
1033.762;   27.528;  -11.910;  635.620
1034.311;   27.297;   -9.640;  677.220
1034.860;   27.427;  -13.310;  691.000
1035.408;   26.899;  -11.830;  722.720
1035.957;   27.360;  -12.000;  719.540
1036.506;   25.071;  -11.690;  530.800
1037.055;   28.031;  -10.990;  844.320
1037.603;   25.869;  -15.120;  664.000
1038.152;   24.876;  -12.450;  534.760
1038.700;   25.205;  -10.560;  585.740
1039.249;   24.446;  -11.080;  681.220
1039.797;   25.621;  -12.540;  633.360
1040.345;   24.870;  -11.920;  705.420
1040.894;   24.276;  -11.410;  625.300
1041.442;   24.293;  -14.320;  632.200
1041.990;   23.994;  -16.240;  559.160
1042.538;   23.348;  -11.680;  536.180
1043.087;   23.927;  -10.760;  570.860
1043.635;   24.599;  -11.850;  670.500
1044.183;   23.572;  -15.480;  586.400
1044.731;   22.976;  -11.770;  576.000
1045.279;   23.432;  -13.090;  674.920
1045.827;   24.598;  -12.440;  892.400
1046.374;   22.075;  -13.840;  515.420
1046.922;   21.504;  -13.220;  590.580
1047.470;   23.601;  -10.230;  691.300
1048.018;   22.877;  -14.590;  647.960
1048.565;   23.476;  -12.050;  708.600
1049.113;   22.156;  -11.650;  557.000
1049.660;   21.739;  -10.510;  629.660
1050.208;   21.803;  -13.310;  675.640
1050.755;   21.110;  -15.900;  606.580
1051.303;   21.851;  -11.430;  686.820
1051.850;   21.407;   -8.480;  635.120
1052.397;   18.917;  -15.010;  473.960
1052.945;   20.882;  -13.960;  617.760
1053.492;   22.024;  -13.150;  741.840
1054.039;   21.864;   -9.630;  720.180
1054.586;   19.758;  -13.680;  557.240
1055.133;   21.672;  -14.570;  693.140
1055.680;   21.199;  -13.820;  646.620
1056.227;   19.914;  -11.730;  542.780
1056.774;   21.779;  -12.480;  794.980
1057.321;   19.453;  -13.930;  523.260
1057.868;   19.586;  -11.690;  651.320
1058.415;   20.101;   -9.520;  651.980
1058.961;   20.190;  -13.160;  678.940
1059.508;   19.675;  -12.920;  643.820
1060.055;   19.982;  -11.920;  581.780
1060.601;   19.810;  -11.500;  624.300
1061.148;   18.865;  -14.330;  616.820
1061.694;   18.814;  -16.870;  592.580
1062.241;   18.719;  -10.330;  596.320
1062.787;   19.888;  -10.620;  663.140
1063.334;   19.990;  -10.110;  808.560
1063.880;   18.658;  -13.400;  668.360
1064.426;   18.615;  -10.680;  706.820
1064.972;   18.355;   -9.920;  601.340
1065.518;   17.423;  -10.980;  566.640
1066.065;   17.595;  -14.890;  624.460
1066.611;   17.614;  -12.870;  598.800
1067.157;   18.068;  -12.950;  641.860
1067.703;   18.143;  -13.540;  668.480
1068.249;   17.148;  -13.540;  605.220
1068.794;   16.931;  -12.600;  626.880
1069.340;   16.020;  -10.620;  578.960
1069.886;   17.344;  -12.830;  590.700
1070.432;   15.822;  -14.870;  541.720
1070.977;   15.675;  -11.980;  601.080
1071.523;   16.519;   -8.200;  573.060
1072.068;   16.161;  -12.330;  582.000
1072.614;   16.322;  -16.370;  527.760
1073.160;   16.050;  -11.100;  687.040
1073.705;   15.416;  -10.480;  572.520
1074.250;   15.045;  -14.520;  559.900
1074.796;   16.141;  -11.460;  655.160
1075.341;   16.228;  -11.950;  664.100
1075.886;   14.977;  -11.460;  594.240
1076.431;   15.115;  -13.770;  649.880
1076.976;   14.525;  -12.680;  639.220
1077.521;   14.599;  -13.170;  583.080
1078.067;   13.958;  -10.860;  579.400
1078.612;   15.123;  -13.920;  661.620
1079.156;   14.543;  -13.880;  601.540
1079.701;   15.120;  -13.120;  693.260
1080.246;   15.034;   -9.940;  696.300
1080.791;   14.385;  -14.740;  625.020
1081.336;   13.703;  -13.750;  659.320
1081.880;   13.914;  -13.400;  649.680
1082.425;   13.587;  -12.220;  573.480
1082.970;   14.895;  -11.610;  717.040
1083.514;   13.137;  -13.580;  597.000
1084.059;   13.131;  -12.810;  586.720
1084.603;   13.097;  -12.320;  565.840
1085.147;   13.191;  -13.190;  645.220
1085.692;   13.949;  -12.480;  716.800
1086.236;   11.765;  -13.020;  503.140
1086.780;   14.741;   -9.190;  751.440
1087.325;   12.646;  -12.480;  654.620
1087.869;   12.994;  -12.450;  610.700
1088.413;   12.908;  -12.240;  705.040
1088.957;   11.665;   -9.020;  543.400
1089.501;   13.194;  -10.320;  766.640
1090.045;   12.605;  -12.720;  726.480
1090.589;   10.918;  -13.690;  569.920
1091.133;   12.638;  -10.020;  673.340
1091.676;   11.638;  -12.330;  591.940
1092.220;   12.361;  -14.970;  600.920
1092.764;   12.356;  -12.430;  706.960
1093.307;   12.241;   -9.800;  673.780
1093.851;   10.768;  -14.970;  556.540
1094.395;   11.014;  -15.310;  683.140
1094.938;   11.224;  -10.370;  632.520
1095.482;   11.033;  -11.050;  559.800
1096.025;   11.620;  -11.840;  710.880
1096.568;   11.760;  -12.840;  779.280
1097.112;    9.924;  -14.700;  508.180
1097.655;   11.450;   -8.720;  603.000
1098.198;    9.584;  -13.610;  600.180
1098.741;    8.930;  -13.350;  612.860
1099.285;   11.213;  -11.230;  657.300
1099.828;    9.623;  -11.840;  439.400
1100.371;   10.237;  -10.840;  608.160
1100.914;    9.533;  -14.190;  682.660
1101.457;   10.428;  -11.240;  679.900
1101.999;    8.881;  -11.270;  584.680
1102.542;    9.633;  -11.480;  641.440
1103.085;    9.274;  -11.750;  658.500
1103.628;    9.653;  -11.400;  762.060
1104.170;    8.909;  -10.490;  588.280
1104.713;    9.678;  -10.600;  646.700
1105.256;    7.925;  -14.360;  557.440
1105.798;    7.941;  -13.210;  499.980
1106.341;   10.028;  -10.270;  728.900
1106.883;    7.919;  -12.200;  521.340
1107.425;    8.553;  -13.110;  668.180
1107.968;    8.072;  -12.840;  612.380
1108.510;    8.854;   -6.480;  684.960
1109.052;    7.057;  -13.940;  612.620
1109.594;    7.836;  -13.690;  554.440
1110.136;    8.568;  -11.880;  643.220
1110.679;    7.858;   -9.500;  633.080
1111.221;    7.955;  -14.160;  604.460
1111.763;    7.441;  -13.980;  559.220
1112.304;    6.613;  -13.880;  547.140
1112.846;    7.600;  -12.210;  666.240
1113.388;   10.097;  -11.390;  942.180
1113.930;    7.314;  -14.540;  694.200
1114.472;    6.824;  -12.640;  606.540
1115.013;    5.860;  -11.620;  551.280
1115.555;    5.516;  -13.640;  587.100
1116.097;    5.618;  -15.380;  579.480
1116.638;    7.438;  -12.640;  684.600
1117.180;    7.142;   -9.850;  667.740
1117.721;    6.424;  -13.690;  568.580
1118.262;    6.408;  -12.680;  677.960
1118.804;    7.198;  -12.530;  637.340
1119.345;    5.812;  -11.690;  578.400
1119.886;    6.340;  -13.380;  704.040
1120.427;    5.457;  -14.070;  589.020
1120.969;    5.384;  -13.500;  597.920
1121.510;    4.436;  -11.480;  563.060
1122.051;    6.070;  -12.830;  723.580
1122.592;    5.423;  -14.290;  655.420
1123.133;    4.845;  -12.400;  547.940
1123.673;    5.895;  -10.130;  706.480
1124.214;    5.347;  -12.930;  612.460
1124.755;    5.883;  -14.380;  639.460
1125.296;    5.334;  -14.000;  627.320
1125.836;    5.933;  -10.070;  691.500
1126.377;    4.620;  -12.640;  599.660
1126.918;    5.265;  -12.960;  614.980
1127.458;    4.434;  -13.350;  622.220
1127.999;    5.258;  -10.750;  656.980
1128.539;    5.028;  -12.350;  694.240
1129.079;    4.010;  -14.860;  632.720
1129.620;    3.944;  -13.840;  558.100
1130.160;    3.974;  -12.330;  539.480
1130.700;    4.970;  -14.530;  640.840
1131.240;    4.244;  -12.530;  643.700
1131.781;    3.582;  -14.450;  619.680
1132.321;    3.801;   -9.790;  599.120
1132.861;    2.256;  -14.860;  564.200
1133.401;    2.754;  -14.290;  593.940
1133.941;    4.711;  -11.750;  626.280
1134.481;    3.375;   -9.920;  597.580
1135.020;    3.623;  -12.290;  609.160
1135.560;    3.639;  -11.650;  674.940
1136.100;    2.534;  -16.270;  501.160
1136.640;    2.862;  -10.890;  510.480
1137.179;    2.729;  -14.180;  537.960
1137.719;    2.752;  -16.250;  605.400
1138.258;    3.359;  -14.230;  587.360
1138.798;    3.375;   -9.090;  663.780
1139.337;    1.753;  -15.130;  482.840
1139.877;    2.826;  -13.680;  642.360
1140.416;    3.821;  -11.320;  878.060
1140.955;    2.480;  -10.860;  535.380
1141.494;    2.596;  -12.920;  669.280
1142.034;    1.910;  -13.930;  583.520
1142.573;    3.340;  -11.440;  646.280
1143.112;    1.530;  -12.000;  553.480
1143.651;    1.974;  -13.670;  536.480
1144.190;    2.533;  -12.730;  691.640
1144.729;    2.458;  -14.560;  607.420
1145.267;    1.658;  -11.830;  584.900
1145.806;    2.824;  -12.230;  637.040
1146.345;    0.973;  -14.130;  635.020
1146.884;    1.725;  -11.590;  622.500
1147.422;    1.396;  -12.550;  533.060
1147.961;    3.075;  -11.180;  708.460
1148.500;    2.739;  -11.510;  669.720
1149.038;    2.558;  -11.640;  632.500
1149.577;    1.446;  -10.130;  698.640
1150.115;    0.601;  -13.970;  452.280
1150.653;    0.594;  -14.520;  607.340
1151.192;    1.391;  -12.810;  552.920
1151.730;    0.811;   -9.100;  652.560
1152.268;    0.298;  -12.220;  589.520
1152.806;    0.767;  -14.140;  571.180
1153.344;    0.466;  -12.350;  577.640
1153.882;    0.851;   -8.980;  600.060
1154.421;   -0.208;  -15.190;  470.620
1154.958;    0.310;  -15.210;  595.240
1155.496;    1.674;  -12.850;  645.280
1156.034;    0.827;   -9.940;  721.880
1156.572;    1.554;  -13.570;  667.060
1157.110;   -0.268;  -14.590;  473.940
1157.647;    0.949;  -13.030;  676.960
1158.185;   -0.315;  -12.140;  564.320
1158.723;   -1.009;  -14.390;  509.200
1159.260;   -0.046;  -14.090;  701.700
1159.798;    0.236;  -11.920;  658.160
1160.335;   -0.344;  -11.110;  631.820

