
Integration time [ms]:   3.276
Averaging Nr. [scans]: 1000
Smoothing Nr. [pixels]: 0
Data measured with spectrometer [name]: 7414430SP
Wave   ;Sample   ;Dark     ;Reference
[nm]   ;[counts] ;[counts] ;[counts] 

288.544;  150.251;    7.793;  793.890
289.143;  153.876;    7.462;  681.602
289.742;  153.881;    8.602;  828.814
290.341;  139.545;    1.321;  789.841
290.940;  129.441;   -0.709;  730.702
291.538;  128.711;    0.881;  881.108
292.137;  128.674;    0.122;  792.581
292.736;  133.674;   -1.929;  975.101
293.335;  131.501;   -8.229;  735.086
293.934;  131.342;   -5.279;  781.677
294.532;  129.041;   -1.369; 1031.958
295.131;  115.248;   -7.641;  834.394
295.730;  116.389;   -8.420;  809.588
296.328;  113.975;   -5.611;  783.442
296.927;  114.732;   -5.781;  779.652
297.525;  116.133;   -6.361;  781.236
298.124;  107.036;  -11.382;  654.009
298.722;  110.877;   -7.641;  761.933
299.321;  106.831;   -6.811;  708.597
299.919;  105.676;   -6.991;  751.918
300.518;  104.500;  -10.362;  689.338
301.116;  104.792;   -9.581;  691.381
301.715;  104.387;   -4.891;  730.222
302.313;  103.515;   -8.801;  704.943
302.911;   99.543;   -8.522;  733.830
303.509;  104.603;   -6.171;  925.627
304.108;  100.901;   -7.311;  760.383
304.706;  101.008;   -8.321;  801.664
305.304;   96.011;  -10.222;  796.707
305.902;  100.578;   -6.021;  784.484
306.500;   96.339;   -4.971;  728.200
307.098;   95.367;   -7.061;  746.560
307.696;   93.357;   -8.801;  780.432
308.294;   93.538;   -6.411;  731.359
308.892;   95.791;   -2.901;  759.769
309.490;   92.098;   -5.041;  712.161
310.088;   90.930;   -5.002;  788.444
310.686;   94.839;   -2.041;  821.749
311.284;   89.836;   -2.351;  766.040
311.882;   87.979;   -4.422;  731.225
312.480;   85.595;   -4.192;  697.167
313.078;   86.202;   -1.172;  808.331
313.675;   86.356;   -2.601;  691.600
314.273;   82.174;   -1.312;  797.837
314.871;   82.519;   -3.942;  589.829
315.468;   79.659;   -2.802;  652.090
316.066;   82.161;   -0.701;  694.427
316.664;   75.343;   -4.362;  656.351
317.261;   79.514;   -2.872;  910.128
317.859;   74.531;   -2.022;  768.735
318.456;   75.191;   -0.531;  830.096
319.054;   71.418;   -3.912;  787.828
319.651;   70.874;   -4.752;  759.928
320.249;   68.818;   -2.602;  810.188
320.846;   66.919;   -0.821;  714.286
321.443;   63.245;   -4.642;  832.135
322.041;   62.403;   -5.002;  812.315
322.638;   58.866;   -3.982;  701.456
323.235;   60.570;   -3.411;  665.683
323.833;   57.896;   -7.361;  740.354
324.430;   53.779;   -8.611;  615.900
325.027;   54.024;   -4.061;  876.855
325.624;   53.632;   -4.031;  644.532
326.221;   50.776;   -7.481;  689.717
326.818;   50.965;   -5.281;  818.332
327.415;   53.526;   -7.460;  748.828
328.012;   52.576;   -5.510;  690.585
328.609;   51.649;   -7.880;  731.389
329.206;   50.354;   -8.331;  778.621
329.803;   49.510;   -5.121;  737.841
330.400;   52.086;   -4.510;  704.260
330.997;   53.377;   -6.441;  817.147
331.594;   53.538;   -8.831;  788.185
332.191;   57.817;   -7.621;  728.722
332.787;   59.708;   -4.591;  844.463
333.384;   58.746;   -7.412;  763.093
333.981;   57.438;   -8.293;  815.687
334.578;   61.318;   -7.052;  708.378
335.174;   62.608;   -3.102;  731.469
335.771;   63.337;   -5.943;  836.456
336.367;   59.674;   -7.393;  710.631
336.964;   63.174;   -4.063;  793.266
337.561;   60.616;   -3.813;  731.112
338.157;   57.009;   -4.654;  911.916
338.754;   54.961;   -7.934;  796.589
339.350;   52.424;   -4.414;  722.493
339.946;   54.200;   -4.664;  773.135
340.543;   46.570;   -6.375;  846.136
341.139;   42.334;   -9.815;  720.836
341.735;   39.481;   -4.526;  772.593
342.332;   37.721;   -4.895;  691.472
342.928;   38.687;   -4.295;  795.394
343.524;   32.984;   -5.476;  761.684
344.120;   28.829;   -5.856;  738.562
344.716;   31.003;   -2.155;  723.717
345.313;   30.386;   -6.275;  795.342
345.909;   24.974;   -8.815;  627.336
346.505;   26.103;   -5.305;  740.247
347.101;   26.829;   -2.674;  827.864
347.697;   27.410;   -4.344;  785.398
348.293;   22.594;   -9.975;  627.244
348.889;   23.380;   -5.774;  745.914
349.485;   21.843;   -5.004;  688.205
350.081;   22.570;   -4.704;  772.592
350.676;   18.170;   -6.635;  691.606
351.272;   22.038;   -4.504;  809.530
351.868;   21.366;   -3.914;  780.497
352.464;   19.272;   -9.044;  723.932
353.059;   15.473;   -8.314;  646.017
353.655;   18.494;   -7.024;  777.063
354.251;   19.803;   -5.343;  759.845
354.846;   14.326;   -8.604;  740.646
355.442;   12.678;   -6.945;  753.071
356.038;   14.064;   -7.564;  751.708
356.633;   13.496;   -5.814;  728.594
357.229;   11.907;   -7.364;  724.757
357.824;   11.208;   -8.024;  703.600
358.420;    9.851;   -9.384;  679.726
359.015;   10.462;   -5.104;  695.357
359.610;   11.144;   -6.854;  763.920
360.206;    5.396;  -10.185;  603.240
360.801;    8.295;   -7.054;  646.503
361.396;    9.453;   -5.034;  725.975
361.992;    5.316;   -8.284;  668.220
362.587;    3.274;   -8.625;  670.160
363.182;    5.031;   -7.674;  689.631
363.777;    5.732;   -5.164;  738.242
364.372;    5.279;   -8.604;  737.314
364.967;    1.901;   -9.055;  680.744
365.563;    5.000;   -6.114;  815.567
366.158;    2.070;   -5.814;  685.161
366.753;    2.575;   -7.854;  649.263
367.348;    2.061;   -7.804;  746.056
367.942;    1.408;   -7.954;  697.298
368.537;   -0.658;   -4.984;  754.245
369.132;   -0.022;   -8.564;  703.428
369.727;   -2.887;   -8.855;  638.079
370.322;   -2.028;   -6.245;  580.186
370.917;   -1.870;   -6.425;  710.646
371.511;    0.935;   -6.294;  861.834
372.106;   -2.557;   -7.685;  776.964
372.701;   -5.449;   -7.335;  585.988
373.296;   -1.322;   -4.564;  863.135
373.890;   -5.133;  -10.235;  647.840
374.485;   -7.273;   -7.885;  691.199
375.079;   -3.362;   -7.324;  738.685
375.674;   -2.900;   -3.494;  812.970
376.268;   -6.735;   -8.525;  691.759
376.863;  -11.931;  -10.086;  580.327
377.457;   -6.257;   -7.025;  662.490
378.052;   -8.174;   -3.585;  764.884
378.646;   -8.747;   -7.595;  741.167
379.240;   -8.527;   -8.335;  721.176
379.835;   -8.014;   -5.785;  636.978
380.429;  -10.547;   -4.335;  562.557
381.023;  -10.481;   -6.805;  779.205
381.617;  -12.191;   -9.195;  680.106
382.212;   -9.372;   -6.905;  685.303
382.806;   -8.158;   -3.745;  760.690
383.400;  -12.480;   -7.745;  672.281
383.994;  -12.609;   -9.765;  664.870
384.588;   -9.388;   -6.564;  697.701
385.182;   -8.450;   -5.344;  726.624
385.776;  -10.126;   -8.514;  706.875
386.370;  -12.094;   -9.555;  681.968
386.964;  -11.464;   -8.715;  684.155
387.558;  -10.474;   -6.174;  598.360
388.152;  -13.578;   -8.725;  681.959
388.745;  -11.329;   -7.965;  814.707
389.339;  -10.097;   -5.924;  747.642
389.933;   -9.598;   -5.524;  695.370
390.527;   -9.811;   -7.114;  859.029
391.120;  -15.419;  -10.725;  595.318
391.714;  -13.927;   -8.035;  711.633
392.308;  -11.017;   -3.574;  780.253
392.901;  -13.900;   -7.245;  642.460
393.495;  -15.827;   -9.285;  595.414
394.089;  -13.912;   -5.895;  760.452
394.682;  -14.401;   -4.295;  697.188
395.275;  -15.335;   -9.875;  719.927
395.869;  -15.559;   -8.485;  667.314
396.462;  -15.009;   -7.455;  616.609
397.056;  -11.043;   -5.424;  776.621
397.649;  -15.807;   -6.605;  731.575
398.242;  -12.521;   -8.224;  712.645
398.836;  -12.725;   -7.474;  766.408
399.429;  -13.016;   -7.094;  631.041
400.022;  -16.645;   -9.475;  665.902
400.615;  -13.446;   -7.145;  805.609
401.208;  -11.986;   -7.174;  691.451
401.802;  -14.243;   -5.515;  699.329
402.395;  -15.722;   -9.875;  683.502
402.988;  -16.420;   -8.845;  696.627
403.581;  -12.948;   -8.874;  646.878
404.174;  -11.007;   -5.324;  686.568
404.767;  -14.121;   -9.575;  638.583
405.360;  -16.275;  -10.965;  621.445
405.953;  -10.886;   -8.764;  759.034
406.545;  -10.877;   -7.514;  725.342
407.138;  -15.198;  -10.025;  618.350
407.731;  -13.224;  -10.034;  613.303
408.324;   -9.770;   -9.374;  660.554
408.917;  -10.454;   -6.534;  681.864
409.509;  -13.051;   -8.004;  740.396
410.102;  -14.325;   -9.875;  643.948
410.695;   -8.445;   -8.604;  665.758
411.287;  -10.089;   -6.794;  599.821
411.880;  -10.726;   -9.334;  585.421
412.472;  -13.596;  -10.254;  613.092
413.065;  -11.105;   -6.714;  629.408
413.657;   -9.374;   -7.234;  576.678
414.250;   -8.940;  -10.544;  646.681
414.842;  -10.190;   -9.744;  676.353
415.434;   -7.885;   -6.994;  570.463
416.027;   -4.133;   -5.893;  652.196
416.619;   -6.533;   -7.264;  713.400
417.211;   -7.043;  -10.374;  599.352
417.804;   -3.064;   -7.993;  628.499
418.396;   -7.651;   -7.234;  607.643
418.988;   -4.860;   -9.443;  659.238
419.580;   -7.716;  -10.724;  568.276
420.172;   -5.820;  -10.323;  536.196
420.764;   -2.047;   -8.793;  672.482
421.356;   -3.025;  -11.143;  636.898
421.948;   -3.412;   -8.293;  677.661
422.540;   -0.037;   -7.893;  680.027
423.132;    0.142;   -7.082;  600.641
423.724;   -2.650;   -8.653;  561.267
424.316;   -0.258;  -10.213;  621.345
424.908;    2.872;   -9.762;  591.517
425.500;    3.229;   -5.572;  647.978
426.092;    3.013;   -8.422;  648.268
426.683;    3.122;   -9.283;  684.836
427.275;    5.072;   -7.852;  641.471
427.867;    7.311;   -5.272;  668.948
428.458;    7.826;   -7.682;  732.344
429.050;    6.456;  -10.612;  680.749
429.642;    8.500;   -9.882;  743.124
430.233;    8.886;   -6.962;  569.356
430.825;    9.978;   -6.842;  724.809
431.416;    7.866;   -9.672;  698.241
432.008;   10.831;   -6.552;  651.723
432.599;   11.727;   -6.891;  656.073
433.190;    7.848;  -10.912;  637.670
433.782;    7.935;  -11.172;  590.395
434.373;   15.349;   -6.061;  884.765
434.964;   13.329;   -8.251;  602.920
435.556;   11.545;   -9.722;  634.537
436.147;   15.348;   -9.082;  758.490
436.738;   14.809;   -8.041;  701.099
437.329;   19.163;   -7.341;  721.723
437.920;   12.329;   -8.162;  666.688
438.511;   12.715;  -11.802;  564.526
439.103;   19.231;  -10.191;  623.998
439.694;   20.395;   -7.601;  681.583
440.285;   21.509;   -8.541;  764.432
440.876;   19.813;   -9.751;  845.738
441.466;   19.151;   -9.401;  575.162
442.057;   23.810;   -7.760;  665.814
442.648;   22.726;   -9.971;  746.255
443.239;   21.775;  -11.001;  620.477
443.830;   26.477;   -7.990;  704.958
444.421;   28.191;   -7.910;  655.474
445.011;   24.076;   -8.131;  693.619
445.602;   24.834;   -7.111;  743.126
446.193;   26.364;  -10.920;  488.117
446.783;   30.508;   -6.500;  640.397
447.374;   26.687;   -8.671;  692.759
447.964;   27.132;  -10.781;  713.770
448.555;   34.681;   -9.650;  822.742
449.145;   30.280;   -8.660;  662.853
449.736;   32.103;   -8.990;  803.179
450.326;   32.561;   -9.500;  713.626
450.917;   37.366;   -8.680;  675.324
451.507;   35.519;   -7.520;  600.661
452.097;   37.186;   -8.590;  746.267
452.688;   38.974;  -11.340;  742.160
453.278;   37.565;  -10.100;  566.840
453.868;   41.692;   -6.019;  793.550
454.458;   39.442;   -9.440;  651.141
455.048;   40.947;  -10.560;  711.783
455.639;   41.936;  -11.799;  567.096
456.229;   45.306;   -6.899;  710.694
456.819;   46.764;   -7.389;  751.158
457.409;   47.882;  -11.119;  773.993
457.999;   50.465;   -9.289;  737.505
458.589;   49.349;   -6.139;  686.606
459.179;   49.765;   -8.729;  717.658
459.769;   48.458;   -9.789;  627.099
460.358;   53.524;  -10.259;  797.262
460.948;   52.273;   -7.299;  689.503
461.538;   54.506;  -10.289;  660.677
462.128;   52.446;  -11.269;  664.934
462.717;   59.634;   -9.368;  710.326
463.307;   61.935;   -7.908;  705.846
463.897;   58.278;   -9.599;  656.942
464.486;   57.340;   -9.769;  837.128
465.076;   61.615;   -8.048;  733.776
465.666;   65.270;   -9.358;  652.900
466.255;   62.538;   -7.919;  785.651
466.845;   61.949;  -11.689;  666.749
467.434;   64.925;   -7.818;  725.873
468.023;   65.882;   -7.678;  658.357
468.613;   64.095;  -10.939;  713.946
469.202;   67.971;  -10.118;  646.507
469.791;   71.788;   -9.108;  737.811
470.381;   73.402;   -6.058;  742.813
470.970;   73.294;  -10.428;  711.099
471.559;   74.132;  -10.268;  733.291
472.148;   76.787;   -8.448;  675.737
472.738;   78.422;   -6.917;  765.466
473.327;   78.086;  -11.978;  637.529
473.916;   78.544;  -11.888;  737.446
474.505;   82.454;   -9.437;  751.703
475.094;   85.465;   -6.747;  806.570
475.683;   83.938;   -9.367;  797.699
476.272;   86.382;  -12.637;  730.632
476.861;   88.601;  -10.027;  706.754
477.449;   94.147;   -8.716;  728.487
478.038;   89.427;   -9.577;  692.513
478.627;   89.974;   -9.718;  714.852
479.216;   96.512;   -8.947;  769.441
479.805;   99.986;   -6.256;  783.375
480.393;   99.589;   -7.937; 1008.945
480.982;   97.650;   -7.717;  874.501
481.571;  105.815;   -9.266;  858.333
482.159;  105.138;   -7.636;  705.386
482.748;  105.067;   -9.667;  821.385
483.336;  110.003;  -10.376;  858.209
483.925;  110.226;   -7.147;  774.373
484.513;  116.400;   -7.996;  758.962
485.102;  114.317;  -10.027;  810.965
485.690;  122.816;  -10.446; 1011.050
486.278;  124.528;   -8.446;  979.329
486.867;  124.950;   -6.356;  809.662
487.455;  126.242;   -9.136;  898.229
488.043;  128.242;  -10.646;  748.361
488.631;  136.925;   -7.456; 1005.079
489.220;  139.110;   -6.636;  908.626
489.808;  140.431;  -11.036;  741.415
490.396;  147.974;  -10.246;  914.645
490.984;  154.632;   -8.556;  830.161
491.572;  163.518;   -5.886;  940.315
492.160;  168.720;   -9.486;  919.081
492.748;  180.178;  -10.976;  884.341
493.336;  201.751;   -8.776; 1019.693
493.924;  226.680;   -5.465;  958.077
494.512;  253.944;   -9.986; 1066.638
495.100;  290.071;  -10.636; 1103.280
495.687;  344.213;  -10.885; 1206.373
496.275;  406.510;   -8.126; 1150.796
496.863;  472.926;  -10.586; 1281.171
497.451;  569.538;  -11.926; 1386.805
498.038;  698.609;  -10.885; 1556.729
498.626;  798.211;   -6.315; 1741.407
499.214;  937.171;   -7.326; 2016.609
499.801; 1139.985;  -11.906; 2220.633
500.389; 1366.149;  -10.466; 2312.494
500.976; 1668.054;   -5.236; 2744.849
501.564; 2082.420;   -8.936; 3148.565
502.151; 2453.797;  -13.176; 3515.999
502.738; 2878.687;  -10.646; 3971.274
503.326; 3227.344;   -9.525; 4403.796
503.913; 3603.322;  -10.856; 5161.749
504.500; 3972.684;  -11.586; 5986.420
505.088; 4312.684;  -10.336; 6381.201
505.675; 4820.616;   -6.355; 6925.547
506.262; 5500.114;   -9.046; 7619.060
506.849; 6199.190;  -10.416; 8733.969
507.436; 6728.131;  -10.305; 9790.121
508.023; 7310.453;   -5.496; 9985.472
508.610; 7512.044;   -7.856;10434.618
509.197; 8087.502;  -10.097;11198.435
509.784; 9376.525;  -10.886;12391.194
510.371;10412.082;   -9.315;13603.713
510.958;11064.741;   -9.936;14426.586
511.545;11746.947;   -9.326;15243.775
512.132;12665.452;  -10.075;15945.876
512.719;13417.340;   -7.796;16340.369
513.305;14516.729;  -10.606;18011.766
513.892;15216.056;  -11.486;19754.971
514.479;16295.389;   -9.126;20967.805
515.066;17444.557;   -6.026;22299.793
515.652;18728.426;   -8.466;22908.660
516.239;20231.457;  -10.886;23798.875
516.825;21392.771;  -11.496;25567.275
517.412;22607.369;   -5.796;28154.959
517.998;23182.852;  -10.506;28344.111
518.585;23004.820;  -10.076;27134.219
519.171;23565.922;   -8.315;27268.576
519.758;25522.504;   -8.596;28964.129
520.344;27273.898;   -8.466;30664.494
520.930;26943.566;  -11.006;32550.605
521.516;28630.172;  -10.495;35422.895
522.103;30750.117;   -5.526;38280.004
522.689;31569.096;   -8.746;37835.117
523.275;30634.363;  -11.376;37288.613
523.861;31295.611;  -11.156;37281.395
524.447;32879.957;   -8.135;37846.949
525.033;32781.090;   -7.896;38321.949
525.619;32951.688;  -12.476;38579.285
526.205;34491.969;   -9.516;40622.875
526.791;37099.289;   -6.926;42258.836
527.377;36982.914;   -8.346;42966.902
527.963;38512.527;   -8.717;42018.949
528.549;37434.754;  -11.016;42476.828
529.135;36202.723;   -8.536;41854.852
529.721;35464.148;   -9.666;41237.711
530.306;35151.973;  -10.066;41259.445
530.892;35009.680;  -11.356;41506.047
531.478;36075.918;   -6.596;43559.613
532.063;38946.617;   -8.836;47695.563
532.649;39311.961;  -10.047;50808.324
533.235;40191.422;   -9.746;51787.500
533.820;41336.750;   -6.566;52145.035
534.406;42573.625;  -10.817;51133.488
534.991;42566.992;   -9.416;49996.805
535.576;41115.586;   -9.036;48882.852
536.162;41542.457;   -6.156;46942.285
536.747;42894.969;  -11.607;45711.746
537.333;46452.066;  -11.787;48510.180
537.918;48903.742;  -12.437;50439.891
538.503;47586.316;   -7.196;50863.711
539.088;45013.586;  -10.556;50906.922
539.673;45271.324;   -8.767;52621.965
540.259;45002.152;  -10.026;52368.094
540.844;42213.945;   -7.416;50879.109
541.429;43598.867;   -9.467;52077.777
542.014;46279.340;   -9.527;52716.695
542.599;45667.754;   -9.946;52363.281
543.184;43067.891;   -7.927;53187.137
543.769;44554.039;   -9.297;54697.605
544.354;44082.117;  -10.127;53913.914
544.938;42549.809;   -9.267;49680.164
545.523;44087.629;   -6.506;47386.277
546.108;46412.652;   -9.787;49151.949
546.693;48789.891;  -11.587;51384.637
547.278;49008.609;  -10.986;51853.254
547.862;45773.469;   -8.206;51173.750
548.447;41258.789;  -10.067;51691.395
549.031;40787.379;   -9.637;52456.703
549.616;45648.754;   -9.926;52714.516
550.201;44741.828;   -6.347;52414.598
550.785;45893.734;   -7.917;52355.059
551.370;45313.293;  -10.867;54589.453
551.954;45474.918;   -9.047;58267.348
552.538;46173.789;   -7.827;59062.176
553.123;44672.016;  -10.287;58115.285
553.707;43099.871;  -12.178;56556.285
554.291;44187.770;   -8.717;56201.668
554.876;46317.828;   -7.457;55335.762
555.460;46613.582;  -10.387;54155.703
556.044;47484.410;   -9.618;53721.484
556.628;45553.203;  -11.567;53731.016
557.212;44264.348;   -8.097;54312.531
557.796;43031.379;  -11.077;53797.773
558.380;42735.305;  -11.108;56145.984
558.964;42808.461;   -9.057;57277.930
559.548;43366.117;   -6.977;56459.641
560.132;41976.402;  -11.457;54434.543
560.716;41133.855;  -11.378;54800.617
561.300;42545.125;   -9.577;57606.945
561.884;43402.652;   -7.127;58972.445
562.467;41864.996;   -7.118;57327.570
563.051;40756.574;  -13.358;54962.434
563.635;41724.211;  -10.178;52594.473
564.219;42602.086;   -7.837;50610.410
564.802;43360.434;  -11.398;49551.180
565.386;43328.777;  -12.788;48370.953
565.969;42985.457;   -9.077;48178.871
566.553;42355.648;   -6.207;49957.305
567.136;42544.637;   -8.568;50369.594
567.720;38785.754;  -11.868;49492.004
568.303;36864.813;   -8.268;50616.352
568.887;36937.531;   -8.698;50727.148
569.470;37398.789;   -6.808;51698.379
570.053;36414.203;  -13.188;52122.078
570.637;34316.055;  -12.037;52536.438
571.220;33636.262;   -8.577;51186.098
571.803;34237.895;   -8.498;51032.762
572.386;37096.922;  -10.498;49609.887
572.969;39450.137;   -9.388;48285.926
573.552;37409.570;   -8.338;47624.285
574.135;36049.371;   -8.518;45498.641
574.718;33468.121;  -13.628;41970.434
575.301;32492.867;  -10.893;41447.137
575.884;31517.615;   -8.158;40923.836
576.467;32710.033;  -10.328;45267.723
577.050;34758.930;  -13.058;48175.543
577.633;35906.621;   -9.458;47729.328
578.216;34745.000;   -8.928;47579.793
578.799;33748.422;   -9.358;47820.996
579.381;32449.344;  -11.388;48115.551
579.964;30824.148;  -11.718;47333.766
580.547;32329.486;   -8.588;46668.969
581.129;33305.895;   -8.859;44466.141
581.712;34068.469;  -10.729;44164.922
582.294;34726.145;  -11.118;46477.855
582.877;34906.453;   -5.218;48244.254
583.459;32868.258;   -8.679;47437.895
584.042;30812.930;  -10.709;46943.219
584.624;31034.760;  -11.669;46792.227
585.206;30360.090;   -8.218;46557.250
585.789;30329.768;  -10.569;45793.773
586.371;31356.377;  -11.859;43836.391
586.953;29528.283;  -10.719;42972.492
587.536;28082.383;   -7.198;42487.211
588.118;28364.648;   -8.720;42086.414
588.700;28972.807;  -10.439;43389.930
589.282;30881.275;   -9.198;43646.039
589.864;32938.695;   -9.199;43438.109
590.446;34153.586;  -11.319;43151.926
591.028;33691.102;  -11.159;42781.867
591.610;32618.270;  -11.779;42839.098
592.192;30433.016;   -7.668;42820.402
592.774;29307.674;  -11.949;40724.277
593.356;28325.314;  -12.129;39874.789
593.937;27641.271;  -10.669;39980.648
594.519;29994.520;   -6.509;42069.633
595.101;31801.674;  -10.849;42976.031
595.683;31692.947;  -11.679;44084.441
596.264;32846.254;   -9.049;43478.797
596.846;32118.166;   -8.849;43803.672
597.427;31581.857;   -9.570;42986.934
598.009;32740.572;  -12.620;42832.219
598.591;33059.031;  -10.039;42580.086
599.172;32349.553;  -10.369;43061.805
599.753;32499.861;   -9.140;41691.469
600.335;33785.199;  -11.430;40692.520
600.916;32188.238;   -9.939;39982.422
601.498;30209.189;   -8.479;40318.617
602.079;28826.455;  -10.920;40670.609
602.660;29014.977;  -11.480;41450.898
603.241;30507.824;  -11.699;41137.738
603.823;29183.301;   -9.579;38868.797
604.404;29301.633;  -10.620;38182.785
604.985;30640.701;  -10.450;38078.047
605.566;30039.393;   -9.129;38056.633
606.147;30118.051;   -7.510;37020.418
606.728;31898.158;  -10.660;37883.359
607.309;30620.563;  -11.740;38748.273
607.890;30113.330;   -9.759;38850.230
608.471;29779.033;   -8.250;37457.918
609.051;29065.943;   -9.240;36066.457
609.632;27832.955;  -12.120;35991.074
610.213;28350.252;   -9.110;37402.641
610.794;29032.633;   -8.030;38383.363
611.374;28875.510;   -8.110;40562.387
611.955;29320.555;  -13.560;38533.727
612.536;30548.848;  -11.400;36951.789
613.116;30713.164;   -8.070;37197.891
613.697;30771.318;  -10.830;38411.125
614.277;29205.492;  -11.641;38673.938
614.858;30190.619;  -13.310;37075.863
615.438;29518.887;   -7.460;35092.906
616.019;26765.764;   -7.601;33666.301
616.599;27175.225;  -12.020;34189.023
617.179;28811.551;  -11.780;36952.047
617.760;29637.373;   -8.570;39582.574
618.340;30542.385;  -11.471;38943.977
618.920;31604.703;  -11.170;37594.156
619.500;31757.293;  -11.071;37866.938
620.080;31312.906;   -7.750;37869.043
620.660;32476.369;  -12.711;36868.617
621.241;34186.520;  -10.211;36352.309
621.821;34277.273;  -10.961;35459.520
622.401;33082.953;   -7.720;35207.414
622.980;32175.547;   -8.981;35980.422
623.560;30801.889;   -9.331;37351.328
624.140;29707.727;   -9.850;34388.582
624.720;24537.088;   -7.451;32368.764
625.300;21010.758;   -9.070;32638.629
625.880;24445.186;  -12.601;34599.035
626.459;28682.938;  -11.751;36831.738
627.039;31831.773;   -9.281;38299.098
627.619;31817.461;   -8.801;38289.574
628.198;29978.178;  -12.071;37220.695
628.778;28816.006;   -9.461;37632.563
629.357;29636.797;   -8.491;38003.012
629.937;29915.074;   -9.721;38402.039
630.516;29201.906;   -9.951;37868.801
631.096;28546.703;  -11.731;35760.410
631.675;31708.646;   -8.572;35225.219
632.254;36904.672;  -11.282;35130.289
632.834;36339.449;  -13.322;35794.570
633.413;34329.133;  -10.301;35788.922
633.992;31310.818;   -8.582;34532.863
634.571;32045.484;   -8.352;33590.113
635.151;34529.141;  -11.912;34943.863
635.730;33070.145;  -10.511;35352.523
636.309;30039.748;   -7.731;35366.605
636.888;27974.842;   -9.952;36165.637
637.467;29030.648;  -11.672;37515.902
638.046;30522.334;   -8.901;39288.695
638.625;33403.801;   -7.912;38279.699
639.204;33063.797;  -10.022;37741.598
639.782;31790.482;  -12.252;38364.551
640.361;27707.932;  -10.041;36740.621
640.940;25010.756;  -11.161;34950.082
641.519;25661.695;   -9.701;34137.398
642.097;28703.834;  -11.271;35654.258
642.676;31640.678;   -8.651;35637.957
643.255;32187.816;   -8.711;36567.074
643.833;31253.305;   -9.581;37809.434
644.412;31568.791;  -13.711;37337.293
644.990;30959.756;  -11.811;37018.531
645.569;31341.986;   -9.411;36518.469
646.147;30517.453;  -10.291;36186.430
646.726;29781.932;  -12.401;36267.688
647.304;30291.867;  -10.411;36647.625
647.882;32226.793;   -9.651;39286.742
648.461;34182.930;   -9.631;39157.703
649.039;32195.350;  -11.881;35412.883
649.617;31171.492;   -9.661;34744.918
650.195;30646.918;   -9.301;35403.098
650.773;29197.381;  -10.511;35053.797
651.352;27217.930;  -11.521;33756.816
651.930;25088.893;  -12.211;31868.773
652.508;23287.154;   -9.171;33121.551
653.086;27034.404;   -9.371;33564.793
653.663;29696.184;  -13.161;34054.668
654.241;28888.943;  -13.031;35693.309
654.819;30592.020;   -9.371;36422.906
655.397;30482.264;  -10.511;38213.484
655.975;30157.260;  -10.371;39507.625
656.553;29501.068;  -10.051;39498.223
657.130;28016.252;  -10.061;40395.480
657.708;27850.664;   -9.561;39242.020
658.286;27977.713;  -11.511;38920.020
658.863;28780.168;  -10.261;40202.898
659.441;31942.807;   -7.531;39677.938
660.018;31686.113;   -9.501;40413.355
660.596;30363.582;  -13.301;39931.414
661.173;32247.615;  -11.211;39604.531
661.750;32797.109;   -9.951;39700.070
662.328;32178.418;   -9.390;39292.809
662.905;31016.088;  -11.330;38235.648
663.482;26065.152;   -9.050;36212.305
664.060;24236.656;   -8.240;35944.945
664.637;27312.695;  -10.050;35170.785
665.214;28890.016;  -11.760;34197.523
665.791;30060.285;  -10.530;34549.520
666.368;28992.693;   -9.690;35118.578
666.945;29989.426;   -9.320;36019.418
667.522;31381.027;  -11.860;36048.438
668.099;31257.604;  -10.770;36243.914
668.676;30148.359;   -6.260;35958.875
669.253;28793.721;   -7.000;37384.730
669.830;29276.477;  -10.190;36779.629
670.407;29150.494;   -9.550;35231.289
670.984;29485.354;   -9.260;35544.270
671.560;29957.988;   -9.280;35466.867
672.137;28691.533;  -11.810;34280.863
672.714;29545.518;  -11.490;34632.863
673.290;30519.297;   -7.740;35135.422
673.867;30764.283;  -10.660;36114.480
674.443;30233.754;  -12.230;36152.859
675.020;28320.275;  -10.450;35327.238
675.596;29637.189;   -9.260;35795.176
676.173;30288.426;  -10.780;35430.355
676.749;30001.990;  -13.690;33549.516
677.326;29972.398;  -11.980;32210.012
677.902;30023.494;   -8.630;32068.871
678.478;29202.066;  -10.730;32583.891
679.054;28569.910;  -10.520;32088.928
679.631;28811.174;  -11.920;30978.848
680.207;30108.586;   -7.490;33160.887
680.783;31665.121;   -9.860;35570.363
681.359;30911.711;  -13.380;36125.184
681.935;30661.615;  -12.480;35240.922
682.511;30099.395;   -7.900;34429.961
683.087;30356.523;   -7.710;34463.680
683.663;29965.656;  -11.480;34648.898
684.239;28332.119;  -14.090;34546.457
684.815;27747.463;   -7.560;35586.375
685.390;28073.725;   -9.910;35821.895
685.966;28535.537;  -11.159;35085.871
686.542;31225.799;  -11.169;34198.230
687.118;33166.949;   -5.959;32847.707
687.693;33082.555;  -10.329;32794.027
688.269;32808.824;  -12.059;33072.367
688.844;31060.291;  -10.909;33141.664
689.420;29086.773;   -8.019;33965.742
689.995;27078.607;   -8.399;34655.523
690.571;25763.160;  -10.949;33576.742
691.146;26008.564;   -9.619;32657.219
691.722;25637.322;   -8.999;32526.979
692.297;25992.807;  -11.589;33014.617
692.872;27746.402;  -11.739;34012.254
693.448;27136.262;  -11.059;34237.434
694.023;26180.848;  -10.139;34142.672
694.598;28328.281;   -9.029;34132.031
695.173;28797.336;  -13.319;34205.250
695.748;27947.533;  -10.169;32882.488
696.323;27634.389;   -8.339;32864.906
696.898;27882.912;   -8.169;33170.004
697.473;27881.902;  -12.309;32432.984
698.048;27127.652;  -10.989;31649.303
698.623;27147.078;   -9.329;30778.141
699.198;29041.672;   -9.849;31140.119
699.773;29998.393;  -12.329;31764.299
700.348;28567.014;  -10.389;31780.816
700.922;28331.098;   -9.269;32046.375
701.497;28869.865;   -9.329;32603.574
702.072;28885.299;  -10.789;34799.871
702.646;27880.547;  -10.839;35793.172
703.221;26427.369;   -9.099;35201.590
703.795;28340.648;  -10.939;34764.527
704.370;28499.104;  -12.859;34307.367
704.944;28686.512;  -11.559;33509.887
705.519;29493.166;   -7.939;31388.584
706.093;30993.500;  -10.499;31340.104
706.668;31080.168;  -11.289;32630.281
707.242;30027.043;  -11.509;32728.779
707.816;28770.316;   -9.639;32947.238
708.390;27178.594;  -11.429;33277.855
708.965;27936.912;  -11.869;33834.336
709.539;28489.787;  -11.689;33709.273
710.113;28666.436;  -10.478;33044.313
710.687;27680.451;  -10.228;31953.992
711.261;25902.225;  -13.698;30505.949
711.835;25952.148;  -13.378;30262.369
712.409;26791.436;   -9.698;31254.447
712.983;28615.934;  -11.898;32754.986
713.557;29618.063;  -15.138;34018.824
714.131;29297.211;  -14.098;34579.625
714.704;28323.256;   -9.958;33890.262
715.278;26016.701;  -10.028;33531.102
715.852;25201.682;  -11.148;33601.660
716.425;26359.691;   -9.068;33515.117
716.999;27305.410;  -10.038;33185.555
717.573;28224.859;   -9.798;33905.996
718.146;29209.123;  -12.378;35199.293
718.720;28914.848;  -11.918;35060.551
719.293;28495.023;   -8.088;34973.230
719.867;31409.238;  -10.888;36394.449
720.440;30901.441;  -11.938;36663.008
721.013;28938.041;  -12.818;35102.426
721.587;27635.590;  -10.298;33985.266
722.160;26782.574;  -10.048;33524.965
722.733;25934.615;  -12.108;32987.043
723.306;26385.672;  -10.818;33066.301
723.880;28338.377;   -8.908;33399.500
724.453;29717.932;   -9.878;33468.297
725.026;28714.383;  -11.188;33816.637
725.599;26543.779;  -11.678;32797.996
726.172;27315.865;   -9.618;33187.434
726.745;28563.244;   -8.258;35136.613
727.318;29979.998;  -12.978;35751.730
727.891;30149.193;  -12.148;35890.430
728.463;29471.371;   -8.968;34822.090
729.036;28286.990;  -10.188;32895.086
729.609;28739.689;  -11.788;31823.225
730.182;25836.430;  -11.788;31445.283
730.754;23414.939;  -10.268;32373.223
731.327;23712.004;   -9.998;33676.820
731.900;24375.400;  -12.228;33417.000
732.472;25620.172;  -13.848;31978.498
733.045;27063.053;   -8.698;30368.777
733.617;27021.779;  -10.607;30574.215
734.190;26856.564;  -11.507;31280.975
734.762;24033.938;  -13.647;31674.412
735.334;22396.924;   -9.767;31247.291
735.907;23077.152;   -9.897;29876.211
736.479;23135.613;  -11.637;29808.488
737.051;22641.262;   -9.567;30233.547
737.623;23252.160;   -8.187;31469.086
738.195;24153.973;  -11.187;31784.225
738.768;26632.988;  -12.337;32120.523
739.340;26690.631;  -12.227;32094.342
739.912;25283.941;  -11.057;31312.680
740.484;23984.771;  -10.207;31946.238
741.056;22864.160;  -10.047;32984.059
741.628;24381.721;  -13.627;33897.715
742.199;26663.098;   -7.177;33213.016
742.771;25286.578;  -10.797;31369.113
743.343;23124.594;  -11.997;31865.473
743.915;22222.387;  -12.867;32388.631
744.487;22298.096;   -7.617;31079.568
745.058;22201.367;   -9.557;30570.107
745.630;22720.488;   -9.877;29970.127
746.201;23571.188;  -14.177;29186.766
746.773;23898.627;   -9.237;28805.723
747.344;23810.838;   -9.847;29591.223
747.916;22415.127;  -11.657;31412.201
748.487;22740.467;  -10.587;32194.898
749.059;24057.551;   -8.707;32533.719
749.630;24970.598;  -10.537;32158.518
750.201;24298.201;  -11.687;30855.395
750.773;22461.289;  -11.647;28622.555
751.344;22243.855;   -7.147;28405.732
751.915;23148.947;   -9.757;28461.551
752.486;22745.938;  -12.427;27842.850
753.057;20688.383;  -12.227;27845.008
753.628;19657.168;  -10.417;27728.107
754.199;20743.145;  -11.767;27381.086
754.770;21754.605;  -11.187;25882.203
755.341;21913.137;  -10.507;25886.184
755.912;21777.443;   -9.387;26050.861
756.483;21133.736;  -10.647;26798.779
757.054;19240.803;  -11.837;27048.238
757.625;17875.412;  -12.716;26294.838
758.195;17923.020;   -9.666;26142.076
758.766;17796.494;   -8.656;26392.234
759.337;18456.693;  -12.856;26334.594
759.907;20112.336;  -13.366;27579.652
760.478;20898.051;   -8.576;28352.770
761.048;20053.945;  -10.526;27325.088
761.619;19127.955;  -11.116;26460.428
762.189;19415.955;  -12.136;26029.826
762.760;20762.498;   -9.456;26430.145
763.330;21735.398;   -7.136;26670.902
763.900;21070.256;  -11.786;26603.021
764.471;18409.859;  -11.546;25542.740
765.041;16959.203;   -8.096;24358.459
765.611;16913.383;   -8.876;23991.297
766.181;17394.578;  -12.196;24470.236
766.751;18537.285;  -11.636;24845.975
767.321;18187.908;  -10.156;24533.633
767.891;16013.567;  -11.766;24916.492
768.461;15536.737;  -14.936;24776.771
769.031;16187.010;  -12.356;24757.988
769.601;17688.844;   -7.526;24181.088
770.171;17534.348;  -10.766;23670.387
770.741;16869.145;  -13.176;22960.045
771.311;17219.049;  -10.616;22917.523
771.880;17597.859;   -9.576;23562.941
772.450;17400.131;  -10.336;24216.500
773.020;17546.029;  -13.516;24140.398
773.589;16907.486;  -13.466;24414.857
774.159;16315.556;   -8.686;23858.717
774.729;15869.679;   -9.476;22942.135
775.298;15303.819;  -13.666;22324.033
775.867;14831.067;  -11.716;21140.313
776.437;14905.922;   -9.906;20838.092
777.006;14659.985;  -12.166;20599.510
777.576;14455.036;  -12.356;20508.809
778.145;14606.012;  -11.646;20732.947
778.714;14563.231;   -8.226;21062.465
779.283;13912.109;   -9.556;20949.664
779.853;13450.657;  -14.116;20508.623
780.422;13861.057;  -11.506;20649.082
780.991;13498.849;   -9.556;21527.520
781.560;12320.752;   -9.095;22632.658
782.129;12078.595;  -12.135;23048.277
782.698;12049.964;  -10.865;23438.555
783.267;11634.188;   -9.335;23267.734
783.836;11641.513;  -11.045;22415.133
784.404;12675.738;  -13.865;20443.152
784.973;13243.670;  -13.095;19699.150
785.542;13328.352;  -11.575;19763.828
786.111;13245.827;   -9.705;20341.408
786.679;12611.602;  -12.105;20207.967
787.248;12298.558;  -12.455;19516.465
787.817;12133.900;  -11.535;18900.363
788.385;11728.496;   -9.765;17879.121
788.954;11149.217;  -14.005;17658.301
789.522;10583.100;  -11.955;17788.879
790.090;11047.453;  -10.135;18118.277
790.659;11525.175;  -10.975;18338.736
791.227;11057.313;  -13.375;18508.615
791.795;11463.200;  -12.375;17898.254
792.364;11709.880;  -10.725;17295.133
792.932;11931.137;   -9.715;16822.051
793.500;12235.536;  -12.675;17040.148
794.068;12618.001;  -13.495;17179.787
794.636;12735.947;  -10.885;16664.246
795.204;12204.104;  -11.045;16524.545
795.772;12264.648;  -13.175;17274.564
796.340;11756.459;  -12.445;17891.002
796.908;11535.224;   -9.735;17648.561
797.476;11391.637;   -9.815;17064.080
798.044;10960.561;  -13.985;16672.777
798.612;10233.738;  -13.115;17023.996
799.180; 9815.313;  -10.185;16561.615
799.747; 9646.223;   -9.055;15962.773
800.315; 9394.343;  -12.385;15296.992
800.883; 9097.467;  -15.035;14801.771
801.450; 9159.755;  -10.365;14534.430
802.018; 9249.114;   -9.855;14173.248
802.585; 9317.262;  -11.905;14029.547
803.153; 9381.141;  -11.585;13836.846
803.720; 9209.523;   -9.095;13567.324
804.287; 8699.156;   -9.135;13360.622
804.855; 8268.472;  -11.604;13681.981
805.422; 8173.222;  -11.794;13536.560
805.989; 8197.456;  -10.734;13355.958
806.556; 8467.685;  -10.444;13747.896
807.124; 8785.347;  -12.764;13987.376
807.691; 8737.235;  -12.964;14038.674
808.258; 8491.036;  -11.134;14120.152
808.825; 8039.390;   -9.854;13860.111
809.392; 8088.567;  -10.504;13268.790
809.959; 7683.544;  -13.054;12680.389
810.526; 7291.657;   -8.294;12427.308
811.093; 7328.330;   -8.394;12030.105
811.659; 7847.289;  -12.304;11653.664
812.226; 8289.955;  -13.944;11637.183
812.793; 7949.752;  -10.484;11611.521
813.360; 7301.218;  -10.144;11885.181
813.926; 7037.990;  -11.684;12770.539
814.493; 6888.666;  -13.644;12677.638
815.060; 6556.938;   -9.724;11974.336
815.626; 6577.586;   -9.854;11594.715
816.193; 6955.281;  -13.254;11579.474
816.759; 6974.453;  -13.204;11666.972
817.325; 7040.306;   -9.434;11325.530
817.892; 7411.271;  -10.134;11105.369
818.458; 7821.584;  -13.474;10843.928
819.024; 7385.019;  -11.854;10714.406
819.591; 7048.558;  -10.244;10469.165
820.157; 6889.003;  -10.704;10235.523
820.723; 6458.116;  -12.324;10847.563
821.289; 6176.233;   -9.444;11040.980
821.855; 6030.495;   -8.374;10357.100
822.421; 5840.908;  -10.234; 9978.918
822.987; 5715.060;  -13.294; 9754.177
823.553; 5406.442;  -10.884;10065.755
824.119; 5289.154;   -8.884;10036.294
824.685; 5430.177;   -6.784;10029.192
825.251; 5558.694;  -12.004;10199.230
825.816; 5536.204;  -11.474; 9820.189
826.382; 5307.753;   -9.174; 9297.248
826.948; 5528.939;   -9.214; 9381.347
827.513; 5882.044;  -10.774; 9450.726
828.079; 5676.505;  -11.924; 9472.444
828.645; 5133.887;  -10.543; 9292.643
829.210; 5060.558;  -10.533; 9065.341
829.776; 5035.206;  -10.753; 9132.620
830.341; 4901.264;  -10.173; 9092.878
830.906; 5072.250;  -10.743; 9078.557
831.472; 5379.587;  -11.113; 8534.535
832.037; 5098.243;  -10.603; 8677.874
832.602; 4561.091;  -13.323; 8628.692
833.167; 4326.516;  -10.823; 8879.031
833.733; 4266.755;  -10.113; 9189.790
834.298; 4364.391;  -13.583; 9052.608
834.863; 4421.788;  -12.703; 8895.087
835.428; 4404.865;  -10.523; 8824.266
835.993; 4296.417;   -6.963; 8845.385
836.558; 4179.139;  -10.763; 8888.563
837.123; 4310.979;   -9.903; 8966.582
837.688; 4567.833;   -9.913; 8617.860
838.253; 4776.277;  -10.283; 8590.699
838.817; 4950.316;  -12.963; 8443.797
839.382; 4872.434;  -14.243; 8799.356
839.947; 4559.720;  -10.733; 8810.595
840.511; 4233.775;   -9.383; 8796.394
841.076; 3864.900;  -12.563; 8347.231
841.641; 3954.900;  -12.953; 8224.330
842.205; 4056.167;   -7.043; 8223.349
842.770; 4137.565;   -8.163; 8622.107
843.334; 4330.376;  -12.503; 8410.386
843.898; 4328.225;  -11.693; 8337.465
844.463; 4343.030;  -10.203; 8506.283
845.027; 4116.443;   -9.533; 8280.962
845.591; 3936.532;  -13.443; 8231.141
846.156; 3900.746;  -13.143; 7969.179
846.720; 3785.337;   -9.433; 7768.278
847.284; 3646.690;  -11.033; 7630.957
847.848; 3501.957;  -10.403; 7472.395
848.412; 3391.356;  -11.553; 7437.394
848.976; 3420.323;   -8.393; 7674.592
849.540; 3366.177;   -8.713; 7836.011
850.104; 3469.499;  -12.463; 7913.669
850.668; 3811.265;  -12.973; 7694.508
851.232; 3928.302;  -10.793; 7756.887
851.796; 3785.166;  -10.662; 7926.545
852.359; 3478.457;  -13.082; 7827.844
852.923; 3322.320;  -12.192; 7641.163
853.487; 3172.858;  -11.912; 7342.501
854.050; 3130.493;  -10.892; 7042.820
854.614; 3249.579;  -13.992; 7151.338
855.177; 3348.937;  -11.732; 7105.077
855.741; 3390.175;   -8.962; 6989.675
856.304; 3314.020;   -9.442; 6596.634
856.868; 3283.255;  -14.192; 6356.272
857.431; 3407.352;  -12.702; 6468.571
857.995; 3557.118;   -9.942; 6373.210
858.558; 3574.714;   -9.112; 6324.448
859.121; 3298.347;  -12.932; 6408.327
859.684; 3143.354;  -13.442; 6347.886
860.247; 3225.066;  -10.632; 6321.264
860.810; 3216.095;  -11.272; 6301.903
861.374; 2961.098;   -9.832; 6607.881
861.937; 2715.627;  -11.762; 6408.200
862.500; 2726.008;   -9.722; 6572.639
863.062; 2900.228;  -10.512; 6387.297
863.625; 3041.171;  -11.232; 6190.836
864.188; 3202.916;  -14.112; 5807.254
864.751; 3287.644;  -11.302; 5682.413
865.314; 3185.527;  -10.112; 5547.492
865.876; 2979.718;  -12.182; 5500.150
866.439; 2971.155;  -10.722; 5415.909
867.002; 2918.973;   -9.252; 5501.567
867.564; 2704.487;   -9.572; 5413.946
868.127; 2469.101;  -13.142; 5160.325
868.689; 2345.360;  -12.902; 5133.183
869.252; 2225.087;   -9.732; 5252.382
869.814; 2119.757;   -9.432; 5297.141
870.377; 2144.553;  -11.552; 5390.919
870.939; 2233.591;   -9.052; 5599.898
871.501; 2300.288;  -10.982; 5248.336
872.063; 2295.520;  -12.292; 4854.235
872.626; 2243.925;  -14.912; 4817.074
873.188; 2259.996;  -13.112; 4987.732
873.750; 2236.963;  -13.442; 4868.651
874.312; 2157.879;   -9.402; 4779.330
874.874; 2070.255;  -11.062; 4866.348
875.436; 1983.982;  -13.931; 4718.887
875.998; 1972.767;   -9.561; 4660.005
876.560; 1985.929;  -11.321; 4462.964
877.122; 1923.974;  -12.221; 4145.042
877.683; 1833.841;  -12.191; 4056.481
878.245; 1765.034;  -12.101; 3950.740
878.807; 1806.412;   -8.971; 4058.958
879.369; 1830.678;  -12.071; 3954.677
879.930; 1741.338;  -14.621; 3941.495
880.492; 1680.422;  -10.311; 4067.014
881.053; 1632.339;  -10.901; 3859.633
881.615; 1513.802;  -14.411; 3776.071
882.176; 1418.249;  -13.761; 3734.750
882.738; 1376.478;   -9.181; 3678.489
883.299; 1356.246;  -11.791; 3405.407
883.860; 1355.732;  -13.121; 3351.106
884.422; 1344.723;  -11.211; 3394.044
884.983; 1290.995;  -10.091; 3166.443
885.544; 1208.604;   -8.461; 3189.802
886.105; 1128.122;  -12.361; 3160.360
886.666; 1068.552;  -14.141; 3093.059
887.227; 1011.924;  -11.361; 2941.957
887.788;  947.463;  -11.401; 2974.836
888.349;  882.439;  -13.791; 2721.214
888.910;  880.242;  -13.191; 2696.493
889.471;  885.064;   -9.881; 2560.172
890.032;  861.559;   -9.881; 2558.190
890.593;  835.601;  -10.371; 2567.669
891.153;  811.719;  -13.301; 2460.307
891.714;  762.305;  -11.431; 2372.046
892.275;  721.417;  -11.291; 2309.505
892.835;  679.254;  -11.471; 2382.543
893.396;  621.122;  -11.541; 2295.502
893.956;  561.889;  -11.181; 2162.420
894.517;  525.818;  -11.741; 2125.439
895.077;  522.631;  -11.671; 2086.978
895.638;  525.448;  -11.311; 2126.316
896.198;  496.620;   -9.831; 1838.275
896.758;  453.439;   -8.421; 1892.813
897.319;  422.882;  -12.351; 1792.232
897.879;  406.988;  -13.511; 1762.751
898.439;  379.764;  -12.001; 1661.149
898.999;  354.445;  -10.180; 1781.468
899.559;  343.995;  -12.030; 1703.347
900.119;  338.742;  -15.710; 1537.525
900.679;  332.808;   -8.900; 1638.384
901.239;  319.246;   -8.340; 1527.902
901.799;  310.423;  -13.910; 1456.441
902.359;  305.101;  -13.460; 1357.140
902.919;  297.697;  -11.490; 1331.118
903.479;  283.886;  -12.110; 1317.257
904.038;  263.824;  -11.720; 1262.595
904.598;  250.151;  -13.610; 1152.034
905.158;  245.883;  -11.040; 1240.893
905.717;  238.450;  -10.900; 1233.691
906.277;  226.872;  -15.080; 1217.330
906.836;  216.212;  -13.380; 1222.408
907.396;  208.019;  -10.780; 1193.047
907.955;  200.638;   -8.500; 1182.526
908.515;  194.747;  -12.760; 1099.364
909.074;  189.734;  -11.900; 1092.863
909.633;  183.783;   -8.950; 1069.121
910.192;  178.642;   -8.770; 1196.460
910.752;  172.841;  -12.390; 1029.960
911.311;  168.813;  -13.680; 1009.780
911.870;  165.855;  -12.370;  971.460
912.429;  168.212;  -10.900; 1094.080
912.988;  167.368;  -11.690; 1081.060
913.547;  162.170;  -13.240;  940.380
914.106;  156.712;  -11.990;  999.420
914.665;  153.755;   -9.990;  984.020
915.224;  153.947;  -12.880; 1035.760
915.782;  154.069;  -12.350;  922.560
916.341;  152.317;   -9.110; 1049.840
916.900;  149.172;   -9.270;  925.260
917.458;  146.119;  -13.240;  884.220
918.017;  147.550;  -13.550;  942.600
918.576;  146.373;  -12.320;  904.440
919.134;  143.591;  -11.490;  837.980
919.693;  142.814;  -13.670;  893.060
920.251;  141.079;  -15.470;  876.500
920.809;  139.596;  -11.290;  839.580
921.368;  138.613;  -10.210;  885.360
921.926;  138.683;  -12.140;  842.940
922.484;  137.627;  -13.080;  903.360
923.042;  136.246;  -11.720;  880.340
923.601;  139.624;   -7.480;  998.680
924.159;  137.378;  -11.570;  935.560
924.717;  134.462;  -13.840;  841.080
925.275;  134.912;  -10.640;  903.240
925.833;  133.962;  -11.540;  779.320
926.391;  134.441;  -12.960;  938.380
926.949;  133.810;  -14.130;  857.680
927.506;  133.498;  -11.750;  903.500
928.064;  134.562;  -10.250;  877.580
928.622;  133.261;  -13.030;  880.100
929.180;  133.152;  -13.400;  814.180
929.737;  133.351;  -10.700;  808.540
930.295;  138.126;  -10.070;  928.480
930.853;  139.138;  -11.960;  849.100
931.410;  140.893;  -13.120;  821.120
931.968;  139.427;  -10.770;  940.660
932.525;  138.909;  -10.680;  909.380
933.082;  140.214;  -13.130;  811.440
933.640;  140.860;  -13.210;  925.900
934.197;  138.557;  -11.060;  886.360
934.754;  140.714;   -9.580;  897.780
935.312;  143.722;  -14.000;  863.340
935.869;  147.848;  -10.710; 1012.980
936.426;  147.776;   -9.860;  872.800
936.983;  148.815;   -9.710;  889.020
937.540;  149.185;  -13.990;  838.280
938.097;  147.417;  -14.040;  940.120
938.654;  146.542;  -10.310;  898.860
939.211;  150.059;  -10.560;  952.480
939.768;  154.085;  -13.900;  915.420
940.324;  158.172;  -14.760;  904.200
940.881;  159.032;  -10.370;  878.500
941.438;  159.319;   -8.260; 1021.200
941.995;  155.076;  -12.540;  992.560
942.551;  152.876;  -14.670;  875.620
943.108;  152.577;  -10.450;  937.920
943.664;  154.753;  -10.750;  869.340
944.221;  159.298;  -11.550; 1088.140
944.777;  157.100;  -14.770;  869.680
945.334;  156.350;  -12.820;  884.840
945.890;  158.286;  -10.130;  946.480
946.446;  159.005;  -13.470;  947.020
947.003;  161.285;  -12.120;  964.940
947.559;  164.299;   -9.980; 1063.040
948.115;  163.192;   -9.080; 1026.540
948.671;  161.771;  -10.830;  967.300
949.227;  160.388;  -12.440;  859.560
949.783;  157.242;  -12.910;  858.900
950.339;  158.566;  -10.270;  991.000
950.895;  158.884;  -13.630; 1023.840
951.451;  159.205;  -15.100;  925.280
952.007;  157.931;  -11.330;  998.540
952.563;  158.031;  -10.580;  937.780
953.118;  156.656;  -13.440;  904.940
953.674;  156.555;  -12.710;  935.780
954.230;  155.453;  -10.350;  949.640
954.785;  153.549;   -9.190;  936.640
955.341;  152.037;  -11.200;  998.160
955.897;  150.726;  -16.560;  834.660
956.452;  152.325;  -12.570;  953.840
957.008;  152.016;   -7.970; 1083.640
957.563;  149.846;  -11.940; 1009.540
958.118;  145.363;  -13.450;  877.700
958.674;  146.004;  -12.030;  946.780
959.229;  147.468;   -9.410; 1013.980
959.784;  145.996;  -12.000;  832.400
960.339;  145.190;  -14.780; 1001.280
960.894;  139.969;   -9.860;  963.760
961.449;  135.392;   -9.970;  859.960
962.004;  136.341;  -10.900; 1212.840
962.559;  130.992;  -13.150;  860.140
963.114;  127.899;  -13.740;  742.480
963.669;  127.358;   -9.820;  915.500
964.224;  126.114;  -13.890;  874.340
964.779;  125.652;  -12.600;  828.420
965.334;  126.176;  -10.950; 1017.860
965.888;  125.221;  -11.170;  875.360
966.443;  128.907;  -12.540;  972.380
966.998;  128.148;  -15.780;  819.460
967.552;  127.205;   -9.760;  908.380
968.107;  123.136;   -9.060;  868.300
968.661;  125.157;  -11.950;  922.440
969.216;  126.828;  -12.800;  856.280
969.770;  126.657;  -11.210;  917.200
970.324;  125.263;  -11.610;  923.140
970.879;  121.957;  -11.370;  947.180
971.433;  119.039;  -12.540;  952.720
971.987;  112.616;  -11.320;  895.340
972.541;  109.217;  -10.720;  917.100
973.095;  109.396;   -9.680; 1009.460
973.649;  107.369;  -11.440;  809.480
974.203;  105.790;  -11.210;  829.040
974.757;  106.204;  -10.240;  855.220
975.311;  107.352;  -13.720;  872.600
975.865;  106.588;  -13.770;  881.820
976.419;  103.391;  -11.690;  857.400
976.973;   96.820;   -9.510;  849.620
977.526;   91.501;  -12.620;  949.920
978.080;   82.944;  -12.010;  796.780
978.634;   78.564;  -10.170;  921.320
979.187;   76.637;   -9.020;  905.400
979.741;   78.345;   -9.820; 1018.380
980.294;   76.718;  -14.870;  789.160
980.848;   76.434;  -12.380;  717.220
981.401;   79.118;  -10.350;  816.540
981.955;   82.002;  -13.720;  844.300
982.508;   82.483;  -11.490;  746.340
983.061;   83.118;  -10.000;  915.260
983.615;   80.757;  -11.480;  798.800
984.168;   79.208;  -13.220;  770.080
984.721;   79.491;  -13.960;  880.760
985.274;   78.450;  -10.870;  867.500
985.827;   78.420;   -9.790;  834.220
986.380;   76.786;  -13.120;  721.340
986.933;   76.593;  -12.450;  864.800
987.486;   75.074;  -10.210;  861.920
988.039;   74.131;   -8.430;  863.100
988.591;   72.310;  -10.520;  893.260
989.144;   70.653;  -14.860;  737.260
989.697;   69.320;  -13.080;  758.740
990.250;   71.238;  -10.150;  858.100
990.802;   69.543;  -13.430;  755.860
991.355;   72.021;  -12.750;  974.880
991.907;   68.960;  -12.040;  864.320
992.460;   65.899;  -11.330;  753.760
993.012;   66.414;  -13.610;  749.540
993.565;   65.404;  -13.460;  711.360
994.117;   66.917;   -9.360;  950.780
994.669;   61.926;  -11.300;  701.320
995.221;   59.917;  -13.540;  791.920
995.774;   58.780;  -13.430;  787.580
996.326;   56.388;  -12.520;  740.220
996.878;   56.488;  -10.950;  838.420
997.430;   55.870;  -14.300;  699.860
997.982;   55.057;  -13.760;  750.140
998.534;   54.140;  -11.530;  739.060
999.086;   53.314;  -10.310;  738.220
999.638;   52.071;  -12.530;  661.380
1000.190;   51.604;  -11.840;  699.320
1000.741;   51.192;  -10.260;  742.700
1001.293;   50.280;   -8.860;  686.020
1001.845;   49.572;  -13.700;  676.640
1002.396;   50.013;  -12.100;  743.400
1002.948;   48.877;  -12.760;  737.400
1003.500;   47.286;  -10.380;  723.780
1004.051;   48.529;  -11.900;  907.580
1004.603;   47.195;  -12.250;  791.820
1005.154;   42.854;  -13.210;  608.980
1005.705;   42.449;  -10.950;  723.960
1006.257;   41.991;  -13.880;  707.220
1006.808;   40.951;  -12.840;  685.460
1007.359;   40.780;  -10.570;  763.240
1007.910;   39.470;   -9.620;  646.640
1008.461;   39.775;  -13.630;  732.940
1009.013;   38.576;  -17.200;  588.340
1009.564;   39.457;  -10.200;  793.520
1010.115;   37.864;  -12.570;  597.040
1010.665;   37.503;  -15.150;  602.160
1011.216;   37.871;  -14.480;  667.920
1011.767;   36.415;  -11.340;  697.920
1012.318;   36.863;   -9.780;  736.980
1012.869;   35.917;  -12.380;  679.000
1013.419;   35.614;  -15.560;  603.120
1013.970;   35.737;  -11.010;  666.640
1014.521;   34.368;  -11.610;  620.620
1015.071;   34.818;  -13.450;  670.380
1015.622;   34.857;  -13.870;  635.460
1016.172;   33.811;  -11.610;  596.820
1016.723;   33.833;  -12.120;  614.380
1017.273;   33.769;  -13.620;  604.160
1017.823;   34.665;  -14.140;  650.340
1018.374;   32.367;  -12.800;  611.760
1018.924;   32.952;  -12.340;  716.880
1019.474;   33.882;  -11.410;  718.880
1020.024;   32.328;  -14.770;  657.580
1020.574;   32.681;   -9.780;  726.160
1021.124;   32.285;   -8.560;  673.580
1021.674;   30.640;  -15.190;  559.120
1022.224;   32.984;  -13.530;  708.940
1022.774;   32.186;  -13.280;  668.820
1023.324;   31.671;  -10.690;  753.520
1023.874;   33.196;  -10.240;  875.760
1024.423;   30.607;  -12.540;  613.700
1024.973;   30.081;  -10.010;  610.760
1025.523;   29.418;  -10.550;  620.960
1026.072;   29.753;  -13.560;  606.420
1026.622;   29.842;  -15.120;  675.740
1027.172;   30.495;  -11.260;  715.660
1027.721;   29.469;  -11.410;  601.220
1028.270;   29.696;  -13.530;  663.400
1028.820;   30.346;  -13.680;  638.080
1029.369;   29.337;  -13.520;  612.700
1029.918;   28.773;  -10.980;  649.840
1030.468;   28.525;  -13.530;  564.780
1031.017;   29.594;  -13.170;  634.800
1031.566;   27.648;  -12.200;  608.900
1032.115;   27.926;   -9.960;  694.500
1032.664;   27.318;  -13.210;  596.480
1033.213;   28.560;  -12.500;  735.420
1033.762;   27.989;  -11.910;  635.620
1034.311;   27.504;   -9.640;  677.220
1034.860;   27.672;  -13.310;  691.000
1035.408;   27.630;  -11.830;  722.720
1035.957;   27.695;  -12.000;  719.540
1036.506;   24.952;  -11.690;  530.800
1037.055;   28.367;  -10.990;  844.320
1037.603;   26.953;  -15.120;  664.000
1038.152;   24.167;  -12.450;  534.760
1038.700;   24.848;  -10.560;  585.740
1039.249;   25.246;  -11.080;  681.220
1039.797;   25.511;  -12.540;  633.360
1040.345;   25.537;  -11.920;  705.420
1040.894;   24.572;  -11.410;  625.300
1041.442;   24.575;  -14.320;  632.200
1041.990;   24.128;  -16.240;  559.160
1042.538;   23.754;  -11.680;  536.180
1043.087;   22.846;  -10.760;  570.860
1043.635;   24.544;  -11.850;  670.500
1044.183;   23.562;  -15.480;  586.400
1044.731;   23.163;  -11.770;  576.000
1045.279;   22.433;  -13.090;  674.920
1045.827;   24.986;  -12.440;  892.400
1046.374;   22.929;  -13.840;  515.420
1046.922;   21.547;  -13.220;  590.580
1047.470;   23.652;  -10.230;  691.300
1048.018;   23.492;  -14.590;  647.960
1048.565;   24.223;  -12.050;  708.600
1049.113;   21.642;  -11.650;  557.000
1049.660;   22.579;  -10.510;  629.660
1050.208;   22.576;  -13.310;  675.640
1050.755;   21.296;  -15.900;  606.580
1051.303;   21.744;  -11.430;  686.820
1051.850;   21.137;   -8.480;  635.120
1052.397;   20.688;  -15.010;  473.960
1052.945;   20.725;  -13.960;  617.760
1053.492;   22.469;  -13.150;  741.840
1054.039;   21.808;   -9.630;  720.180
1054.586;   20.407;  -13.680;  557.240
1055.133;   21.372;  -14.570;  693.140
1055.680;   21.199;  -13.820;  646.620
1056.227;   19.791;  -11.730;  542.780
1056.774;   21.228;  -12.480;  794.980
1057.321;   20.102;  -13.930;  523.260
1057.868;   19.399;  -11.690;  651.320
1058.415;   20.195;   -9.520;  651.980
1058.961;   19.955;  -13.160;  678.940
1059.508;   20.287;  -12.920;  643.820
1060.055;   19.686;  -11.920;  581.780
1060.601;   19.853;  -11.500;  624.300
1061.148;   19.079;  -14.330;  616.820
1061.694;   18.696;  -16.870;  592.580
1062.241;   19.310;  -10.330;  596.320
1062.787;   19.069;  -10.620;  663.140
1063.334;   20.816;  -10.110;  808.560
1063.880;   19.252;  -13.400;  668.360
1064.426;   18.739;  -10.680;  706.820
1064.972;   17.726;   -9.920;  601.340
1065.518;   16.833;  -10.980;  566.640
1066.065;   18.617;  -14.890;  624.460
1066.611;   17.199;  -12.870;  598.800
1067.157;   18.330;  -12.950;  641.860
1067.703;   18.074;  -13.540;  668.480
1068.249;   17.717;  -13.540;  605.220
1068.794;   17.657;  -12.600;  626.880
1069.340;   16.806;  -10.620;  578.960
1069.886;   16.771;  -12.830;  590.700
1070.432;   16.860;  -14.870;  541.720
1070.977;   16.394;  -11.980;  601.080
1071.523;   15.993;   -8.200;  573.060
1072.068;   16.462;  -12.330;  582.000
1072.614;   16.275;  -16.370;  527.760
1073.160;   17.613;  -11.100;  687.040
1073.705;   15.575;  -10.480;  572.520
1074.250;   15.528;  -14.520;  559.900
1074.796;   17.299;  -11.460;  655.160
1075.341;   16.439;  -11.950;  664.100
1075.886;   15.927;  -11.460;  594.240
1076.431;   15.293;  -13.770;  649.880
1076.976;   15.661;  -12.680;  639.220
1077.521;   14.362;  -13.170;  583.080
1078.067;   13.999;  -10.860;  579.400
1078.612;   15.686;  -13.920;  661.620
1079.156;   15.430;  -13.880;  601.540
1079.701;   15.532;  -13.120;  693.260
1080.246;   15.299;   -9.940;  696.300
1080.791;   14.882;  -14.740;  625.020
1081.336;   15.055;  -13.750;  659.320
1081.880;   14.443;  -13.400;  649.680
1082.425;   13.038;  -12.220;  573.480
1082.970;   15.305;  -11.610;  717.040
1083.514;   13.943;  -13.580;  597.000
1084.059;   12.591;  -12.810;  586.720
1084.603;   13.218;  -12.320;  565.840
1085.147;   13.559;  -13.190;  645.220
1085.692;   14.678;  -12.480;  716.800
1086.236;   12.744;  -13.020;  503.140
1086.780;   14.393;   -9.190;  751.440
1087.325;   13.605;  -12.480;  654.620
1087.869;   14.028;  -12.450;  610.700
1088.413;   14.265;  -12.240;  705.040
1088.957;   11.675;   -9.020;  543.400
1089.501;   13.916;  -10.320;  766.640
1090.045;   13.923;  -12.720;  726.480
1090.589;   11.060;  -13.690;  569.920
1091.133;   12.057;  -10.020;  673.340
1091.676;   12.198;  -12.330;  591.940
1092.220;   12.396;  -14.970;  600.920
1092.764;   13.803;  -12.430;  706.960
1093.307;   11.782;   -9.800;  673.780
1093.851;   10.725;  -14.970;  556.540
1094.395;   12.353;  -15.310;  683.140
1094.938;   11.263;  -10.370;  632.520
1095.482;   10.961;  -11.050;  559.800
1096.025;   12.030;  -11.840;  710.880
1096.568;   12.974;  -12.840;  779.280
1097.112;   10.157;  -14.700;  508.180
1097.655;   11.412;   -8.720;  603.000
1098.198;   10.355;  -13.610;  600.180
1098.741;   10.745;  -13.350;  612.860
1099.285;   11.394;  -11.230;  657.300
1099.828;    8.887;  -11.840;  439.400
1100.371;   10.305;  -10.840;  608.160
1100.914;   11.209;  -14.190;  682.660
1101.457;   10.395;  -11.240;  679.900
1101.999;    9.099;  -11.270;  584.680
1102.542;   10.116;  -11.480;  641.440
1103.085;   10.092;  -11.750;  658.500
1103.628;   10.454;  -11.400;  762.060
1104.170;    9.179;  -10.490;  588.280
1104.713;    9.889;  -10.600;  646.700
1105.256;    9.515;  -14.360;  557.440
1105.798;    8.578;  -13.210;  499.980
1106.341;   10.421;  -10.270;  728.900
1106.883;    8.780;  -12.200;  521.340
1107.425;    9.557;  -13.110;  668.180
1107.968;    8.632;  -12.840;  612.380
1108.510;    9.310;   -6.480;  684.960
1109.052;    7.891;  -13.940;  612.620
1109.594;    8.189;  -13.690;  554.440
1110.136;    9.470;  -11.880;  643.220
1110.679;    7.639;   -9.500;  633.080
1111.221;    8.751;  -14.160;  604.460
1111.763;    8.227;  -13.980;  559.220
1112.304;    7.533;  -13.880;  547.140
1112.846;    7.888;  -12.210;  666.240
1113.388;   10.829;  -11.390;  942.180
1113.930;    8.611;  -14.540;  694.200
1114.472;    6.966;  -12.640;  606.540
1115.013;    5.302;  -11.620;  551.280
1115.555;    6.140;  -13.640;  587.100
1116.097;    6.978;  -15.380;  579.480
1116.638;    7.460;  -12.640;  684.600
1117.180;    7.302;   -9.850;  667.740
1117.721;    6.750;  -13.690;  568.580
1118.262;    8.327;  -12.680;  677.960
1118.804;    7.686;  -12.530;  637.340
1119.345;    5.618;  -11.690;  578.400
1119.886;    7.228;  -13.380;  704.040
1120.427;    6.695;  -14.070;  589.020
1120.969;    6.219;  -13.500;  597.920
1121.510;    5.232;  -11.480;  563.060
1122.051;    5.969;  -12.830;  723.580
1122.592;    5.993;  -14.290;  655.420
1123.133;    5.173;  -12.400;  547.940
1123.673;    6.422;  -10.130;  706.480
1124.214;    5.859;  -12.930;  612.460
1124.755;    6.656;  -14.380;  639.460
1125.296;    5.709;  -14.000;  627.320
1125.836;    6.329;  -10.070;  691.500
1126.377;    4.765;  -12.640;  599.660
1126.918;    6.352;  -12.960;  614.980
1127.458;    4.734;  -13.350;  622.220
1127.999;    5.361;  -10.750;  656.980
1128.539;    5.973;  -12.350;  694.240
1129.079;    5.271;  -14.860;  632.720
1129.620;    4.885;  -13.840;  558.100
1130.160;    3.894;  -12.330;  539.480
1130.700;    4.707;  -14.530;  640.840
1131.240;    6.091;  -12.530;  643.700
1131.781;    4.656;  -14.450;  619.680
1132.321;    4.408;   -9.790;  599.120
1132.861;    3.312;  -14.860;  564.200
1133.401;    3.661;  -14.290;  593.940
1133.941;    4.585;  -11.750;  626.280
1134.481;    2.999;   -9.920;  597.580
1135.020;    3.906;  -12.290;  609.160
1135.560;    4.810;  -11.650;  674.940
1136.100;    3.749;  -16.270;  501.160
1136.640;    2.032;  -10.890;  510.480
1137.179;    2.810;  -14.180;  537.960
1137.719;    4.285;  -16.250;  605.400
1138.258;    3.856;  -14.230;  587.360
1138.798;    3.668;   -9.090;  663.780
1139.337;    2.100;  -15.130;  482.840
1139.877;    3.673;  -13.680;  642.360
1140.416;    5.550;  -11.320;  878.060
1140.955;    2.090;  -10.860;  535.380
1141.494;    3.175;  -12.920;  669.280
1142.034;    2.228;  -13.930;  583.520
1142.573;    4.071;  -11.440;  646.280
1143.112;    2.203;  -12.000;  553.480
1143.651;    1.939;  -13.670;  536.480
1144.190;    3.804;  -12.730;  691.640
1144.729;    2.666;  -14.560;  607.420
1145.267;    2.498;  -11.830;  584.900
1145.806;    3.150;  -12.230;  637.040
1146.345;    2.168;  -14.130;  635.020
1146.884;    2.254;  -11.590;  622.500
1147.422;    1.920;  -12.550;  533.060
1147.961;    3.609;  -11.180;  708.460
1148.500;    2.603;  -11.510;  669.720
1149.038;    3.323;  -11.640;  632.500
1149.577;    2.635;  -10.130;  698.640
1150.115;   -0.441;  -13.970;  452.280
1150.653;    2.617;  -14.520;  607.340
1151.192;    1.584;  -12.810;  552.920
1151.730;    1.364;   -9.100;  652.560
1152.268;    1.321;  -12.220;  589.520
1152.806;    1.465;  -14.140;  571.180
1153.344;    0.389;  -12.350;  577.640
1153.882;    1.377;   -8.980;  600.060
1154.421;   -0.748;  -15.190;  470.620
1154.958;    0.911;  -15.210;  595.240
1155.496;    1.946;  -12.850;  645.280
1156.034;    1.020;   -9.940;  721.880
1156.572;    2.342;  -13.570;  667.060
1157.110;    0.624;  -14.590;  473.940
1157.647;    1.523;  -13.030;  676.960
1158.185;   -0.267;  -12.140;  564.320
1158.723;   -0.687;  -14.390;  509.200
1159.260;    1.081;  -14.090;  701.700
1159.798;    1.342;  -11.920;  658.160
1160.335;    0.078;  -11.110;  631.820

