
Integration time [ms]:   3.276
Averaging Nr. [scans]: 1000
Smoothing Nr. [pixels]: 0
Data measured with spectrometer [name]: 7414430SP
Wave   ;Sample   ;Dark     ;Reference
[nm]   ;[counts] ;[counts] ;[counts] 

288.544;  152.421;    7.793;  793.890
289.143;  156.088;    7.462;  681.602
289.742;  155.741;    8.602;  828.814
290.341;  140.889;    1.321;  789.841
290.940;  130.299;   -0.709;  730.702
291.538;  131.413;    0.881;  881.108
292.137;  131.547;    0.122;  792.581
292.736;  136.951;   -1.929;  975.101
293.335;  133.447;   -8.229;  735.086
293.934;  132.680;   -5.279;  781.677
294.532;  130.476;   -1.369; 1031.958
295.131;  116.538;   -7.641;  834.394
295.730;  118.367;   -8.420;  809.588
296.328;  116.061;   -5.611;  783.442
296.927;  116.794;   -5.781;  779.652
297.525;  117.401;   -6.361;  781.236
298.124;  108.723;  -11.382;  654.009
298.722;  112.071;   -7.641;  761.933
299.321;  109.937;   -6.811;  708.597
299.919;  107.705;   -6.991;  751.918
300.518;  104.594;  -10.362;  689.338
301.116;  107.567;   -9.581;  691.381
301.715;  105.918;   -4.891;  730.222
302.313;  104.700;   -8.801;  704.943
302.911;  100.844;   -8.522;  733.830
303.509;  106.100;   -6.171;  925.627
304.108;  103.143;   -7.311;  760.383
304.706;  103.150;   -8.321;  801.664
305.304;   97.688;  -10.222;  796.707
305.902;  102.741;   -6.021;  784.484
306.500;   97.793;   -4.971;  728.200
307.098;   96.319;   -7.061;  746.560
307.696;   95.303;   -8.801;  780.432
308.294;   96.396;   -6.411;  731.359
308.892;   96.994;   -2.901;  759.769
309.490;   93.931;   -5.041;  712.161
310.088;   92.219;   -5.002;  788.444
310.686;   96.275;   -2.041;  821.749
311.284;   91.364;   -2.351;  766.040
311.882;   89.361;   -4.422;  731.225
312.480;   86.775;   -4.192;  697.167
313.078;   87.387;   -1.172;  808.331
313.675;   88.514;   -2.601;  691.600
314.273;   83.620;   -1.312;  797.837
314.871;   83.923;   -3.942;  589.829
315.468;   80.645;   -2.802;  652.090
316.066;   84.115;   -0.701;  694.427
316.664;   76.536;   -4.362;  656.351
317.261;   81.231;   -2.872;  910.128
317.859;   76.780;   -2.022;  768.735
318.456;   76.614;   -0.531;  830.096
319.054;   72.291;   -3.912;  787.828
319.651;   72.349;   -4.752;  759.928
320.249;   70.512;   -2.602;  810.188
320.846;   67.995;   -0.821;  714.286
321.443;   65.255;   -4.642;  832.135
322.041;   63.159;   -5.002;  812.315
322.638;   60.923;   -3.982;  701.456
323.235;   61.179;   -3.411;  665.683
323.833;   58.462;   -7.361;  740.354
324.430;   54.791;   -8.611;  615.900
325.027;   55.280;   -4.061;  876.855
325.624;   53.777;   -4.031;  644.532
326.221;   51.655;   -7.481;  689.717
326.818;   51.031;   -5.281;  818.332
327.415;   54.824;   -7.460;  748.828
328.012;   54.312;   -5.510;  690.585
328.609;   52.849;   -7.880;  731.389
329.206;   51.155;   -8.331;  778.621
329.803;   51.562;   -5.121;  737.841
330.400;   53.298;   -4.510;  704.260
330.997;   54.703;   -6.441;  817.147
331.594;   53.953;   -8.831;  788.185
332.191;   59.112;   -7.621;  728.722
332.787;   61.416;   -4.591;  844.463
333.384;   59.990;   -7.412;  763.093
333.981;   59.268;   -8.293;  815.687
334.578;   62.033;   -7.052;  708.378
335.174;   64.600;   -3.102;  731.469
335.771;   64.179;   -5.943;  836.456
336.367;   61.222;   -7.393;  710.631
336.964;   65.052;   -4.063;  793.266
337.561;   62.042;   -3.813;  731.112
338.157;   58.317;   -4.654;  911.916
338.754;   56.016;   -7.934;  796.589
339.350;   54.534;   -4.414;  722.493
339.946;   55.993;   -4.664;  773.135
340.543;   47.535;   -6.375;  846.136
341.139;   42.949;   -9.815;  720.836
341.735;   41.537;   -4.526;  772.593
342.332;   39.025;   -4.895;  691.472
342.928;   38.869;   -4.295;  795.394
343.524;   34.381;   -5.476;  761.684
344.120;   30.326;   -5.856;  738.562
344.716;   33.361;   -2.155;  723.717
345.313;   30.600;   -6.275;  795.342
345.909;   25.424;   -8.815;  627.336
346.505;   27.604;   -5.305;  740.247
347.101;   27.458;   -2.674;  827.864
347.697;   27.762;   -4.344;  785.398
348.293;   22.868;   -9.975;  627.244
348.889;   23.089;   -5.774;  745.914
349.485;   22.151;   -5.004;  688.205
350.081;   23.162;   -4.704;  772.592
350.676;   18.987;   -6.635;  691.606
351.272;   23.261;   -4.504;  809.530
351.868;   22.314;   -3.914;  780.497
352.464;   19.832;   -9.044;  723.932
353.059;   16.496;   -8.314;  646.017
353.655;   19.463;   -7.024;  777.063
354.251;   20.209;   -5.343;  759.845
354.846;   14.662;   -8.604;  740.646
355.442;   12.545;   -6.945;  753.071
356.038;   15.923;   -7.564;  751.708
356.633;   14.333;   -5.814;  728.594
357.229;   12.123;   -7.364;  724.757
357.824;   11.831;   -8.024;  703.600
358.420;   10.658;   -9.384;  679.726
359.015;   10.878;   -5.104;  695.357
359.610;   10.548;   -6.854;  763.920
360.206;    6.147;  -10.185;  603.240
360.801;    8.410;   -7.054;  646.503
361.396;   10.183;   -5.034;  725.975
361.992;    6.392;   -8.284;  668.220
362.587;    3.888;   -8.625;  670.160
363.182;    6.047;   -7.674;  689.631
363.777;    5.924;   -5.164;  738.242
364.372;    5.804;   -8.604;  737.314
364.967;    2.314;   -9.055;  680.744
365.563;    6.639;   -6.114;  815.567
366.158;    3.313;   -5.814;  685.161
366.753;    3.299;   -7.854;  649.263
367.348;    2.904;   -7.804;  746.056
367.942;    2.264;   -7.954;  697.298
368.537;    1.162;   -4.984;  754.245
369.132;    0.987;   -8.564;  703.428
369.727;   -1.835;   -8.855;  638.079
370.322;   -1.708;   -6.245;  580.186
370.917;   -1.866;   -6.425;  710.646
371.511;    1.413;   -6.294;  861.834
372.106;   -2.030;   -7.685;  776.964
372.701;   -5.028;   -7.335;  585.988
373.296;   -0.463;   -4.564;  863.135
373.890;   -5.229;  -10.235;  647.840
374.485;   -6.139;   -7.885;  691.199
375.079;   -2.353;   -7.324;  738.685
375.674;   -1.485;   -3.494;  812.970
376.268;   -6.179;   -8.525;  691.759
376.863;  -11.010;  -10.086;  580.327
377.457;   -5.043;   -7.025;  662.490
378.052;   -7.766;   -3.585;  764.884
378.646;   -7.900;   -7.595;  741.167
379.240;   -7.960;   -8.335;  721.176
379.835;   -7.234;   -5.785;  636.978
380.429;   -9.679;   -4.335;  562.557
381.023;   -9.197;   -6.805;  779.205
381.617;  -12.091;   -9.195;  680.106
382.212;   -8.212;   -6.905;  685.303
382.806;   -8.166;   -3.745;  760.690
383.400;  -12.087;   -7.745;  672.281
383.994;  -12.567;   -9.765;  664.870
384.588;   -8.925;   -6.564;  697.701
385.182;   -7.923;   -5.344;  726.624
385.776;   -9.694;   -8.514;  706.875
386.370;  -12.330;   -9.555;  681.968
386.964;  -10.281;   -8.715;  684.155
387.558;   -9.530;   -6.174;  598.360
388.152;  -13.110;   -8.725;  681.959
388.745;  -11.103;   -7.965;  814.707
389.339;   -8.675;   -5.924;  747.642
389.933;   -8.542;   -5.524;  695.370
390.527;  -10.466;   -7.114;  859.029
391.120;  -15.530;  -10.725;  595.318
391.714;  -12.526;   -8.035;  711.633
392.308;  -10.064;   -3.574;  780.253
392.901;  -13.094;   -7.245;  642.460
393.495;  -14.948;   -9.285;  595.414
394.089;  -12.786;   -5.895;  760.452
394.682;  -13.895;   -4.295;  697.188
395.275;  -14.422;   -9.875;  719.927
395.869;  -15.432;   -8.485;  667.314
396.462;  -13.177;   -7.455;  616.609
397.056;  -10.613;   -5.424;  776.621
397.649;  -15.067;   -6.605;  731.575
398.242;  -11.657;   -8.224;  712.645
398.836;  -11.825;   -7.474;  766.408
399.429;  -12.693;   -7.094;  631.041
400.022;  -16.795;   -9.475;  665.902
400.615;  -12.913;   -7.145;  805.609
401.208;  -11.255;   -7.174;  691.451
401.802;  -14.348;   -5.515;  699.329
402.395;  -15.704;   -9.875;  683.502
402.988;  -15.932;   -8.845;  696.627
403.581;  -12.569;   -8.874;  646.878
404.174;  -10.168;   -5.324;  686.568
404.767;  -13.539;   -9.575;  638.583
405.360;  -15.763;  -10.965;  621.445
405.953;   -8.883;   -8.764;  759.034
406.545;  -10.714;   -7.514;  725.342
407.138;  -14.587;  -10.025;  618.350
407.731;  -12.332;  -10.034;  613.303
408.324;   -9.127;   -9.374;  660.554
408.917;  -10.084;   -6.534;  681.864
409.509;  -11.987;   -8.004;  740.396
410.102;  -13.580;   -9.875;  643.948
410.695;   -6.924;   -8.604;  665.758
411.287;   -8.844;   -6.794;  599.821
411.880;  -10.558;   -9.334;  585.421
412.472;  -12.350;  -10.254;  613.092
413.065;   -9.737;   -6.714;  629.408
413.657;   -8.749;   -7.234;  576.678
414.250;   -8.096;  -10.544;  646.681
414.842;   -9.219;   -9.744;  676.353
415.434;   -7.082;   -6.994;  570.463
416.027;   -3.659;   -5.893;  652.196
416.619;   -4.897;   -7.264;  713.400
417.211;   -5.595;  -10.374;  599.352
417.804;   -2.303;   -7.993;  628.499
418.396;   -6.289;   -7.234;  607.643
418.988;   -4.297;   -9.443;  659.238
419.580;   -7.644;  -10.724;  568.276
420.172;   -5.421;  -10.323;  536.196
420.764;   -0.910;   -8.793;  672.482
421.356;   -3.033;  -11.143;  636.898
421.948;   -2.077;   -8.293;  677.661
422.540;    1.977;   -7.893;  680.027
423.132;    0.603;   -7.082;  600.641
423.724;   -2.186;   -8.653;  561.267
424.316;    0.177;  -10.213;  621.345
424.908;    3.757;   -9.762;  591.517
425.500;    4.001;   -5.572;  647.978
426.092;    4.500;   -8.422;  648.268
426.683;    3.099;   -9.283;  684.836
427.275;    6.879;   -7.852;  641.471
427.867;    7.695;   -5.272;  668.948
428.458;    7.894;   -7.682;  732.344
429.050;    7.575;  -10.612;  680.749
429.642;    8.824;   -9.882;  743.124
430.233;    9.487;   -6.962;  569.356
430.825;   10.600;   -6.842;  724.809
431.416;    8.922;   -9.672;  698.241
432.008;   11.623;   -6.552;  651.723
432.599;   12.475;   -6.891;  656.073
433.190;    9.478;  -10.912;  637.670
433.782;    8.849;  -11.172;  590.395
434.373;   16.524;   -6.061;  884.765
434.964;   14.609;   -8.251;  602.920
435.556;   12.327;   -9.722;  634.537
436.147;   15.652;   -9.082;  758.490
436.738;   15.616;   -8.041;  701.099
437.329;   20.852;   -7.341;  721.723
437.920;   12.658;   -8.162;  666.688
438.511;   13.172;  -11.802;  564.526
439.103;   20.195;  -10.191;  623.998
439.694;   21.766;   -7.601;  681.583
440.285;   22.463;   -8.541;  764.432
440.876;   21.258;   -9.751;  845.738
441.466;   20.657;   -9.401;  575.162
442.057;   26.239;   -7.760;  665.814
442.648;   24.316;   -9.971;  746.255
443.239;   23.408;  -11.001;  620.477
443.830;   27.902;   -7.990;  704.958
444.421;   29.197;   -7.910;  655.474
445.011;   25.648;   -8.131;  693.619
445.602;   26.057;   -7.111;  743.126
446.193;   27.431;  -10.920;  488.117
446.783;   32.040;   -6.500;  640.397
447.374;   27.030;   -8.671;  692.759
447.964;   28.229;  -10.781;  713.770
448.555;   36.909;   -9.650;  822.742
449.145;   32.753;   -8.660;  662.853
449.736;   33.717;   -8.990;  803.179
450.326;   34.075;   -9.500;  713.626
450.917;   38.955;   -8.680;  675.324
451.507;   38.004;   -7.520;  600.661
452.097;   38.891;   -8.590;  746.267
452.688;   38.776;  -11.340;  742.160
453.278;   38.978;  -10.100;  566.840
453.868;   43.283;   -6.019;  793.550
454.458;   41.400;   -9.440;  651.141
455.048;   42.531;  -10.560;  711.783
455.639;   44.509;  -11.799;  567.096
456.229;   47.397;   -6.899;  710.694
456.819;   49.190;   -7.389;  751.158
457.409;   50.550;  -11.119;  773.993
457.999;   52.737;   -9.289;  737.505
458.589;   51.723;   -6.139;  686.606
459.179;   51.921;   -8.729;  717.658
459.769;   49.895;   -9.789;  627.099
460.358;   54.814;  -10.259;  797.262
460.948;   55.057;   -7.299;  689.503
461.538;   55.895;  -10.289;  660.677
462.128;   54.194;  -11.269;  664.934
462.717;   61.324;   -9.368;  710.326
463.307;   63.674;   -7.908;  705.846
463.897;   59.697;   -9.599;  656.942
464.486;   58.768;   -9.769;  837.128
465.076;   64.529;   -8.048;  733.776
465.666;   67.991;   -9.358;  652.900
466.255;   63.928;   -7.919;  785.651
466.845;   63.738;  -11.689;  666.749
467.434;   67.878;   -7.818;  725.873
468.023;   68.191;   -7.678;  658.357
468.613;   65.868;  -10.939;  713.946
469.202;   70.064;  -10.118;  646.507
469.791;   73.865;   -9.108;  737.811
470.381;   75.899;   -6.058;  742.813
470.970;   74.450;  -10.428;  711.099
471.559;   75.781;  -10.268;  733.291
472.148;   78.691;   -8.448;  675.737
472.738;   81.117;   -6.917;  765.466
473.327;   79.618;  -11.978;  637.529
473.916;   80.538;  -11.888;  737.446
474.505;   85.470;   -9.437;  751.703
475.094;   87.891;   -6.747;  806.570
475.683;   87.194;   -9.367;  797.699
476.272;   87.806;  -12.637;  730.632
476.861;   91.127;  -10.027;  706.754
477.449;   97.456;   -8.716;  728.487
478.038;   91.752;   -9.577;  692.513
478.627;   93.320;   -9.718;  714.852
479.216;   99.885;   -8.947;  769.441
479.805;  102.697;   -6.256;  783.375
480.393;  102.419;   -7.937; 1008.945
480.982;  101.082;   -7.717;  874.501
481.571;  108.056;   -9.266;  858.333
482.159;  108.646;   -7.636;  705.386
482.748;  107.823;   -9.667;  821.385
483.336;  112.886;  -10.376;  858.209
483.925;  114.417;   -7.147;  774.373
484.513;  120.858;   -7.996;  758.962
485.102;  116.433;  -10.027;  810.965
485.690;  125.879;  -10.446; 1011.050
486.278;  127.399;   -8.446;  979.329
486.867;  127.649;   -6.356;  809.662
487.455;  129.347;   -9.136;  898.229
488.043;  131.635;  -10.646;  748.361
488.631;  139.567;   -7.456; 1005.079
489.220;  143.915;   -6.636;  908.626
489.808;  143.635;  -11.036;  741.415
490.396;  152.079;  -10.246;  914.645
490.984;  158.051;   -8.556;  830.161
491.572;  167.851;   -5.886;  940.315
492.160;  173.392;   -9.486;  919.081
492.748;  185.342;  -10.976;  884.341
493.336;  207.887;   -8.776; 1019.693
493.924;  234.725;   -5.465;  958.077
494.512;  261.957;   -9.986; 1066.638
495.100;  298.593;  -10.636; 1103.280
495.687;  354.743;  -10.885; 1206.373
496.275;  418.973;   -8.126; 1150.796
496.863;  487.325;  -10.586; 1281.171
497.451;  586.584;  -11.926; 1386.805
498.038;  718.652;  -10.885; 1556.729
498.626;  826.563;   -6.315; 1741.407
499.214;  981.662;   -7.326; 2016.609
499.801; 1174.431;  -11.906; 2220.633
500.389; 1414.197;  -10.466; 2312.494
500.976; 1717.535;   -5.236; 2744.849
501.564; 2157.458;   -8.936; 3148.565
502.151; 2523.289;  -13.176; 3515.999
502.738; 2941.026;  -10.646; 3971.274
503.326; 3334.492;   -9.525; 4403.796
503.913; 3750.308;  -10.856; 5161.749
504.500; 4126.386;  -11.586; 5986.420
505.088; 4525.717;  -10.336; 6381.201
505.675; 5069.469;   -6.355; 6925.547
506.262; 5779.258;   -9.046; 7619.060
506.849; 6516.184;  -10.416; 8733.969
507.436; 7029.989;  -10.305; 9790.121
508.023; 7604.104;   -5.496; 9985.472
508.610; 7868.571;   -7.856;10434.618
509.197; 8535.222;  -10.097;11198.435
509.784; 9831.906;  -10.886;12391.194
510.371;10983.196;   -9.315;13603.713
510.958;11780.020;   -9.936;14426.586
511.545;12482.090;   -9.326;15243.775
512.132;13273.423;  -10.075;15945.876
512.719;13792.277;   -7.796;16340.369
513.305;14957.374;  -10.606;18011.766
513.892;15652.619;  -11.486;19754.971
514.479;16851.619;   -9.126;20967.805
515.066;18320.033;   -6.026;22299.793
515.652;19744.852;   -8.466;22908.660
516.239;21021.125;  -10.886;23798.875
516.825;22019.641;  -11.496;25567.275
517.412;23069.457;   -5.796;28154.959
517.998;23706.154;  -10.506;28344.111
518.585;23719.889;  -10.076;27134.219
519.171;24415.400;   -8.315;27268.576
519.758;26126.689;   -8.596;28964.129
520.344;28167.920;   -8.466;30664.494
520.930;27968.379;  -11.006;32550.605
521.516;28861.838;  -10.495;35422.895
522.103;30853.482;   -5.526;38280.004
522.689;31498.652;   -8.746;37835.117
523.275;31067.281;  -11.376;37288.613
523.861;32570.813;  -11.156;37281.395
524.447;34137.883;   -8.135;37846.949
525.033;33815.801;   -7.896;38321.949
525.619;33917.473;  -12.476;38579.285
526.205;35248.609;   -9.516;40622.875
526.791;37817.633;   -6.926;42258.836
527.377;37698.289;   -8.346;42966.902
527.963;38767.121;   -8.717;42018.949
528.549;37695.957;  -11.016;42476.828
529.135;36136.719;   -8.536;41854.852
529.721;34517.863;   -9.666;41237.711
530.306;32563.744;  -10.066;41259.445
530.892;30628.906;  -11.356;41506.047
531.478;31309.338;   -6.596;43559.613
532.063;35879.508;   -8.836;47695.563
532.649;38916.672;  -10.047;50808.324
533.235;40016.012;   -9.746;51787.500
533.820;39681.645;   -6.566;52145.035
534.406;39717.762;  -10.817;51133.488
534.991;37618.297;   -9.416;49996.805
535.576;33484.859;   -9.036;48882.852
536.162;32121.547;   -6.156;46942.285
536.747;34587.715;  -11.607;45711.746
537.333;41785.566;  -11.787;48510.180
537.918;49040.043;  -12.437;50439.891
538.503;50629.820;   -7.196;50863.711
539.088;47807.020;  -10.556;50906.922
539.673;47457.906;   -8.767;52621.965
540.259;47556.695;  -10.026;52368.094
540.844;44877.996;   -7.416;50879.109
541.429;46484.660;   -9.467;52077.777
542.014;48821.289;   -9.527;52716.695
542.599;47985.832;   -9.946;52363.281
543.184;45158.379;   -7.927;53187.137
543.769;46222.613;   -9.297;54697.605
544.354;46102.406;  -10.127;53913.914
544.938;44706.332;   -9.267;49680.164
545.523;46621.402;   -6.506;47386.277
546.108;49778.004;   -9.787;49151.949
546.693;51905.625;  -11.587;51384.637
547.278;51796.668;  -10.986;51853.254
547.862;48714.762;   -8.206;51173.750
548.447;44033.840;  -10.067;51691.395
549.031;42882.891;   -9.637;52456.703
549.616;47689.328;   -9.926;52714.516
550.201;47623.785;   -6.347;52414.598
550.785;48920.227;   -7.917;52355.059
551.370;48077.930;  -10.867;54589.453
551.954;47187.289;   -9.047;58267.348
552.538;48067.375;   -7.827;59062.176
553.123;46440.801;  -10.287;58115.285
553.707;44066.313;  -12.178;56556.285
554.291;45355.152;   -8.717;56201.668
554.876;48324.113;   -7.457;55335.762
555.460;48322.777;  -10.387;54155.703
556.044;48829.156;   -9.618;53721.484
556.628;47059.344;  -11.567;53731.016
557.212;46121.629;   -8.097;54312.531
557.796;44890.859;  -11.077;53797.773
558.380;44914.695;  -11.108;56145.984
558.964;45130.680;   -9.057;57277.930
559.548;46357.961;   -6.977;56459.641
560.132;44441.898;  -11.457;54434.543
560.716;42698.324;  -11.378;54800.617
561.300;43809.766;   -9.577;57606.945
561.884;45146.867;   -7.127;58972.445
562.467;43364.410;   -7.118;57327.570
563.051;42574.293;  -13.358;54962.434
563.635;44104.316;  -10.178;52594.473
564.219;44538.730;   -7.837;50610.410
564.802;45059.793;  -11.398;49551.180
565.386;44735.168;  -12.788;48370.953
565.969;44248.633;   -9.077;48178.871
566.553;42996.320;   -6.207;49957.305
567.136;43753.047;   -8.568;50369.594
567.720;40515.223;  -11.868;49492.004
568.303;38288.285;   -8.268;50616.352
568.887;38045.695;   -8.698;50727.148
569.470;38596.016;   -6.808;51698.379
570.053;37763.516;  -13.188;52122.078
570.637;35596.266;  -12.037;52536.438
571.220;35375.105;   -8.577;51186.098
571.803;36395.852;   -8.498;51032.762
572.386;38706.621;  -10.498;49609.887
572.969;41214.395;   -9.388;48285.926
573.552;39580.234;   -8.338;47624.285
574.135;37900.645;   -8.518;45498.641
574.718;35298.711;  -13.628;41970.434
575.301;34612.172;  -10.893;41447.137
575.884;33925.633;   -8.158;40923.836
576.467;34964.805;  -10.328;45267.723
577.050;36031.145;  -13.058;48175.543
577.633;37341.063;   -9.458;47729.328
578.216;36712.738;   -8.928;47579.793
578.799;35840.215;   -9.358;47820.996
579.381;35054.813;  -11.388;48115.551
579.964;32912.680;  -11.718;47333.766
580.547;34713.359;   -8.588;46668.969
581.129;35602.434;   -8.859;44466.141
581.712;36369.988;  -10.729;44164.922
582.294;36763.816;  -11.118;46477.855
582.877;36844.992;   -5.218;48244.254
583.459;35086.406;   -8.679;47437.895
584.042;33075.688;  -10.709;46943.219
584.624;32940.246;  -11.669;46792.227
585.206;32631.762;   -8.218;46557.250
585.789;32939.922;  -10.569;45793.773
586.371;35497.992;  -11.859;43836.391
586.953;36446.305;  -10.719;42972.492
587.536;37306.938;   -7.198;42487.211
588.118;37739.199;   -8.720;42086.414
588.700;34001.855;  -10.439;43389.930
589.282;32966.711;   -9.198;43646.039
589.864;33790.398;   -9.199;43438.109
590.446;34895.215;  -11.319;43151.926
591.028;34841.539;  -11.159;42781.867
591.610;33672.953;  -11.779;42839.098
592.192;30992.186;   -7.668;42820.402
592.774;29619.004;  -11.949;40724.277
593.356;28599.645;  -12.129;39874.789
593.937;27637.912;  -10.669;39980.648
594.519;29785.750;   -6.509;42069.633
595.101;31807.922;  -10.849;42976.031
595.683;31926.510;  -11.679;44084.441
596.264;32982.527;   -9.049;43478.797
596.846;32766.266;   -8.849;43803.672
597.427;32351.939;   -9.570;42986.934
598.009;33483.141;  -12.620;42832.219
598.591;34068.348;  -10.039;42580.086
599.172;33706.195;  -10.369;43061.805
599.753;33966.789;   -9.140;41691.469
600.335;35233.625;  -11.430;40692.520
600.916;33214.219;   -9.939;39982.422
601.498;30909.770;   -8.479;40318.617
602.079;29468.941;  -10.920;40670.609
602.660;29161.053;  -11.480;41450.898
603.241;30912.215;  -11.699;41137.738
603.823;29757.879;   -9.579;38868.797
604.404;28903.064;  -10.620;38182.785
604.985;30695.141;  -10.450;38078.047
605.566;30775.256;   -9.129;38056.633
606.147;30846.219;   -7.510;37020.418
606.728;32546.355;  -10.660;37883.359
607.309;31250.533;  -11.740;38748.273
607.890;30873.445;   -9.759;38850.230
608.471;30384.395;   -8.250;37457.918
609.051;29692.951;   -9.240;36066.457
609.632;28455.184;  -12.120;35991.074
610.213;28698.240;   -9.110;37402.641
610.794;29678.383;   -8.030;38383.363
611.374;29596.000;   -8.110;40562.387
611.955;30181.164;  -13.560;38533.727
612.536;31615.426;  -11.400;36951.789
613.116;31371.236;   -8.070;37197.891
613.697;31741.650;  -10.830;38411.125
614.277;29864.213;  -11.641;38673.938
614.858;30502.779;  -13.310;37075.863
615.438;29921.348;   -7.460;35092.906
616.019;27571.811;   -7.601;33666.301
616.599;27876.463;  -12.020;34189.023
617.179;29641.160;  -11.780;36952.047
617.760;30657.373;   -8.570;39582.574
618.340;31592.645;  -11.471;38943.977
618.920;32688.672;  -11.170;37594.156
619.500;32546.391;  -11.071;37866.938
620.080;31650.877;   -7.750;37869.043
620.660;32677.031;  -12.711;36868.617
621.241;34359.430;  -10.211;36352.309
621.821;34743.500;  -10.961;35459.520
622.401;33670.371;   -7.720;35207.414
622.980;32822.195;   -8.981;35980.422
623.560;31348.646;   -9.331;37351.328
624.140;29836.832;   -9.850;34388.582
624.720;24923.762;   -7.451;32368.764
625.300;21521.520;   -9.070;32638.629
625.880;24992.057;  -12.601;34599.035
626.459;29135.971;  -11.751;36831.738
627.039;32140.215;   -9.281;38299.098
627.619;32228.361;   -8.801;38289.574
628.198;30691.641;  -12.071;37220.695
628.778;29563.701;   -9.461;37632.563
629.357;30208.475;   -8.491;38003.012
629.937;30300.160;   -9.721;38402.039
630.516;29659.543;   -9.951;37868.801
631.096;29373.320;  -11.731;35760.410
631.675;31555.313;   -8.572;35225.219
632.254;36745.160;  -11.282;35130.289
632.834;36438.281;  -13.322;35794.570
633.413;34753.695;  -10.301;35788.922
633.992;32214.797;   -8.582;34532.863
634.571;32739.760;   -8.352;33590.113
635.151;35541.902;  -11.912;34943.863
635.730;34166.578;  -10.511;35352.523
636.309;30647.098;   -7.731;35366.605
636.888;28095.285;   -9.952;36165.637
637.467;28568.682;  -11.672;37515.902
638.046;30203.760;   -8.901;39288.695
638.625;33167.094;   -7.912;38279.699
639.204;33004.066;  -10.022;37741.598
639.782;31637.002;  -12.252;38364.551
640.361;27837.773;  -10.041;36740.621
640.940;25010.814;  -11.161;34950.082
641.519;25810.178;   -9.701;34137.398
642.097;28788.213;  -11.271;35654.258
642.676;31887.904;   -8.651;35637.957
643.255;33020.988;   -8.711;36567.074
643.833;32117.986;   -9.581;37809.434
644.412;32012.646;  -13.711;37337.293
644.990;31046.818;  -11.811;37018.531
645.569;30872.107;   -9.411;36518.469
646.147;30330.492;  -10.291;36186.430
646.726;30325.305;  -12.401;36267.688
647.304;31401.547;  -10.411;36647.625
647.882;32886.918;   -9.651;39286.742
648.461;34712.055;   -9.631;39157.703
649.039;33169.313;  -11.881;35412.883
649.617;32101.904;   -9.661;34744.918
650.195;31351.406;   -9.301;35403.098
650.773;30045.172;  -10.511;35053.797
651.352;27702.715;  -11.521;33756.816
651.930;25293.373;  -12.211;31868.773
652.508;23743.527;   -9.171;33121.551
653.086;27580.979;   -9.371;33564.793
653.663;30678.518;  -13.161;34054.668
654.241;29423.959;  -13.031;35693.309
654.819;31018.615;   -9.371;36422.906
655.397;30996.129;  -10.511;38213.484
655.975;30415.953;  -10.371;39507.625
656.553;30073.484;  -10.051;39498.223
657.130;28571.875;  -10.061;40395.480
657.708;27731.967;   -9.561;39242.020
658.286;27815.486;  -11.511;38920.020
658.863;29064.338;  -10.261;40202.898
659.441;32452.605;   -7.531;39677.938
660.018;32609.049;   -9.501;40413.355
660.596;31330.830;  -13.301;39931.414
661.173;32993.285;  -11.211;39604.531
661.750;33258.449;   -9.951;39700.070
662.328;31850.793;   -9.390;39292.809
662.905;30850.307;  -11.330;38235.648
663.482;26793.752;   -9.050;36212.305
664.060;24796.324;   -8.240;35944.945
664.637;27771.949;  -10.050;35170.785
665.214;29268.957;  -11.760;34197.523
665.791;30866.707;  -10.530;34549.520
666.368;30186.965;   -9.690;35118.578
666.945;30558.996;   -9.320;36019.418
667.522;32051.969;  -11.860;36048.438
668.099;31786.006;  -10.770;36243.914
668.676;30414.023;   -6.260;35958.875
669.253;29095.578;   -7.000;37384.730
669.830;29537.801;  -10.190;36779.629
670.407;29628.896;   -9.550;35231.289
670.984;29370.391;   -9.260;35544.270
671.560;29993.238;   -9.280;35466.867
672.137;29136.361;  -11.810;34280.863
672.714;29961.859;  -11.490;34632.863
673.290;31277.693;   -7.740;35135.422
673.867;31420.365;  -10.660;36114.480
674.443;31346.826;  -12.230;36152.859
675.020;29294.926;  -10.450;35327.238
675.596;30048.465;   -9.260;35795.176
676.173;30729.783;  -10.780;35430.355
676.749;30422.611;  -13.690;33549.516
677.326;30258.355;  -11.980;32210.012
677.902;30280.373;   -8.630;32068.871
678.478;29592.100;  -10.730;32583.891
679.054;28626.463;  -10.520;32088.928
679.631;28906.154;  -11.920;30978.848
680.207;30318.600;   -7.490;33160.887
680.783;31953.160;   -9.860;35570.363
681.359;31288.557;  -13.380;36125.184
681.935;31017.650;  -12.480;35240.922
682.511;30757.361;   -7.900;34429.961
683.087;30961.639;   -7.710;34463.680
683.663;30239.863;  -11.480;34648.898
684.239;28820.670;  -14.090;34546.457
684.815;28187.641;   -7.560;35586.375
685.390;28178.049;   -9.910;35821.895
685.966;28663.146;  -11.159;35085.871
686.542;31120.033;  -11.169;34198.230
687.118;33387.773;   -5.959;32847.707
687.693;33992.887;  -10.329;32794.027
688.269;33831.656;  -12.059;33072.367
688.844;32171.957;  -10.909;33141.664
689.420;30181.791;   -8.019;33965.742
689.995;28312.342;   -8.399;34655.523
690.571;26820.109;  -10.949;33576.742
691.146;26774.254;   -9.619;32657.219
691.722;26511.021;   -8.999;32526.979
692.297;26222.791;  -11.589;33014.617
692.872;27703.408;  -11.739;34012.254
693.448;27499.359;  -11.059;34237.434
694.023;26530.648;  -10.139;34142.672
694.598;28435.037;   -9.029;34132.031
695.173;29325.938;  -13.319;34205.250
695.748;28388.891;  -10.169;32882.488
696.323;28332.508;   -8.339;32864.906
696.898;28464.447;   -8.169;33170.004
697.473;28501.117;  -12.309;32432.984
698.048;27795.361;  -10.989;31649.303
698.623;27470.838;   -9.329;30778.141
699.198;29008.383;   -9.849;31140.119
699.773;30443.670;  -12.329;31764.299
700.348;29085.088;  -10.389;31780.816
700.922;28914.982;   -9.269;32046.375
701.497;29864.807;   -9.329;32603.574
702.072;30247.781;  -10.789;34799.871
702.646;29028.064;  -10.839;35793.172
703.221;26746.162;   -9.099;35201.590
703.795;28717.008;  -10.939;34764.527
704.370;29354.797;  -12.859;34307.367
704.944;29454.508;  -11.559;33509.887
705.519;30028.176;   -7.939;31388.584
706.093;31303.977;  -10.499;31340.104
706.668;31787.133;  -11.289;32630.281
707.242;30603.955;  -11.509;32728.779
707.816;29216.436;   -9.639;32947.238
708.390;27612.271;  -11.429;33277.855
708.965;28015.303;  -11.869;33834.336
709.539;27826.941;  -11.689;33709.273
710.113;27981.145;  -10.478;33044.313
710.687;27694.707;  -10.228;31953.992
711.261;26235.994;  -13.698;30505.949
711.835;26213.582;  -13.378;30262.369
712.409;26733.779;   -9.698;31254.447
712.983;28712.145;  -11.898;32754.986
713.557;30016.129;  -15.138;34018.824
714.131;29782.854;  -14.098;34579.625
714.704;28747.672;   -9.958;33890.262
715.278;26390.902;  -10.028;33531.102
715.852;25140.631;  -11.148;33601.660
716.425;25968.203;   -9.068;33515.117
716.999;27025.072;  -10.038;33185.555
717.573;27927.098;   -9.798;33905.996
718.146;28921.373;  -12.378;35199.293
718.720;28936.041;  -11.918;35060.551
719.293;28548.836;   -8.088;34973.230
719.867;31544.029;  -10.888;36394.449
720.440;31675.561;  -11.938;36663.008
721.013;29878.498;  -12.818;35102.426
721.587;28093.033;  -10.298;33985.266
722.160;26783.994;  -10.048;33524.965
722.733;25824.525;  -12.108;32987.043
723.306;26191.000;  -10.818;33066.301
723.880;28364.541;   -8.908;33399.500
724.453;30659.994;   -9.878;33468.297
725.026;29982.084;  -11.188;33816.637
725.599;27195.912;  -11.678;32797.996
726.172;27073.045;   -9.618;33187.434
726.745;28060.924;   -8.258;35136.613
727.318;29452.260;  -12.978;35751.730
727.891;30306.729;  -12.148;35890.430
728.463;29858.012;   -8.968;34822.090
729.036;28413.299;  -10.188;32895.086
729.609;28967.918;  -11.788;31823.225
730.182;26234.629;  -11.788;31445.283
730.754;23747.354;  -10.268;32373.223
731.327;23910.895;   -9.998;33676.820
731.900;24143.381;  -12.228;33417.000
732.472;25001.078;  -13.848;31978.498
733.045;26804.100;   -8.698;30368.777
733.617;26932.979;  -10.607;30574.215
734.190;27223.914;  -11.507;31280.975
734.762;24861.752;  -13.647;31674.412
735.334;22805.254;   -9.767;31247.291
735.907;23090.627;   -9.897;29876.211
736.479;23457.633;  -11.637;29808.488
737.051;23201.803;   -9.567;30233.547
737.623;23789.975;   -8.187;31469.086
738.195;24090.969;  -11.187;31784.225
738.768;26103.590;  -12.337;32120.523
739.340;27019.830;  -12.227;32094.342
739.912;26116.658;  -11.057;31312.680
740.484;24712.543;  -10.207;31946.238
741.056;23114.506;  -10.047;32984.059
741.628;24409.174;  -13.627;33897.715
742.199;26663.971;   -7.177;33213.016
742.771;25117.969;  -10.797;31369.113
743.343;22867.691;  -11.997;31865.473
743.915;21973.688;  -12.867;32388.631
744.487;22012.055;   -7.617;31079.568
745.058;22147.705;   -9.557;30570.107
745.630;22642.951;   -9.877;29970.127
746.201;23746.082;  -14.177;29186.766
746.773;24557.563;   -9.237;28805.723
747.344;24480.262;   -9.847;29591.223
747.916;22742.131;  -11.657;31412.201
748.487;22689.346;  -10.587;32194.898
749.059;23988.609;   -8.707;32533.719
749.630;24793.043;  -10.537;32158.518
750.201;23893.777;  -11.687;30855.395
750.773;22038.936;  -11.647;28622.555
751.344;21824.453;   -7.147;28405.732
751.915;22955.348;   -9.757;28461.551
752.486;23258.727;  -12.427;27842.850
753.057;21106.039;  -12.227;27845.008
753.628;19647.988;  -10.417;27728.107
754.199;20537.318;  -11.767;27381.086
754.770;21666.705;  -11.187;25882.203
755.341;21880.059;  -10.507;25886.184
755.912;22084.324;   -9.387;26050.861
756.483;21658.361;  -10.647;26798.779
757.054;19978.816;  -11.837;27048.238
757.625;18532.797;  -12.716;26294.838
758.195;18245.131;   -9.666;26142.076
758.766;17928.928;   -8.656;26392.234
759.337;18534.748;  -12.856;26334.594
759.907;20017.695;  -13.366;27579.652
760.478;20963.186;   -8.576;28352.770
761.048;20527.266;  -10.526;27325.088
761.619;19523.973;  -11.116;26460.428
762.189;19530.992;  -12.136;26029.826
762.760;20479.027;   -9.456;26430.145
763.330;21742.518;   -7.136;26670.902
763.900;21454.016;  -11.786;26603.021
764.471;18934.236;  -11.546;25542.740
765.041;17418.689;   -8.096;24358.459
765.611;17260.377;   -8.876;23991.297
766.181;17614.777;  -12.196;24470.236
766.751;18762.738;  -11.636;24845.975
767.321;18589.104;  -10.156;24533.633
767.891;16605.031;  -11.766;24916.492
768.461;16015.063;  -14.936;24776.771
769.031;16483.152;  -12.356;24757.988
769.601;18162.080;   -7.526;24181.088
770.171;18261.355;  -10.766;23670.387
770.741;17260.734;  -13.176;22960.045
771.311;17246.367;  -10.616;22917.523
771.880;17799.941;   -9.576;23562.941
772.450;17603.641;  -10.336;24216.500
773.020;17533.057;  -13.516;24140.398
773.589;16791.074;  -13.466;24414.857
774.159;16080.075;   -8.686;23858.717
774.729;15616.516;   -9.476;22942.135
775.298;15218.216;  -13.666;22324.033
775.867;14794.837;  -11.716;21140.313
776.437;15021.771;   -9.906;20838.092
777.006;14897.807;  -12.166;20599.510
777.576;14651.236;  -12.356;20508.809
778.145;14612.128;  -11.646;20732.947
778.714;14598.227;   -8.226;21062.465
779.283;14025.251;   -9.556;20949.664
779.853;13452.183;  -14.116;20508.623
780.422;13830.061;  -11.506;20649.082
780.991;13481.903;   -9.556;21527.520
781.560;12212.547;   -9.095;22632.658
782.129;11935.053;  -12.135;23048.277
782.698;11944.591;  -10.865;23438.555
783.267;11565.135;   -9.335;23267.734
783.836;11480.775;  -11.045;22415.133
784.404;12475.456;  -13.865;20443.152
784.973;13186.945;  -13.095;19699.150
785.542;13254.919;  -11.575;19763.828
786.111;13073.056;   -9.705;20341.408
786.679;12575.435;  -12.105;20207.967
787.248;12300.396;  -12.455;19516.465
787.817;12160.160;  -11.535;18900.363
788.385;11792.723;   -9.765;17879.121
788.954;11216.098;  -14.005;17658.301
789.522;10587.770;  -11.955;17788.879
790.090;11009.508;  -10.135;18118.277
790.659;11592.778;  -10.975;18338.736
791.227;11143.627;  -13.375;18508.615
791.795;11479.412;  -12.375;17898.254
792.364;11839.638;  -10.725;17295.133
792.932;12239.438;   -9.715;16822.051
793.500;12560.383;  -12.675;17040.148
794.068;12785.271;  -13.495;17179.787
794.636;12939.127;  -10.885;16664.246
795.204;12215.761;  -11.045;16524.545
795.772;12259.911;  -13.175;17274.564
796.340;11840.252;  -12.445;17891.002
796.908;11570.384;   -9.735;17648.561
797.476;11459.851;   -9.815;17064.080
798.044;11033.691;  -13.985;16672.777
798.612;10287.141;  -13.115;17023.996
799.180; 9840.341;  -10.185;16561.615
799.747; 9649.395;   -9.055;15962.773
800.315; 9369.379;  -12.385;15296.992
800.883; 9156.533;  -15.035;14801.771
801.450; 9319.624;  -10.365;14534.430
802.018; 9442.225;   -9.855;14173.248
802.585; 9487.582;  -11.905;14029.547
803.153; 9462.007;  -11.585;13836.846
803.720; 9246.936;   -9.095;13567.324
804.287; 8769.181;   -9.135;13360.622
804.855; 8310.329;  -11.604;13681.981
805.422; 8169.541;  -11.794;13536.560
805.989; 8243.476;  -10.734;13355.958
806.556; 8429.706;  -10.444;13747.896
807.124; 8680.007;  -12.764;13987.376
807.691; 8639.353;  -12.964;14038.674
808.258; 8446.287;  -11.134;14120.152
808.825; 8080.924;   -9.854;13860.111
809.392; 8180.394;  -10.504;13268.790
809.959; 7729.423;  -13.054;12680.389
810.526; 7225.099;   -8.294;12427.308
811.093; 7178.208;   -8.394;12030.105
811.659; 7782.731;  -12.304;11653.664
812.226; 8374.944;  -13.944;11637.183
812.793; 8156.913;  -10.484;11611.521
813.360; 7521.521;  -10.144;11885.181
813.926; 7179.916;  -11.684;12770.539
814.493; 6971.663;  -13.644;12677.638
815.060; 6578.014;   -9.724;11974.336
815.626; 6524.622;   -9.854;11594.715
816.193; 6921.724;  -13.254;11579.474
816.759; 6953.550;  -13.204;11666.972
817.325; 6921.515;   -9.434;11325.530
817.892; 7218.242;  -10.134;11105.369
818.458; 7643.978;  -13.474;10843.928
819.024; 7297.920;  -11.854;10714.406
819.591; 6994.173;  -10.244;10469.165
820.157; 6831.784;  -10.704;10235.523
820.723; 6346.414;  -12.324;10847.563
821.289; 6036.228;   -9.444;11040.980
821.855; 5984.704;   -8.374;10357.100
822.421; 5963.551;  -10.234; 9978.918
822.987; 5942.652;  -13.294; 9754.177
823.553; 5571.721;  -10.884;10065.755
824.119; 5339.443;   -8.884;10036.294
824.685; 5468.402;   -6.784;10029.192
825.251; 5604.938;  -12.004;10199.230
825.816; 5562.217;  -11.474; 9820.189
826.382; 5289.521;   -9.174; 9297.248
826.948; 5408.521;   -9.214; 9381.347
827.513; 5827.120;  -10.774; 9450.726
828.079; 5722.417;  -11.924; 9472.444
828.645; 5123.448;  -10.543; 9292.643
829.210; 4933.567;  -10.533; 9065.341
829.776; 4916.818;  -10.753; 9132.620
830.341; 4811.239;  -10.173; 9092.878
830.906; 4969.801;  -10.743; 9078.557
831.472; 5325.924;  -11.113; 8534.535
832.037; 5157.528;  -10.603; 8677.874
832.602; 4648.181;  -13.323; 8628.692
833.167; 4370.623;  -10.823; 8879.031
833.733; 4281.720;  -10.113; 9189.790
834.298; 4416.845;  -13.583; 9052.608
834.863; 4555.696;  -12.703; 8895.087
835.428; 4557.069;  -10.523; 8824.266
835.993; 4395.564;   -6.963; 8845.385
836.558; 4202.457;  -10.763; 8888.563
837.123; 4272.771;   -9.903; 8966.582
837.688; 4525.830;   -9.913; 8617.860
838.253; 4795.877;  -10.283; 8590.699
838.817; 4996.854;  -12.963; 8443.797
839.382; 4934.266;  -14.243; 8799.356
839.947; 4619.104;  -10.733; 8810.595
840.511; 4302.681;   -9.383; 8796.394
841.076; 3910.538;  -12.563; 8347.231
841.641; 3939.924;  -12.953; 8224.330
842.205; 4042.152;   -7.043; 8223.349
842.770; 4084.320;   -8.163; 8622.107
843.334; 4238.741;  -12.503; 8410.386
843.898; 4207.033;  -11.693; 8337.465
844.463; 4217.470;  -10.203; 8506.283
845.027; 4015.499;   -9.533; 8280.962
845.591; 3832.028;  -13.443; 8231.141
846.156; 3848.247;  -13.143; 7969.179
846.720; 3764.019;   -9.433; 7768.278
847.284; 3648.368;  -11.033; 7630.957
847.848; 3509.292;  -10.403; 7472.395
848.412; 3415.406;  -11.553; 7437.394
848.976; 3464.008;   -8.393; 7674.592
849.540; 3391.981;   -8.713; 7836.011
850.104; 3445.565;  -12.463; 7913.669
850.668; 3799.733;  -12.973; 7694.508
851.232; 3965.558;  -10.793; 7756.887
851.796; 3838.525;  -10.662; 7926.545
852.359; 3526.238;  -13.082; 7827.844
852.923; 3336.324;  -12.192; 7641.163
853.487; 3170.797;  -11.912; 7342.501
854.050; 3138.669;  -10.892; 7042.820
854.614; 3296.446;  -13.992; 7151.338
855.177; 3429.825;  -11.732; 7105.077
855.741; 3482.170;   -8.962; 6989.675
856.304; 3383.882;   -9.442; 6596.634
856.868; 3341.023;  -14.192; 6356.272
857.431; 3437.283;  -12.702; 6468.571
857.995; 3559.148;   -9.942; 6373.210
858.558; 3580.854;   -9.112; 6324.448
859.121; 3302.051;  -12.932; 6408.327
859.684; 3123.351;  -13.442; 6347.886
860.247; 3228.096;  -10.632; 6321.264
860.810; 3261.098;  -11.272; 6301.903
861.374; 3022.021;   -9.832; 6607.881
861.937; 2754.780;  -11.762; 6408.200
862.500; 2737.990;   -9.722; 6572.639
863.062; 2898.202;  -10.512; 6387.297
863.625; 3045.414;  -11.232; 6190.836
864.188; 3210.175;  -14.112; 5807.254
864.751; 3309.502;  -11.302; 5682.413
865.314; 3235.693;  -10.112; 5547.492
865.876; 3007.281;  -12.182; 5500.150
866.439; 2963.914;  -10.722; 5415.909
867.002; 2924.351;   -9.252; 5501.567
867.564; 2732.485;   -9.572; 5413.946
868.127; 2514.144;  -13.142; 5160.325
868.689; 2392.399;  -12.902; 5133.183
869.252; 2288.961;   -9.732; 5252.382
869.814; 2190.298;   -9.432; 5297.141
870.377; 2197.873;  -11.552; 5390.919
870.939; 2263.052;   -9.052; 5599.898
871.501; 2337.729;  -10.982; 5248.336
872.063; 2348.396;  -12.292; 4854.235
872.626; 2289.153;  -14.912; 4817.074
873.188; 2298.074;  -13.112; 4987.732
873.750; 2280.921;  -13.442; 4868.651
874.312; 2183.037;   -9.402; 4779.330
874.874; 2100.649;  -11.062; 4866.348
875.436; 2019.716;  -13.931; 4718.887
875.998; 2013.973;   -9.561; 4660.005
876.560; 2049.528;  -11.321; 4462.964
877.122; 1992.781;  -12.221; 4145.042
877.683; 1886.610;  -12.191; 4056.481
878.245; 1802.415;  -12.101; 3950.740
878.807; 1836.479;   -8.971; 4058.958
879.369; 1865.163;  -12.071; 3954.677
879.930; 1774.295;  -14.621; 3941.495
880.492; 1710.295;  -10.311; 4067.014
881.053; 1697.697;  -10.901; 3859.633
881.615; 1606.331;  -14.411; 3776.071
882.176; 1503.749;  -13.761; 3734.750
882.738; 1442.683;   -9.181; 3678.489
883.299; 1410.922;  -11.791; 3405.407
883.860; 1406.342;  -13.121; 3351.106
884.422; 1425.886;  -11.211; 3394.044
884.983; 1442.318;  -10.091; 3166.443
885.544; 1434.016;   -8.461; 3189.802
886.105; 1330.422;  -12.361; 3160.360
886.666; 1114.233;  -14.141; 3093.059
887.227;  840.934;  -11.361; 2941.957
887.788;  637.836;  -11.401; 2974.836
888.349;  544.473;  -13.791; 2721.214
888.910;  545.944;  -13.191; 2696.493
889.471;  576.812;   -9.881; 2560.172
890.032;  600.106;   -9.881; 2558.190
890.593;  614.720;  -10.371; 2567.669
891.153;  622.925;  -13.301; 2460.307
891.714;  610.522;  -11.431; 2372.046
892.275;  600.627;  -11.291; 2309.505
892.835;  589.099;  -11.471; 2382.543
893.396;  556.931;  -11.541; 2295.502
893.956;  513.537;  -11.181; 2162.420
894.517;  481.041;  -11.741; 2125.439
895.077;  476.781;  -11.671; 2086.978
895.638;  481.626;  -11.311; 2126.316
896.198;  459.442;   -9.831; 1838.275
896.758;  421.384;   -8.421; 1892.813
897.319;  395.915;  -12.351; 1792.232
897.879;  383.079;  -13.511; 1762.751
898.439;  361.063;  -12.001; 1661.149
898.999;  338.052;  -10.180; 1781.468
899.559;  329.225;  -12.030; 1703.347
900.119;  325.709;  -15.710; 1537.525
900.679;  322.797;   -8.900; 1638.384
901.239;  309.835;   -8.340; 1527.902
901.799;  298.939;  -13.910; 1456.441
902.359;  294.136;  -13.460; 1357.140
902.919;  288.839;  -11.490; 1331.118
903.479;  277.342;  -12.110; 1317.257
904.038;  257.899;  -11.720; 1262.595
904.598;  244.110;  -13.610; 1152.034
905.158;  240.813;  -11.040; 1240.893
905.717;  233.738;  -10.900; 1233.691
906.277;  221.427;  -15.080; 1217.330
906.836;  212.241;  -13.380; 1222.408
907.396;  203.019;  -10.780; 1193.047
907.955;  194.654;   -8.500; 1182.526
908.515;  189.368;  -12.760; 1099.364
909.074;  184.694;  -11.900; 1092.863
909.633;  180.304;   -8.950; 1069.121
910.192;  175.308;   -8.770; 1196.460
910.752;  170.594;  -12.390; 1029.960
911.311;  166.728;  -13.680; 1009.780
911.870;  163.937;  -12.370;  971.460
912.429;  165.307;  -10.900; 1094.080
912.988;  164.676;  -11.690; 1081.060
913.547;  160.731;  -13.240;  940.380
914.106;  156.259;  -11.990;  999.420
914.665;  152.708;   -9.990;  984.020
915.224;  151.291;  -12.880; 1035.760
915.782;  152.242;  -12.350;  922.560
916.341;  151.656;   -9.110; 1049.840
916.900;  147.164;   -9.270;  925.260
917.458;  144.988;  -13.240;  884.220
918.017;  145.146;  -13.550;  942.600
918.576;  145.410;  -12.320;  904.440
919.134;  143.129;  -11.490;  837.980
919.693;  140.294;  -13.670;  893.060
920.251;  140.434;  -15.470;  876.500
920.809;  139.686;  -11.290;  839.580
921.368;  138.260;  -10.210;  885.360
921.926;  137.325;  -12.140;  842.940
922.484;  136.289;  -13.080;  903.360
923.042;  136.835;  -11.720;  880.340
923.601;  138.913;   -7.480;  998.680
924.159;  137.484;  -11.570;  935.560
924.717;  134.462;  -13.840;  841.080
925.275;  134.207;  -10.640;  903.240
925.833;  133.187;  -11.540;  779.320
926.391;  134.657;  -12.960;  938.380
926.949;  132.895;  -14.130;  857.680
927.506;  133.261;  -11.750;  903.500
928.064;  133.620;  -10.250;  877.580
928.622;  132.249;  -13.030;  880.100
929.180;  132.356;  -13.400;  814.180
929.737;  134.153;  -10.700;  808.540
930.295;  136.925;  -10.070;  928.480
930.853;  138.073;  -11.960;  849.100
931.410;  139.416;  -13.120;  821.120
931.968;  138.713;  -10.770;  940.660
932.525;  137.303;  -10.680;  909.380
933.082;  138.212;  -13.130;  811.440
933.640;  140.269;  -13.210;  925.900
934.197;  137.832;  -11.060;  886.360
934.754;  138.626;   -9.580;  897.780
935.312;  141.104;  -14.000;  863.340
935.869;  146.377;  -10.710; 1012.980
936.426;  146.170;   -9.860;  872.800
936.983;  146.524;   -9.710;  889.020
937.540;  147.323;  -13.990;  838.280
938.097;  146.254;  -14.040;  940.120
938.654;  145.834;  -10.310;  898.860
939.211;  149.151;  -10.560;  952.480
939.768;  151.351;  -13.900;  915.420
940.324;  156.054;  -14.760;  904.200
940.881;  156.673;  -10.370;  878.500
941.438;  157.900;   -8.260; 1021.200
941.995;  154.066;  -12.540;  992.560
942.551;  151.859;  -14.670;  875.620
943.108;  151.798;  -10.450;  937.920
943.664;  153.174;  -10.750;  869.340
944.221;  157.051;  -11.550; 1088.140
944.777;  154.433;  -14.770;  869.680
945.334;  154.273;  -12.820;  884.840
945.890;  155.551;  -10.130;  946.480
946.446;  156.718;  -13.470;  947.020
947.003;  158.179;  -12.120;  964.940
947.559;  160.668;   -9.980; 1063.040
948.115;  160.534;   -9.080; 1026.540
948.671;  158.381;  -10.830;  967.300
949.227;  155.905;  -12.440;  859.560
949.783;  154.987;  -12.910;  858.900
950.339;  154.865;  -10.270;  991.000
950.895;  155.517;  -13.630; 1023.840
951.451;  155.249;  -15.100;  925.280
952.007;  154.444;  -11.330;  998.540
952.563;  154.231;  -10.580;  937.780
953.118;  152.483;  -13.440;  904.940
953.674;  152.716;  -12.710;  935.780
954.230;  152.953;  -10.350;  949.640
954.785;  149.939;   -9.190;  936.640
955.341;  148.015;  -11.200;  998.160
955.897;  146.571;  -16.560;  834.660
956.452;  147.689;  -12.570;  953.840
957.008;  146.846;   -7.970; 1083.640
957.563;  144.004;  -11.940; 1009.540
958.118;  139.961;  -13.450;  877.700
958.674;  139.638;  -12.030;  946.780
959.229;  139.703;   -9.410; 1013.980
959.784;  138.662;  -12.000;  832.400
960.339;  138.445;  -14.780; 1001.280
960.894;  134.577;   -9.860;  963.760
961.449;  131.096;   -9.970;  859.960
962.004;  131.112;  -10.900; 1212.840
962.559;  126.193;  -13.150;  860.140
963.114;  123.771;  -13.740;  742.480
963.669;  122.451;   -9.820;  915.500
964.224;  121.016;  -13.890;  874.340
964.779;  120.493;  -12.600;  828.420
965.334;  120.715;  -10.950; 1017.860
965.888;  119.565;  -11.170;  875.360
966.443;  122.737;  -12.540;  972.380
966.998;  122.943;  -15.780;  819.460
967.552;  121.594;   -9.760;  908.380
968.107;  117.027;   -9.060;  868.300
968.661;  118.611;  -11.950;  922.440
969.216;  119.220;  -12.800;  856.280
969.770;  119.660;  -11.210;  917.200
970.324;  118.489;  -11.610;  923.140
970.879;  115.225;  -11.370;  947.180
971.433;  112.210;  -12.540;  952.720
971.987;  108.100;  -11.320;  895.340
972.541;  104.500;  -10.720;  917.100
973.095;  103.131;   -9.680; 1009.460
973.649;  101.739;  -11.440;  809.480
974.203;  101.958;  -11.210;  829.040
974.757;  100.239;  -10.240;  855.220
975.311;  100.828;  -13.720;  872.600
975.865;  100.980;  -13.770;  881.820
976.419;   99.056;  -11.690;  857.400
976.973;   98.343;   -9.510;  849.620
977.526;  100.377;  -12.620;  949.920
978.080;   99.124;  -12.010;  796.780
978.634;  100.351;  -10.170;  921.320
979.187;   98.563;   -9.020;  905.400
979.741;   95.834;   -9.820; 1018.380
980.294;   92.059;  -14.870;  789.160
980.848;   89.389;  -12.380;  717.220
981.401;   90.655;  -10.350;  816.540
981.955;   92.460;  -13.720;  844.300
982.508;   92.311;  -11.490;  746.340
983.061;   91.866;  -10.000;  915.260
983.615;   88.475;  -11.480;  798.800
984.168;   85.250;  -13.220;  770.080
984.721;   85.198;  -13.960;  880.760
985.274;   84.054;  -10.870;  867.500
985.827;   82.842;   -9.790;  834.220
986.380;   80.159;  -13.120;  721.340
986.933;   79.755;  -12.450;  864.800
987.486;   78.468;  -10.210;  861.920
988.039;   76.733;   -8.430;  863.100
988.591;   75.018;  -10.520;  893.260
989.144;   73.742;  -14.860;  737.260
989.697;   72.246;  -13.080;  758.740
990.250;   71.967;  -10.150;  858.100
990.802;   70.257;  -13.430;  755.860
991.355;   71.975;  -12.750;  974.880
991.907;   69.440;  -12.040;  864.320
992.460;   66.905;  -11.330;  753.760
993.012;   66.069;  -13.610;  749.540
993.565;   65.928;  -13.460;  711.360
994.117;   67.130;   -9.360;  950.780
994.669;   64.647;  -11.300;  701.320
995.221;   61.822;  -13.540;  791.920
995.774;   60.410;  -13.430;  787.580
996.326;   59.826;  -12.520;  740.220
996.878;   58.239;  -10.950;  838.420
997.430;   56.264;  -14.300;  699.860
997.982;   55.861;  -13.760;  750.140
998.534;   56.198;  -11.530;  739.060
999.086;   53.758;  -10.310;  738.220
999.638;   52.619;  -12.530;  661.380
1000.190;   52.239;  -11.840;  699.320
1000.741;   51.836;  -10.260;  742.700
1001.293;   51.765;   -8.860;  686.020
1001.845;   50.032;  -13.700;  676.640
1002.396;   51.366;  -12.100;  743.400
1002.948;   50.472;  -12.760;  737.400
1003.500;   47.628;  -10.380;  723.780
1004.051;   48.203;  -11.900;  907.580
1004.603;   47.685;  -12.250;  791.820
1005.154;   43.985;  -13.210;  608.980
1005.705;   42.800;  -10.950;  723.960
1006.257;   42.012;  -13.880;  707.220
1006.808;   41.501;  -12.840;  685.460
1007.359;   41.265;  -10.570;  763.240
1007.910;   39.773;   -9.620;  646.640
1008.461;   40.166;  -13.630;  732.940
1009.013;   38.640;  -17.200;  588.340
1009.564;   40.203;  -10.200;  793.520
1010.115;   37.012;  -12.570;  597.040
1010.665;   37.564;  -15.150;  602.160
1011.216;   37.595;  -14.480;  667.920
1011.767;   37.253;  -11.340;  697.920
1012.318;   37.022;   -9.780;  736.980
1012.869;   35.811;  -12.380;  679.000
1013.419;   35.231;  -15.560;  603.120
1013.970;   36.252;  -11.010;  666.640
1014.521;   34.357;  -11.610;  620.620
1015.071;   34.982;  -13.450;  670.380
1015.622;   34.803;  -13.870;  635.460
1016.172;   34.240;  -11.610;  596.820
1016.723;   33.656;  -12.120;  614.380
1017.273;   33.164;  -13.620;  604.160
1017.823;   34.472;  -14.140;  650.340
1018.374;   33.790;  -12.800;  611.760
1018.924;   33.405;  -12.340;  716.880
1019.474;   33.516;  -11.410;  718.880
1020.024;   32.410;  -14.770;  657.580
1020.574;   32.778;   -9.780;  726.160
1021.124;   32.626;   -8.560;  673.580
1021.674;   31.291;  -15.190;  559.120
1022.224;   32.635;  -13.530;  708.940
1022.774;   32.581;  -13.280;  668.820
1023.324;   32.993;  -10.690;  753.520
1023.874;   33.530;  -10.240;  875.760
1024.423;   31.375;  -12.540;  613.700
1024.973;   30.885;  -10.010;  610.760
1025.523;   30.221;  -10.550;  620.960
1026.072;   29.107;  -13.560;  606.420
1026.622;   29.515;  -15.120;  675.740
1027.172;   31.462;  -11.260;  715.660
1027.721;   29.390;  -11.410;  601.220
1028.270;   29.472;  -13.530;  663.400
1028.820;   29.515;  -13.680;  638.080
1029.369;   29.594;  -13.520;  612.700
1029.918;   29.273;  -10.980;  649.840
1030.468;   28.255;  -13.530;  564.780
1031.017;   29.174;  -13.170;  634.800
1031.566;   28.311;  -12.200;  608.900
1032.115;   28.233;   -9.960;  694.500
1032.664;   27.060;  -13.210;  596.480
1033.213;   28.361;  -12.500;  735.420
1033.762;   28.024;  -11.910;  635.620
1034.311;   26.742;   -9.640;  677.220
1034.860;   28.256;  -13.310;  691.000
1035.408;   27.709;  -11.830;  722.720
1035.957;   28.230;  -12.000;  719.540
1036.506;   26.229;  -11.690;  530.800
1037.055;   28.051;  -10.990;  844.320
1037.603;   26.234;  -15.120;  664.000
1038.152;   24.895;  -12.450;  534.760
1038.700;   25.595;  -10.560;  585.740
1039.249;   24.498;  -11.080;  681.220
1039.797;   26.370;  -12.540;  633.360
1040.345;   26.398;  -11.920;  705.420
1040.894;   25.380;  -11.410;  625.300
1041.442;   24.215;  -14.320;  632.200
1041.990;   23.992;  -16.240;  559.160
1042.538;   24.093;  -11.680;  536.180
1043.087;   23.703;  -10.760;  570.860
1043.635;   25.029;  -11.850;  670.500
1044.183;   23.905;  -15.480;  586.400
1044.731;   24.279;  -11.770;  576.000
1045.279;   23.121;  -13.090;  674.920
1045.827;   24.958;  -12.440;  892.400
1046.374;   22.631;  -13.840;  515.420
1046.922;   22.506;  -13.220;  590.580
1047.470;   23.854;  -10.230;  691.300
1048.018;   23.035;  -14.590;  647.960
1048.565;   24.076;  -12.050;  708.600
1049.113;   22.239;  -11.650;  557.000
1049.660;   21.689;  -10.510;  629.660
1050.208;   22.451;  -13.310;  675.640
1050.755;   22.385;  -15.900;  606.580
1051.303;   23.305;  -11.430;  686.820
1051.850;   21.186;   -8.480;  635.120
1052.397;   19.908;  -15.010;  473.960
1052.945;   21.333;  -13.960;  617.760
1053.492;   22.880;  -13.150;  741.840
1054.039;   22.097;   -9.630;  720.180
1054.586;   20.608;  -13.680;  557.240
1055.133;   21.685;  -14.570;  693.140
1055.680;   21.504;  -13.820;  646.620
1056.227;   20.355;  -11.730;  542.780
1056.774;   20.633;  -12.480;  794.980
1057.321;   19.881;  -13.930;  523.260
1057.868;   21.000;  -11.690;  651.320
1058.415;   19.851;   -9.520;  651.980
1058.961;   20.490;  -13.160;  678.940
1059.508;   19.863;  -12.920;  643.820
1060.055;   20.223;  -11.920;  581.780
1060.601;   19.921;  -11.500;  624.300
1061.148;   19.330;  -14.330;  616.820
1061.694;   19.033;  -16.870;  592.580
1062.241;   19.992;  -10.330;  596.320
1062.787;   19.045;  -10.620;  663.140
1063.334;   20.447;  -10.110;  808.560
1063.880;   18.676;  -13.400;  668.360
1064.426;   19.834;  -10.680;  706.820
1064.972;   18.475;   -9.920;  601.340
1065.518;   16.215;  -10.980;  566.640
1066.065;   18.806;  -14.890;  624.460
1066.611;   17.950;  -12.870;  598.800
1067.157;   18.462;  -12.950;  641.860
1067.703;   17.066;  -13.540;  668.480
1068.249;   18.424;  -13.540;  605.220
1068.794;   18.153;  -12.600;  626.880
1069.340;   16.774;  -10.620;  578.960
1069.886;   16.802;  -12.830;  590.700
1070.432;   16.297;  -14.870;  541.720
1070.977;   16.678;  -11.980;  601.080
1071.523;   16.964;   -8.200;  573.060
1072.068;   16.677;  -12.330;  582.000
1072.614;   16.758;  -16.370;  527.760
1073.160;   17.418;  -11.100;  687.040
1073.705;   16.011;  -10.480;  572.520
1074.250;   15.932;  -14.520;  559.900
1074.796;   17.032;  -11.460;  655.160
1075.341;   17.353;  -11.950;  664.100
1075.886;   15.537;  -11.460;  594.240
1076.431;   14.400;  -13.770;  649.880
1076.976;   14.941;  -12.680;  639.220
1077.521;   15.638;  -13.170;  583.080
1078.067;   14.187;  -10.860;  579.400
1078.612;   15.656;  -13.920;  661.620
1079.156;   15.914;  -13.880;  601.540
1079.701;   15.445;  -13.120;  693.260
1080.246;   15.759;   -9.940;  696.300
1080.791;   14.538;  -14.740;  625.020
1081.336;   15.053;  -13.750;  659.320
1081.880;   15.099;  -13.400;  649.680
1082.425;   13.651;  -12.220;  573.480
1082.970;   15.079;  -11.610;  717.040
1083.514;   13.921;  -13.580;  597.000
1084.059;   12.819;  -12.810;  586.720
1084.603;   13.607;  -12.320;  565.840
1085.147;   13.661;  -13.190;  645.220
1085.692;   14.465;  -12.480;  716.800
1086.236;   13.781;  -13.020;  503.140
1086.780;   14.945;   -9.190;  751.440
1087.325;   13.647;  -12.480;  654.620
1087.869;   13.608;  -12.450;  610.700
1088.413;   14.079;  -12.240;  705.040
1088.957;   11.995;   -9.020;  543.400
1089.501;   13.416;  -10.320;  766.640
1090.045;   13.656;  -12.720;  726.480
1090.589;   11.936;  -13.690;  569.920
1091.133;   12.523;  -10.020;  673.340
1091.676;   12.335;  -12.330;  591.940
1092.220;   11.682;  -14.970;  600.920
1092.764;   13.631;  -12.430;  706.960
1093.307;   12.907;   -9.800;  673.780
1093.851;   10.571;  -14.970;  556.540
1094.395;   12.442;  -15.310;  683.140
1094.938;   12.261;  -10.370;  632.520
1095.482;   11.425;  -11.050;  559.800
1096.025;   12.353;  -11.840;  710.880
1096.568;   12.859;  -12.840;  779.280
1097.112;    9.901;  -14.700;  508.180
1097.655;   11.847;   -8.720;  603.000
1098.198;    9.647;  -13.610;  600.180
1098.741;   10.679;  -13.350;  612.860
1099.285;   11.321;  -11.230;  657.300
1099.828;    9.292;  -11.840;  439.400
1100.371;    9.717;  -10.840;  608.160
1100.914;   10.927;  -14.190;  682.660
1101.457;   11.147;  -11.240;  679.900
1101.999;    8.982;  -11.270;  584.680
1102.542;   10.158;  -11.480;  641.440
1103.085;   10.292;  -11.750;  658.500
1103.628;   10.770;  -11.400;  762.060
1104.170;    9.797;  -10.490;  588.280
1104.713;    9.935;  -10.600;  646.700
1105.256;    8.923;  -14.360;  557.440
1105.798;    8.892;  -13.210;  499.980
1106.341;   10.014;  -10.270;  728.900
1106.883;    8.233;  -12.200;  521.340
1107.425;    9.315;  -13.110;  668.180
1107.968;    8.972;  -12.840;  612.380
1108.510;    9.087;   -6.480;  684.960
1109.052;    7.551;  -13.940;  612.620
1109.594;    8.179;  -13.690;  554.440
1110.136;    9.629;  -11.880;  643.220
1110.679;    8.377;   -9.500;  633.080
1111.221;    8.157;  -14.160;  604.460
1111.763;    8.288;  -13.980;  559.220
1112.304;    7.727;  -13.880;  547.140
1112.846;    8.339;  -12.210;  666.240
1113.388;   10.398;  -11.390;  942.180
1113.930;    8.726;  -14.540;  694.200
1114.472;    7.356;  -12.640;  606.540
1115.013;    5.510;  -11.620;  551.280
1115.555;    6.269;  -13.640;  587.100
1116.097;    6.572;  -15.380;  579.480
1116.638;    7.072;  -12.640;  684.600
1117.180;    7.378;   -9.850;  667.740
1117.721;    6.676;  -13.690;  568.580
1118.262;    8.062;  -12.680;  677.960
1118.804;    7.763;  -12.530;  637.340
1119.345;    5.822;  -11.690;  578.400
1119.886;    6.963;  -13.380;  704.040
1120.427;    6.279;  -14.070;  589.020
1120.969;    6.729;  -13.500;  597.920
1121.510;    5.928;  -11.480;  563.060
1122.051;    5.735;  -12.830;  723.580
1122.592;    5.951;  -14.290;  655.420
1123.133;    5.365;  -12.400;  547.940
1123.673;    6.632;  -10.130;  706.480
1124.214;    5.783;  -12.930;  612.460
1124.755;    6.887;  -14.380;  639.460
1125.296;    6.253;  -14.000;  627.320
1125.836;    6.390;  -10.070;  691.500
1126.377;    4.882;  -12.640;  599.660
1126.918;    5.921;  -12.960;  614.980
1127.458;    5.372;  -13.350;  622.220
1127.999;    5.269;  -10.750;  656.980
1128.539;    5.775;  -12.350;  694.240
1129.079;    5.390;  -14.860;  632.720
1129.620;    4.803;  -13.840;  558.100
1130.160;    4.399;  -12.330;  539.480
1130.700;    4.966;  -14.530;  640.840
1131.240;    5.815;  -12.530;  643.700
1131.781;    4.886;  -14.450;  619.680
1132.321;    4.361;   -9.790;  599.120
1132.861;    2.632;  -14.860;  564.200
1133.401;    3.580;  -14.290;  593.940
1133.941;    4.771;  -11.750;  626.280
1134.481;    3.797;   -9.920;  597.580
1135.020;    2.554;  -12.290;  609.160
1135.560;    4.166;  -11.650;  674.940
1136.100;    4.327;  -16.270;  501.160
1136.640;    3.097;  -10.890;  510.480
1137.179;    2.848;  -14.180;  537.960
1137.719;    3.738;  -16.250;  605.400
1138.258;    3.572;  -14.230;  587.360
1138.798;    3.617;   -9.090;  663.780
1139.337;    2.091;  -15.130;  482.840
1139.877;    3.646;  -13.680;  642.360
1140.416;    5.875;  -11.320;  878.060
1140.955;    2.851;  -10.860;  535.380
1141.494;    2.931;  -12.920;  669.280
1142.034;    2.619;  -13.930;  583.520
1142.573;    4.009;  -11.440;  646.280
1143.112;    1.957;  -12.000;  553.480
1143.651;    2.506;  -13.670;  536.480
1144.190;    3.670;  -12.730;  691.640
1144.729;    2.888;  -14.560;  607.420
1145.267;    2.789;  -11.830;  584.900
1145.806;    2.581;  -12.230;  637.040
1146.345;    2.372;  -14.130;  635.020
1146.884;    2.589;  -11.590;  622.500
1147.422;    1.136;  -12.550;  533.060
1147.961;    2.515;  -11.180;  708.460
1148.500;    3.140;  -11.510;  669.720
1149.038;    3.757;  -11.640;  632.500
1149.577;    2.978;  -10.130;  698.640
1150.115;   -0.184;  -13.970;  452.280
1150.653;    1.962;  -14.520;  607.340
1151.192;    2.082;  -12.810;  552.920
1151.730;    2.117;   -9.100;  652.560
1152.268;    0.981;  -12.220;  589.520
1152.806;    1.729;  -14.140;  571.180
1153.344;    0.020;  -12.350;  577.640
1153.882;    1.569;   -8.980;  600.060
1154.421;   -0.181;  -15.190;  470.620
1154.958;    0.599;  -15.210;  595.240
1155.496;    2.122;  -12.850;  645.280
1156.034;    1.416;   -9.940;  721.880
1156.572;    1.784;  -13.570;  667.060
1157.110;   -0.432;  -14.590;  473.940
1157.647;    1.758;  -13.030;  676.960
1158.185;   -0.191;  -12.140;  564.320
1158.723;   -0.917;  -14.390;  509.200
1159.260;    0.738;  -14.090;  701.700
1159.798;    1.232;  -11.920;  658.160
1160.335;    0.436;  -11.110;  631.820

