
Integration time [ms]:   3.882
Averaging Nr. [scans]: 1000
Smoothing Nr. [pixels]: 0
Data measured with spectrometer [name]: 7414430SP
Wave   ;Sample   ;Dark     ;Reference
[nm]   ;[counts] ;[counts] ;[counts] 

288.544;  139.584;    7.153;  793.890
289.143;  142.972;    8.402;  681.602
289.742;  143.344;    7.062;  828.814
290.341;  130.334;    0.191;  789.841
290.940;  120.866;    0.321;  730.702
291.538;  121.905;    3.811;  881.108
292.137;  120.064;   -3.438;  792.581
292.736;  124.301;   -2.809;  975.101
293.335;  120.605;   -5.239;  735.086
293.934;  120.871;   -4.939;  781.677
294.532;  122.240;   -2.199; 1031.958
295.131;  107.757;   -6.831;  834.394
295.730;  106.926;   -6.620;  809.588
296.328;  104.768;   -6.471;  783.442
296.927;  105.293;   -6.571;  779.652
297.525;  106.127;   -7.391;  781.236
298.124;   97.458;   -9.402;  654.009
298.722;  101.449;   -5.781;  761.933
299.321;  100.297;   -6.351;  708.597
299.919;   98.508;   -8.661;  751.918
300.518;   93.624;  -11.922;  689.338
301.116;   94.838;   -6.941;  691.381
301.715;   95.658;   -5.471;  730.222
302.313;   95.411;   -8.361;  704.943
302.911;   90.674;   -9.082;  733.830
303.509;   96.193;   -4.571;  925.627
304.108;   93.971;   -7.111;  760.383
304.706;   92.530;   -7.681;  801.664
305.304;   87.252;   -9.162;  796.707
305.902;   91.372;   -6.761;  784.484
306.500;   87.891;   -6.921;  728.200
307.098;   85.964;   -6.491;  746.560
307.696;   84.381;   -6.941;  780.432
308.294;   84.799;   -6.301;  731.359
308.892;   86.857;   -4.771;  759.769
309.490;   83.008;   -5.141;  712.161
310.088;   81.229;   -2.912;  788.444
310.686;   86.348;   -0.421;  821.749
311.284;   82.401;   -3.461;  766.040
311.882;   80.017;   -6.282;  731.225
312.480;   77.086;   -3.632;  697.167
313.078;   77.794;   -2.112;  808.331
313.675;   79.473;   -1.931;  691.600
314.273;   74.064;   -1.442;  797.837
314.871;   73.067;   -3.002;  589.829
315.468;   71.762;   -2.252;  652.090
316.066;   75.488;   -1.091;  694.427
316.664;   67.802;   -4.512;  656.351
317.261;   71.882;   -0.062;  910.128
317.859;   67.830;   -0.952;  768.735
318.456;   68.769;    0.719;  830.096
319.054;   64.717;   -4.002;  787.828
319.651;   63.923;   -4.972;  759.928
320.249;   62.352;   -1.162;  810.188
320.846;   60.483;   -2.651;  714.286
321.443;   57.665;   -3.832;  832.135
322.041;   56.169;   -4.312;  812.315
322.638;   52.119;   -3.872;  701.456
323.235;   55.046;   -4.361;  665.683
323.833;   53.455;   -4.821;  740.354
324.430;   47.948;   -6.971;  615.900
325.027;   49.620;   -4.361;  876.855
325.624;   50.000;   -5.581;  644.532
326.221;   46.905;   -6.601;  689.717
326.818;   46.512;   -7.301;  818.332
327.415;   48.679;   -6.180;  748.828
328.012;   47.387;   -5.920;  690.585
328.609;   46.159;   -8.390;  731.389
329.206;   44.933;   -6.121;  778.621
329.803;   43.896;   -5.241;  737.841
330.400;   46.771;   -7.420;  704.260
330.997;   47.433;   -5.931;  817.147
331.594;   45.146;   -5.641;  788.185
332.191;   49.912;   -6.451;  728.722
332.787;   53.951;   -4.651;  844.463
333.384;   51.451;   -5.472;  763.093
333.981;   48.812;   -6.303;  815.687
334.578;   52.642;   -5.892;  708.378
335.174;   54.919;   -4.102;  731.469
335.771;   53.764;   -8.053;  836.456
336.367;   50.158;   -7.363;  710.631
336.964;   55.238;   -6.243;  793.266
337.561;   53.753;   -5.653;  731.112
338.157;   49.409;   -7.074;  911.916
338.754;   47.602;   -5.474;  796.589
339.350;   45.470;   -5.624;  722.493
339.946;   48.404;   -5.054;  773.135
340.543;   41.070;   -6.695;  846.136
341.139;   34.765;   -6.215;  720.836
341.735;   32.959;   -5.746;  772.593
342.332;   32.096;   -7.335;  691.472
342.928;   32.027;   -4.835;  795.394
343.524;   26.225;   -4.586;  761.684
344.120;   22.665;   -3.946;  738.562
344.716;   26.763;   -4.835;  723.717
345.313;   24.226;   -5.325;  795.342
345.909;   18.934;   -6.535;  627.336
346.505;   20.821;   -4.725;  740.247
347.101;   21.257;   -4.164;  827.864
347.697;   22.520;   -5.274;  785.398
348.293;   16.327;   -7.145;  627.244
348.889;   17.350;   -4.364;  745.914
349.485;   17.415;   -6.404;  688.205
350.081;   18.210;   -7.534;  772.592
350.676;   13.350;   -6.995;  691.606
351.272;   17.612;   -3.544;  809.530
351.868;   18.563;   -5.324;  780.497
352.464;   14.874;   -7.204;  723.932
353.059;   10.739;   -6.894;  646.017
353.655;   14.457;   -3.754;  777.063
354.251;   15.417;   -6.143;  759.845
354.846;   10.653;   -9.464;  740.646
355.442;    7.875;   -7.555;  753.071
356.038;    9.776;   -5.474;  751.708
356.633;   10.115;   -5.914;  728.594
357.229;    8.701;   -8.944;  724.757
357.824;    5.976;   -6.794;  703.600
358.420;    5.562;   -5.754;  679.726
359.015;    6.197;   -5.664;  695.357
359.610;    7.409;   -8.004;  763.920
360.206;    0.678;   -8.815;  603.240
360.801;    3.507;   -8.834;  646.503
361.396;    6.615;   -6.274;  725.975
361.992;    2.551;   -8.574;  668.220
362.587;   -1.413;   -9.265;  670.160
363.182;    0.580;   -5.484;  689.631
363.777;    2.512;   -5.164;  738.242
364.372;    2.563;   -6.954;  737.314
364.967;   -2.009;   -7.065;  680.744
365.563;    2.243;   -5.684;  815.567
366.158;   -1.263;   -6.484;  685.161
366.753;   -0.386;   -8.004;  649.263
367.348;   -1.243;  -10.114;  746.056
367.942;   -1.624;   -7.764;  697.298
368.537;   -2.203;   -4.554;  754.245
369.132;   -2.232;   -7.664;  703.428
369.727;   -6.612;   -8.905;  638.079
370.322;   -5.430;   -4.945;  580.186
370.917;   -5.321;   -7.095;  710.646
371.511;   -1.503;   -6.574;  861.834
372.106;   -5.727;   -6.515;  776.964
372.701;   -9.103;   -8.225;  585.988
373.296;   -2.458;   -4.494;  863.135
373.890;   -8.422;   -7.965;  647.840
374.485;  -10.641;   -9.745;  691.199
375.079;   -5.752;   -5.554;  738.685
375.674;   -4.236;   -4.724;  812.970
376.268;   -9.612;   -8.365;  691.759
376.863;  -15.029;   -8.126;  580.327
377.457;   -7.793;   -6.045;  662.490
378.052;  -10.335;   -6.835;  764.884
378.646;  -11.168;   -9.375;  741.167
379.240;  -11.488;   -6.185;  721.176
379.835;  -11.021;   -6.135;  636.978
380.429;  -12.692;   -8.365;  562.557
381.023;  -12.047;   -7.935;  779.205
381.617;  -15.112;   -8.325;  680.106
382.212;  -12.421;   -7.405;  685.303
382.806;  -10.051;   -4.155;  760.690
383.400;  -14.196;   -8.945;  672.281
383.994;  -16.077;   -8.365;  664.870
384.588;  -11.986;   -7.824;  697.701
385.182;  -10.157;   -7.984;  726.624
385.776;  -11.621;  -10.404;  706.875
386.370;  -14.639;   -7.335;  681.968
386.964;  -14.212;   -7.485;  684.155
387.558;  -12.545;   -8.174;  598.360
388.152;  -15.160;  -10.415;  681.959
388.745;  -13.553;   -9.595;  814.707
389.339;  -12.339;   -6.454;  747.642
389.933;  -10.937;   -5.804;  695.370
390.527;  -12.122;   -6.854;  859.029
391.120;  -18.873;   -7.665;  595.318
391.714;  -16.175;   -7.245;  711.633
392.308;  -12.120;   -4.514;  780.253
392.901;  -15.432;   -7.935;  642.460
393.495;  -17.444;   -8.585;  595.414
394.089;  -15.524;   -5.245;  760.452
394.682;  -16.021;   -6.305;  697.188
395.275;  -16.653;   -9.335;  719.927
395.869;  -18.287;   -7.375;  667.314
396.462;  -16.615;   -7.055;  616.609
397.056;  -12.391;   -5.434;  776.621
397.649;  -17.017;   -9.525;  731.575
398.242;  -14.133;   -7.574;  712.645
398.836;  -13.558;   -5.134;  766.408
399.429;  -14.481;   -6.544;  631.041
400.022;  -17.449;   -9.215;  665.902
400.615;  -15.560;   -8.105;  805.609
401.208;  -14.640;   -7.614;  691.451
401.802;  -16.217;   -8.085;  699.329
402.395;  -17.188;   -9.575;  683.502
402.988;  -18.501;   -9.285;  696.627
403.581;  -14.853;   -7.514;  646.878
404.174;  -12.448;   -6.404;  686.568
404.767;  -15.970;   -8.775;  638.583
405.360;  -17.700;   -7.415;  621.445
405.953;  -12.760;   -5.624;  759.034
406.545;  -11.762;   -6.474;  725.342
407.138;  -15.869;   -8.445;  618.350
407.731;  -14.734;  -10.044;  613.303
408.324;  -11.972;   -8.484;  660.554
408.917;  -11.960;   -7.624;  681.864
409.509;  -13.546;   -8.304;  740.396
410.102;  -16.181;   -8.495;  643.948
410.695;  -10.072;   -7.824;  665.758
411.287;  -10.830;   -7.754;  599.821
411.880;  -11.944;   -9.294;  585.421
412.472;  -15.176;   -8.814;  613.092
413.065;  -12.778;   -6.674;  629.408
413.657;  -10.374;   -9.664;  576.678
414.250;   -9.405;  -10.264;  646.681
414.842;  -11.309;   -8.664;  676.353
415.434;   -9.935;   -8.584;  570.463
416.027;   -5.013;   -9.423;  652.196
416.619;   -7.220;  -10.764;  713.400
417.211;   -8.471;   -7.404;  599.352
417.804;   -4.484;   -7.383;  628.499
418.396;   -8.632;   -8.334;  607.643
418.988;   -5.540;   -9.633;  659.238
419.580;   -9.671;  -10.554;  568.276
420.172;   -7.405;   -8.683;  536.196
420.764;   -2.786;   -9.713;  672.482
421.356;   -4.202;  -11.303;  636.898
421.948;   -4.410;   -8.453;  677.661
422.540;   -0.261;   -5.793;  680.027
423.132;   -1.138;   -7.162;  600.641
423.724;   -3.958;   -7.933;  561.267
424.316;   -2.458;   -9.083;  621.345
424.908;    1.443;   -8.392;  591.517
425.500;    2.638;   -8.062;  647.978
426.092;    3.031;   -9.692;  648.268
426.683;    0.881;   -8.223;  684.836
427.275;    3.028;   -8.602;  641.471
427.867;    6.071;   -8.382;  668.948
428.458;    7.047;  -10.472;  732.344
429.050;    4.353;   -9.112;  680.749
429.642;    7.043;   -7.752;  743.124
430.233;    7.602;   -8.832;  569.356
430.825;    8.982;   -8.292;  724.809
431.416;    6.002;   -7.522;  698.241
432.008;    9.682;   -9.262;  651.723
432.599;   10.326;   -6.441;  656.073
433.190;    8.011;   -9.222;  637.670
433.782;    6.037;  -11.832;  590.395
434.373;   14.705;   -7.121;  884.765
434.964;   12.879;   -9.141;  602.920
435.556;   10.583;   -9.332;  634.537
436.147;   12.772;   -8.892;  758.490
436.738;   12.975;   -8.151;  701.099
437.329;   18.892;   -8.281;  721.723
437.920;   11.795;   -9.062;  666.688
438.511;   10.628;  -11.182;  564.526
439.103;   17.406;   -7.461;  623.998
439.694;   19.987;   -8.541;  681.583
440.285;   20.376;   -7.351;  764.432
440.876;   18.787;   -8.201;  845.738
441.466;   16.867;  -10.381;  575.162
442.057;   23.319;   -7.620;  665.814
442.648;   21.857;   -8.461;  746.255
443.239;   20.025;   -8.991;  620.477
443.830;   24.745;   -7.910;  704.958
444.421;   27.439;   -7.340;  655.474
445.011;   24.450;   -8.981;  693.619
445.602;   23.615;   -9.341;  743.126
446.193;   24.585;  -11.390;  488.117
446.783;   30.007;  -11.240;  640.397
447.374;   25.784;   -8.471;  692.759
447.964;   25.277;   -8.471;  713.770
448.555;   33.976;   -6.590;  822.742
449.145;   29.761;   -8.200;  662.853
449.736;   31.104;  -11.040;  803.179
450.326;   31.193;   -9.640;  713.626
450.917;   35.547;   -9.480;  675.324
451.507;   35.402;   -8.020;  600.661
452.097;   36.230;  -10.210;  746.267
452.688;   36.916;   -7.810;  742.160
453.278;   35.745;   -9.360;  566.840
453.868;   41.421;   -8.669;  793.550
454.458;   38.822;  -10.950;  651.141
455.048;   38.854;  -10.200;  711.783
455.639;   40.526;   -9.369;  567.096
456.229;   44.187;   -7.739;  710.694
456.819;   46.114;   -8.939;  751.158
457.409;   46.595;   -7.169;  773.993
457.999;   49.053;   -7.779;  737.505
458.589;   48.631;   -7.039;  686.606
459.179;   49.425;   -9.019;  717.658
459.769;   46.129;   -8.909;  627.099
460.358;   51.543;   -8.659;  797.262
460.948;   52.012;   -8.209;  689.503
461.538;   53.673;   -9.879;  660.677
462.128;   51.085;   -9.379;  664.934
462.717;   57.306;   -9.158;  710.326
463.307;   60.807;   -8.638;  705.846
463.897;   55.544;   -8.869;  656.942
464.486;   56.153;   -7.409;  837.128
465.076;   60.899;   -9.618;  733.776
465.666;   63.758;   -7.578;  652.900
466.255;   61.421;   -9.369;  785.651
466.845;   60.384;  -10.049;  666.749
467.434;   63.045;   -8.168;  725.873
468.023;   64.733;   -9.188;  658.357
468.613;   62.460;   -9.849;  713.946
469.202;   66.005;  -12.958;  646.507
469.791;   70.550;   -9.488;  737.811
470.381;   73.096;   -6.468;  742.813
470.970;   72.020;  -10.248;  711.099
471.559;   72.286;  -11.428;  733.291
472.148;   74.416;   -9.738;  675.737
472.738;   77.773;   -7.877;  765.466
473.327;   77.659;  -11.868;  637.529
473.916;   76.199;   -8.578;  737.446
474.505;   80.101;  -11.137;  751.703
475.094;   83.890;   -9.407;  806.570
475.683;   83.339;   -9.977;  797.699
476.272;   83.764;  -10.807;  730.632
476.861;   86.509;  -11.017;  706.754
477.449;   93.771;  -10.316;  728.487
478.038;   87.563;  -10.187;  692.513
478.627;   87.869;  -12.458;  714.852
479.216;   94.941;  -10.127;  769.441
479.805;   98.896;   -6.256;  783.375
480.393;   98.568;   -8.737; 1008.945
480.982;   96.916;   -9.087;  874.501
481.571;  102.488;   -7.806;  858.333
482.159;  102.523;  -10.596;  705.386
482.748;  102.448;  -11.507;  821.385
483.336;  106.528;   -8.366;  858.209
483.925;  107.426;   -7.497;  774.373
484.513;  114.175;   -8.326;  758.962
485.102;  110.783;  -10.277;  810.965
485.690;  119.000;   -8.256; 1011.050
486.278;  120.325;   -7.146;  979.329
486.867;  121.105;   -7.986;  809.662
487.455;  122.891;   -9.926;  898.229
488.043;  123.547;  -10.026;  748.361
488.631;  131.982;   -7.226; 1005.079
489.220;  136.332;   -8.696;  908.626
489.808;  135.692;  -12.276;  741.415
490.396;  142.978;   -9.386;  914.645
490.984;  147.522;   -8.506;  830.161
491.572;  157.153;   -8.226;  940.315
492.160;  162.197;   -9.836;  919.081
492.748;  171.588;  -10.316;  884.341
493.336;  190.310;   -7.146; 1019.693
493.924;  212.076;   -7.965;  958.077
494.512;  235.072;  -10.316; 1066.638
495.100;  268.744;  -10.186; 1103.280
495.687;  318.730;   -7.805; 1206.373
496.275;  378.439;   -9.686; 1150.796
496.863;  448.956;  -11.566; 1281.171
497.451;  537.270;  -11.406; 1386.805
498.038;  659.388;   -8.235; 1556.729
498.626;  761.751;   -7.485; 1741.407
499.214;  914.681;   -8.646; 2016.609
499.801; 1149.555;   -9.936; 2220.633
500.389; 1318.313;   -8.056; 2312.494
500.976; 1472.339;   -6.166; 2744.849
501.564; 1645.312;   -9.126; 3148.565
502.151; 1902.330;  -12.456; 3515.999
502.738; 2277.119;  -10.056; 3971.274
503.326; 2703.282;  -10.605; 4403.796
503.913; 3050.414;  -10.576; 5161.749
504.500; 3492.050;   -9.056; 5986.420
505.088; 3926.906;  -10.136; 6381.201
505.675; 4621.979;   -9.075; 6925.547
506.262; 5180.082;  -11.346; 7619.060
506.849; 5844.359;   -9.376; 8733.969
507.436; 6393.623;   -7.365; 9790.121
508.023; 6729.532;   -8.686; 9985.472
508.610; 7116.476;   -8.846;10434.618
509.197; 7956.796;   -9.077;11198.435
509.784; 9123.016;  -10.246;12391.194
510.371; 9553.225;   -9.825;13603.713
510.958;10157.279;  -10.896;14426.586
511.545;10899.964;   -9.006;15243.775
512.132;11651.684;   -8.765;15945.876
512.719;12360.807;   -8.286;16340.369
513.305;13976.559;   -9.256;18011.766
513.892;15530.822;  -11.106;19754.971
514.479;16096.604;   -8.576;20967.805
515.066;15959.205;   -9.046;22299.793
515.652;16698.457;  -10.676;22908.660
516.239;19910.818;  -10.166;23798.875
516.825;21943.918;  -11.266;25567.275
517.412;22532.203;   -7.446;28154.959
517.998;23431.242;  -10.916;28344.111
518.585;22657.064;   -9.166;27134.219
519.171;22369.479;  -10.135;27268.576
519.758;24330.645;   -8.806;28964.129
520.344;27374.141;   -6.716;30664.494
520.930;28481.172;  -10.166;32550.605
521.516;28493.791;   -9.615;35422.895
522.103;29718.635;   -8.656;38280.004
522.689;32271.604;   -9.646;37835.117
523.275;32918.047;  -10.786;37288.613
523.861;33707.875;   -9.266;37281.395
524.447;33801.512;   -8.285;37846.949
525.033;33846.531;   -9.426;38321.949
525.619;32859.512;   -9.836;38579.285
526.205;33566.859;   -8.136;40622.875
526.791;34999.859;   -9.986;42258.836
527.377;36806.242;   -8.236;42966.902
527.963;35507.902;  -12.117;42018.949
528.549;34113.672;   -8.376;42476.828
529.135;34999.672;   -8.696;41854.852
529.721;36730.715;   -9.686;41237.711
530.306;39323.539;   -8.616;41259.445
530.892;42094.148;   -9.396;41506.047
531.478;42547.152;   -9.926;43559.613
532.063;44314.992;  -10.236;47695.563
532.649;46833.930;   -8.257;50808.324
533.235;48167.582;  -11.476;51787.500
533.820;46553.922;   -8.156;52145.035
534.406;44346.066;  -12.257;51133.488
534.991;42296.918;   -8.686;49996.805
535.576;40928.344;   -9.426;48882.852
536.162;41257.813;   -8.436;46942.285
536.747;40144.863;  -10.957;45711.746
537.333;39455.848;  -13.147;48510.180
537.918;42150.973;   -9.027;50439.891
538.503;43579.824;   -8.256;50863.711
539.088;47197.074;  -10.576;50906.922
539.673;49095.816;  -10.907;52621.965
540.259;48893.836;   -9.126;52368.094
540.844;45798.742;   -9.026;50879.109
541.429;46544.293;   -9.597;52077.777
542.014;50591.051;  -11.447;52716.695
542.599;51606.582;   -9.236;52363.281
543.184;50041.211;  -12.267;53187.137
543.769;51684.949;  -10.367;54697.605
544.354;51801.578;  -10.887;53913.914
544.938;45517.691;  -11.687;49680.164
545.523;40802.117;   -8.286;47386.277
546.108;42090.727;   -9.317;49151.949
546.693;43923.273;  -10.187;51384.637
547.278;43258.012;   -9.926;51853.254
547.862;42593.563;   -9.196;51173.750
548.447;41388.410;   -9.657;51691.395
549.031;40901.465;   -9.127;52456.703
549.616;44582.910;  -10.836;52714.516
550.201;47861.535;   -8.507;52414.598
550.785;46748.223;  -10.537;52355.059
551.370;43779.410;  -11.727;54589.453
551.954;41970.031;   -9.457;58267.348
552.538;41127.672;   -8.147;59062.176
553.123;41337.930;   -9.397;58115.285
553.707;42306.402;   -9.558;56556.285
554.291;46273.465;   -9.417;56201.668
554.876;47897.746;   -7.627;55335.762
555.460;45965.301;  -10.457;54155.703
556.044;44088.922;  -10.078;53721.484
556.628;44676.609;   -9.407;53731.016
557.212;44328.438;   -7.957;54312.531
557.796;44108.891;  -11.327;53797.773
558.380;48891.695;  -10.868;56145.984
558.964;49785.215;   -9.637;57277.930
559.548;47709.508;   -8.807;56459.641
560.132;48477.699;  -10.187;54434.543
560.716;47855.754;   -9.868;54800.617
561.300;48308.023;  -10.217;57606.945
561.884;48653.430;   -4.947;58972.445
562.467;47839.121;   -9.588;57327.570
563.051;46040.418;  -11.138;54962.434
563.635;44622.484;   -9.358;52594.473
564.219;44698.039;   -9.797;50610.410
564.802;45110.176;   -9.918;49551.180
565.386;42621.820;  -10.838;48370.953
565.969;41978.195;   -8.037;48178.871
566.553;41342.230;   -5.667;49957.305
567.136;39754.883;   -8.258;50369.594
567.720;39667.852;  -11.278;49492.004
568.303;42772.582;   -9.028;50616.352
568.887;42392.547;   -7.508;50727.148
569.470;40945.684;  -11.068;51698.379
570.053;40594.996;  -10.028;52122.078
570.637;38604.750;  -11.077;52536.438
571.220;37995.879;   -8.747;51186.098
571.803;39720.848;   -8.868;51032.762
572.386;41848.355;  -10.608;49609.887
572.969;41928.563;  -10.548;48285.926
573.552;39531.156;   -7.898;47624.285
574.135;40173.547;   -9.918;45498.641
574.718;36659.090;  -10.328;41970.434
575.301;33751.820;   -9.548;41447.137
575.884;30844.553;   -8.768;40923.836
576.467;34312.359;   -9.858;45267.723
577.050;34427.547;  -11.018;48175.543
577.633;35150.129;  -10.048;47729.328
578.216;34352.246;  -10.268;47579.793
578.799;31652.604;  -11.808;47820.996
579.381;31698.051;   -7.338;48115.551
579.964;34615.789;   -9.728;47333.766
580.547;36234.262;   -8.928;46668.969
581.129;37500.734;   -9.149;44466.141
581.712;37751.855;  -11.359;44164.922
582.294;35042.742;  -10.738;46477.855
582.877;33520.004;   -8.788;48244.254
583.459;33836.855;   -9.859;47437.895
584.042;36299.668;   -9.649;46943.219
584.624;36349.883;  -10.529;46792.227
585.206;34932.801;  -10.298;46557.250
585.789;34326.020;  -11.029;45793.773
586.371;32323.945;   -9.359;43836.391
586.953;31706.615;   -8.799;42972.492
587.536;31246.111;   -8.928;42487.211
588.118;30884.449;   -9.180;42086.414
588.700;30588.842;  -10.519;43389.930
589.282;29802.855;   -8.098;43646.039
589.864;29903.689;   -8.139;43438.109
590.446;31418.168;  -10.509;43151.926
591.028;31865.404;  -11.119;42781.867
591.610;33544.375;  -10.019;42839.098
592.192;33275.551;   -8.838;42820.402
592.774;30225.402;  -11.549;40724.277
593.356;27450.730;  -11.609;39874.789
593.937;26636.695;  -10.019;39980.648
594.519;28924.047;   -7.839;42069.633
595.101;31531.324;  -10.779;42976.031
595.683;32806.625;  -10.049;44084.441
596.264;32637.359;   -9.969;43478.797
596.846;32463.465;   -9.699;43803.672
597.427;31557.330;  -10.970;42986.934
598.009;31030.311;  -13.090;42832.219
598.591;30165.955;   -9.509;42580.086
599.172;30481.633;   -9.019;43061.805
599.753;30971.811;  -13.310;41691.469
600.335;31811.293;  -11.010;40692.520
600.916;31381.555;  -10.309;39982.422
601.498;30286.635;   -8.209;40318.617
602.079;30287.936;  -11.440;40670.609
602.660;31911.320;   -8.690;41450.898
603.241;32679.137;  -12.759;41137.738
603.823;31255.443;  -10.409;38868.797
604.404;30702.344;  -11.790;38182.785
604.985;32486.996;  -10.280;38078.047
605.566;33959.449;   -8.059;38056.633
606.147;31345.658;   -8.960;37020.418
606.728;29204.539;  -10.710;37883.359
607.309;28738.168;  -12.760;38748.273
607.890;27205.994;   -9.959;38850.230
608.471;27061.762;   -9.780;37457.918
609.051;28782.469;   -8.940;36066.457
609.632;29701.123;  -12.070;35991.074
610.213;29892.227;   -9.610;37402.641
610.794;30157.912;   -8.750;38383.363
611.374;30555.434;  -11.100;40562.387
611.955;30989.988;  -12.200;38533.727
612.536;30961.807;  -10.410;36951.789
613.116;30030.938;  -10.010;37197.891
613.697;28433.729;  -10.480;38411.125
614.277;28324.291;  -12.751;38673.938
614.858;27758.643;  -11.600;37075.863
615.438;27700.658;   -8.190;35092.906
616.019;26087.842;   -8.941;33666.301
616.599;27823.717;  -13.540;34189.023
617.179;31000.002;  -10.890;36952.047
617.760;30634.184;   -7.610;39582.574
618.340;28397.943;  -14.441;38943.977
618.920;27793.838;   -9.180;37594.156
619.500;30019.361;  -11.881;37866.938
620.080;31542.535;   -9.870;37869.043
620.660;30173.826;  -13.211;36868.617
621.241;28933.932;  -11.921;36352.309
621.821;28626.670;  -10.271;35459.520
622.401;29833.436;   -8.200;35207.414
622.980;31208.127;  -11.141;35980.422
623.560;30703.953;  -14.321;37351.328
624.140;29187.350;   -9.360;34388.582
624.720;25089.975;   -7.481;32368.764
625.300;22572.857;  -12.730;32638.629
625.880;26366.006;  -11.441;34599.035
626.459;30042.430;  -10.971;36831.738
627.039;33497.078;   -9.011;38299.098
627.619;34021.066;   -8.521;38289.574
628.198;32320.088;   -9.861;37220.695
628.778;31251.570;   -8.841;37632.563
629.357;31492.086;   -9.891;38003.012
629.937;31791.150;  -11.871;38402.039
630.516;31226.900;  -10.641;37868.801
631.096;32930.871;  -11.391;35760.410
631.675;34223.207;   -6.622;35225.219
632.254;31536.025;  -13.002;35130.289
632.834;30590.459;  -11.622;35794.570
633.413;31567.000;   -8.321;35788.922
633.992;29827.305;   -7.732;34532.863
634.571;29904.439;  -10.992;33590.113
635.151;29716.629;  -10.422;34943.863
635.730;30775.447;  -11.511;35352.523
636.309;31011.844;   -7.901;35366.605
636.888;30017.586;  -11.452;36165.637
637.467;28776.814;  -10.672;37515.902
638.046;29271.854;   -9.301;39288.695
638.625;30638.623;  -11.452;38279.699
639.204;31331.949;  -12.262;37741.598
639.782;31461.836;  -11.892;38364.551
640.361;30190.389;  -11.411;36740.621
640.940;25528.664;  -11.501;34950.082
641.519;27671.512;  -10.921;34137.398
642.097;31323.879;  -10.101;35654.258
642.676;30361.871;  -10.821;35637.957
643.255;31601.260;   -8.631;36567.074
643.833;33570.840;  -11.411;37809.434
644.412;36061.617;  -12.021;37337.293
644.990;36288.402;  -12.271;37018.531
645.569;34903.711;   -9.741;36518.469
646.147;32429.535;   -9.051;36186.430
646.726;32530.633;  -13.861;36267.688
647.304;33158.543;   -9.461;36647.625
647.882;33148.637;  -13.171;39286.742
648.461;33754.535;  -11.911;39157.703
649.039;32099.932;   -9.541;35412.883
649.617;31327.277;   -8.901;34744.918
650.195;29310.607;   -8.591;35403.098
650.773;28717.982;  -13.031;35053.797
651.352;27799.465;  -12.211;33756.816
651.930;25733.145;  -11.361;31868.773
652.508;22442.465;   -8.601;33121.551
653.086;24788.729;   -9.991;33564.793
653.663;29221.549;  -11.931;34054.668
654.241;31749.361;  -10.821;35693.309
654.819;33332.602;   -9.341;36422.906
655.397;31056.113;  -10.851;38213.484
655.975;29833.154;  -11.461;39507.625
656.553;30131.930;   -8.841;39498.223
657.130;29745.656;  -10.371;40395.480
657.708;30426.029;  -11.071;39242.020
658.286;30017.365;  -11.141;38920.020
658.863;31257.770;  -10.861;40202.898
659.441;35494.207;  -11.181;39677.938
660.018;35607.422;  -10.851;40413.355
660.596;35056.445;  -12.571;39931.414
661.173;35313.879;  -12.141;39604.531
661.750;34848.230;  -11.571;39700.070
662.328;32268.422;  -10.780;39292.809
662.905;30000.465;  -10.750;38235.648
663.482;26843.018;  -11.320;36212.305
664.060;26048.691;  -10.160;35944.945
664.637;30819.113;  -13.120;35170.785
665.214;32977.031;  -11.500;34197.523
665.791;31280.451;  -12.430;34549.520
666.368;29039.105;   -9.840;35118.578
666.945;28436.215;  -11.290;36019.418
667.522;29151.176;  -13.540;36048.438
668.099;29450.338;  -10.250;36243.914
668.676;28200.943;  -11.270;35958.875
669.253;27231.914;   -8.210;37384.730
669.830;26667.652;   -9.710;36779.629
670.407;25856.043;   -9.700;35231.289
670.984;26362.629;   -9.190;35544.270
671.560;25684.346;   -9.560;35466.867
672.137;25374.980;  -11.820;34280.863
672.714;28160.412;  -12.460;34632.863
673.290;32174.285;  -10.940;35135.422
673.867;32551.650;  -10.510;36114.480
674.443;29539.736;  -12.110;36152.859
675.020;31025.230;  -11.760;35327.238
675.596;31648.934;   -9.380;35795.176
676.173;30177.057;  -11.120;35430.355
676.749;29031.922;  -13.390;33549.516
677.326;28250.461;  -12.600;32210.012
677.902;27101.723;  -10.830;32068.871
678.478;27024.414;  -12.400;32583.891
679.054;29287.393;   -8.610;32088.928
679.631;29883.119;  -11.640;30978.848
680.207;29819.445;   -8.140;33160.887
680.783;30678.205;  -12.300;35570.363
681.359;29238.443;  -10.910;36125.184
681.935;29182.547;  -11.040;35240.922
682.511;30498.178;  -11.130;34429.961
683.087;31281.619;  -11.080;34463.680
683.663;33451.762;  -10.530;34648.898
684.239;32893.926;  -12.120;34546.457
684.815;30146.285;   -8.870;35586.375
685.390;29603.598;   -8.940;35821.895
685.966;29868.570;  -12.109;35085.871
686.542;28702.236;  -13.539;34198.230
687.118;28158.646;  -10.379;32847.707
687.693;28214.713;  -10.189;32794.027
688.269;26992.236;  -12.939;33072.367
688.844;26219.695;   -8.679;33141.664
689.420;27135.346;  -10.919;33965.742
689.995;27498.137;   -7.489;34655.523
690.571;27113.176;  -12.199;33576.742
691.146;27355.971;   -8.979;32657.219
691.722;28959.582;   -9.119;32526.979
692.297;27356.459;  -10.519;33014.617
692.872;26446.996;  -10.629;34012.254
693.448;26548.723;  -12.119;34237.434
694.023;27005.170;   -8.219;34142.672
694.598;25285.881;  -13.209;34132.031
695.173;24424.326;  -11.879;34205.250
695.748;25528.447;  -12.039;32882.488
696.323;25488.371;  -11.779;32864.906
696.898;26198.367;  -10.219;33170.004
697.473;27262.650;  -13.639;32432.984
698.048;27881.635;  -11.239;31649.303
698.623;30088.268;  -10.859;30778.141
699.198;31855.910;  -13.379;31140.119
699.773;32519.469;  -13.409;31764.299
700.348;33186.625;  -12.329;31780.816
700.922;33739.746;   -8.749;32046.375
701.497;33776.020;  -12.449;32603.574
702.072;32592.322;   -8.879;34799.871
702.646;30302.105;  -10.719;35793.172
703.221;28784.484;   -8.469;35201.590
703.795;28633.443;  -11.389;34764.527
704.370;28451.531;  -12.499;34307.367
704.944;28067.998;  -11.449;33509.887
705.519;27409.658;  -10.659;31388.584
706.093;26956.096;  -12.909;31340.104
706.668;27094.563;  -13.509;32630.281
707.242;26447.113;  -10.049;32728.779
707.816;24480.453;  -10.629;32947.238
708.390;23863.523;  -11.829;33277.855
708.965;24005.887;  -11.159;33834.336
709.539;24943.357;  -11.069;33709.273
710.113;24481.764;  -10.908;33044.313
710.687;23053.828;   -9.488;31953.992
711.261;23319.396;  -13.068;30505.949
711.835;26291.199;  -12.748;30262.369
712.409;27199.326;  -10.678;31254.447
712.983;26190.424;  -11.658;32754.986
713.557;26936.568;  -13.718;34018.824
714.131;27631.439;  -13.388;34579.625
714.704;27802.260;   -9.818;33890.262
715.278;28212.787;  -11.818;33531.102
715.852;29295.221;  -11.328;33601.660
716.425;29851.873;   -9.118;33515.117
716.999;30025.580;  -10.188;33185.555
717.573;30250.650;   -9.808;33905.996
718.146;32798.211;  -11.478;35199.293
718.720;32811.590;  -10.998;35060.551
719.293;30816.230;   -9.508;34973.230
719.867;30131.055;  -12.138;36394.449
720.440;28664.533;  -11.288;36663.008
721.013;30936.760;  -11.428;35102.426
721.587;32389.816;  -11.698;33985.266
722.160;33755.234;  -11.608;33524.965
722.733;32783.348;  -11.428;32987.043
723.306;31786.133;  -12.518;33066.301
723.880;31939.336;   -7.408;33399.500
724.453;30795.297;  -11.048;33468.297
725.026;29041.020;  -11.678;33816.637
725.599;27574.914;  -10.978;32797.996
726.172;26765.953;   -8.838;33187.434
726.745;27750.830;  -11.438;35136.613
727.318;28339.137;   -9.828;35751.730
727.891;26766.379;  -10.868;35890.430
728.463;25250.816;  -11.348;34822.090
729.036;24137.152;  -11.608;32895.086
729.609;24226.256;  -14.738;31823.225
730.182;25007.068;   -8.448;31445.283
730.754;25883.135;  -11.228;32373.223
731.327;26081.943;  -12.018;33676.820
731.900;28062.494;  -13.748;33417.000
732.472;28198.998;  -10.928;31978.498
733.045;26742.656;   -9.478;30368.777
733.617;25308.152;  -12.967;30574.215
734.190;24723.344;  -11.707;31280.975
734.762;23555.736;  -11.067;31674.412
735.334;22883.078;  -10.587;31247.291
735.907;22000.223;  -11.947;29876.211
736.479;22293.285;  -11.667;29808.488
737.051;24718.082;  -10.187;30233.547
737.623;27036.004;   -6.887;31469.086
738.195;29949.818;  -12.117;31784.225
738.768;31929.613;  -14.077;32120.523
739.340;31305.109;  -12.207;32094.342
739.912;28034.889;   -8.977;31312.680
740.484;25898.752;  -11.017;31946.238
741.056;26466.682;  -13.517;32984.059
741.628;28310.436;  -11.507;33897.715
742.199;28545.471;   -7.597;33213.016
742.771;29334.719;  -12.227;31369.113
743.343;28789.900;  -12.427;31865.473
743.915;27416.156;   -9.827;32388.631
744.487;26666.875;  -10.007;31079.568
745.058;25134.061;  -11.887;30570.107
745.630;24348.668;  -10.787;29970.127
746.201;23623.754;  -10.887;29186.766
746.773;23378.176;   -9.707;28805.723
747.344;24000.314;  -11.137;29591.223
747.916;24222.652;  -11.887;31412.201
748.487;23781.217;   -9.707;32194.898
749.059;23336.066;  -10.027;32533.719
749.630;23168.146;  -11.787;32158.518
750.201;22073.621;  -12.767;30855.395
750.773;21631.320;  -11.497;28622.555
751.344;22277.598;   -9.937;28405.732
751.915;22789.943;  -11.567;28461.551
752.486;22360.945;  -13.267;27842.850
753.057;20315.869;  -10.627;27845.008
753.628;18808.549;  -11.657;27728.107
754.199;21119.256;  -12.097;27381.086
754.770;22957.430;  -11.447;25882.203
755.341;22994.580;  -11.997;25886.184
755.912;20677.281;  -10.207;26050.861
756.483;18923.811;  -10.937;26798.779
757.054;18734.422;  -11.527;27048.238
757.625;18997.959;  -12.886;26294.838
758.195;19411.400;  -11.226;26142.076
758.766;19320.016;  -12.366;26392.234
759.337;18134.648;  -11.946;26334.594
759.907;18251.230;  -13.856;27579.652
760.478;19281.605;   -9.606;28352.770
761.048;19250.094;  -11.606;27325.088
761.619;19412.096;  -11.036;26460.428
762.189;18960.543;  -12.206;26029.826
762.760;20254.525;   -9.666;26430.145
763.330;21078.637;   -9.796;26670.902
763.900;19215.996;  -10.896;26603.021
764.471;17676.641;  -11.726;25542.740
765.041;18125.891;   -9.656;24358.459
765.611;19008.781;  -11.276;23991.297
766.181;18830.523;  -12.116;24470.236
766.751;18365.666;  -12.376;24845.975
767.321;18354.051;  -11.626;24533.633
767.891;18564.760;  -10.426;24916.492
768.461;17463.758;  -13.456;24776.771
769.031;15540.263;  -11.616;24757.988
769.601;15424.751;  -11.356;24181.088
770.171;15639.910;  -11.586;23670.387
770.741;15998.886;  -12.696;22960.045
771.311;16089.074;  -10.226;22917.523
771.880;15808.140;  -11.146;23562.941
772.450;16447.354;  -11.716;24216.500
773.020;16777.734;  -13.226;24140.398
773.589;16581.078;  -12.586;24414.857
774.159;16449.271;  -10.246;23858.717
774.729;16076.737;  -11.586;22942.135
775.298;15112.461;  -15.926;22324.033
775.867;14976.128;  -10.426;21140.313
776.437;14829.353;  -11.416;20838.092
777.006;13411.008;  -12.766;20599.510
777.576;13389.653;  -13.666;20508.809
778.145;13817.110;  -10.066;20732.947
778.714;13523.132;  -10.276;21062.465
779.283;13921.788;  -12.086;20949.664
779.853;15312.782;  -14.016;20508.623
780.422;15761.687;  -12.376;20649.082
780.991;14552.491;   -9.246;21527.520
781.560;13506.603;   -9.775;22632.658
782.129;13326.774;  -12.495;23048.277
782.698;13079.690;  -11.775;23438.555
783.267;13378.642;  -10.065;23267.734
783.836;14151.204;  -12.455;22415.133
784.404;15001.535;  -13.385;20443.152
784.973;15738.898;  -11.045;19699.150
785.542;15203.177;   -9.505;19763.828
786.111;14153.501;   -9.385;20341.408
786.679;14064.132;  -13.475;20207.967
787.248;14140.178;  -11.245;19516.465
787.817;12250.319;  -12.485;18900.363
788.385;10508.078;  -11.165;17879.121
788.954;11112.621;  -11.755;17658.301
789.522;11985.342;   -9.625;17788.879
790.090;11716.414;   -9.665;18118.277
790.659;11244.210;   -9.295;18338.736
791.227;12144.318;  -12.175;18508.615
791.795;13556.345;  -12.145;17898.254
792.364;13451.388;  -11.575;17295.133
792.932;12120.145;  -11.085;16822.051
793.500;10916.997;  -11.345;17040.148
794.068;10758.455;  -12.565;17179.787
794.636;11814.515;  -12.105;16664.246
795.204;12389.754;  -11.995;16524.545
795.772;11834.154;  -12.615;17274.564
796.340;11483.934;  -12.425;17891.002
796.908;11305.914;  -11.455;17648.561
797.476;10714.952;  -12.165;17064.080
798.044;10293.073;  -15.795;16672.777
798.612;10394.779;  -10.985;17023.996
799.180;11058.501;  -12.055;16561.615
799.747;11469.209;  -12.525;15962.773
800.315;10396.721;  -14.765;15296.992
800.883; 9150.746;  -12.435;14801.771
801.450; 8989.821;  -11.295;14534.430
802.018; 9452.439;  -11.185;14173.248
802.585; 9415.523;  -11.625;14029.547
803.153; 8435.364;  -10.665;13836.846
803.720; 8039.179;  -10.275;13567.324
804.287; 7915.167;  -12.865;13360.622
804.855; 8104.228;  -12.324;13681.981
805.422; 8395.269;  -11.574;13536.560
805.989; 8286.518;  -11.004;13355.958
806.556; 8513.866;  -12.214;13747.896
807.124; 8925.865;  -13.304;13987.376
807.691; 8677.824;  -12.034;14038.674
808.258; 8044.847;  -11.014;14120.152
808.825; 7982.264;  -11.804;13860.111
809.392; 7892.618;  -11.544;13268.790
809.959; 7683.923;  -14.954;12680.389
810.526; 7977.299;  -10.214;12427.308
811.093; 8475.987;  -10.754;12030.105
811.659; 8125.355;  -12.194;11653.664
812.226; 6925.825;   -9.194;11637.183
812.793; 6562.406;   -9.644;11611.521
813.360; 7388.422;  -11.544;11885.181
813.926; 8241.291;  -12.814;12770.539
814.493; 8197.501;  -11.524;12677.638
815.060; 7947.717;  -12.254;11974.336
815.626; 7530.249;  -12.114;11594.715
816.193; 7144.420;  -11.994;11579.474
816.759; 6985.308;  -11.464;11666.972
817.325; 6668.470;  -10.444;11325.530
817.892; 6358.728;  -11.124;11105.369
818.458; 6192.818;  -11.864;10843.928
819.024; 6421.313;  -10.634;10714.406
819.591; 6513.894;  -10.554;10469.165
820.157; 6865.998;  -13.334;10235.523
820.723; 7224.474;  -13.044;10847.563
821.289; 7362.470;   -9.664;11040.980
821.855; 7521.295;  -10.994;10357.100
822.421; 7500.139;  -11.784; 9978.918
822.987; 7450.938;  -12.554; 9754.177
823.553; 7873.599;  -12.554;10065.755
824.119; 7747.226;   -8.544;10036.294
824.685; 6816.160;  -12.144;10029.192
825.251; 6222.905;  -12.754;10199.230
825.816; 5776.473;  -11.354; 9820.189
826.382; 5506.967;  -11.004; 9297.248
826.948; 5586.843;  -11.004; 9381.347
827.513; 5522.385;  -12.474; 9450.726
828.079; 5463.494;  -13.084; 9472.444
828.645; 5609.363;  -10.813; 9292.643
829.210; 5374.626;  -11.593; 9065.341
829.776; 5224.588;  -12.633; 9132.620
830.341; 5228.613;  -10.473; 9092.878
830.906; 5047.974;   -8.763; 9078.557
831.472; 4757.810;  -13.453; 8534.535
832.037; 4146.238;  -12.173; 8677.874
832.602; 3919.605;  -14.093; 8628.692
833.167; 4205.559;  -13.593; 8879.031
833.733; 4756.017;  -10.793; 9189.790
834.298; 5163.896;  -14.783; 9052.608
834.863; 4788.244;  -11.023; 8895.087
835.428; 4538.242;  -11.113; 8824.266
835.993; 4980.002;   -9.983; 8845.385
836.558; 5228.479;  -13.003; 8888.563
837.123; 5027.305;  -10.733; 8966.582
837.688; 4623.181;   -9.683; 8617.860
838.253; 4456.616;  -12.253; 8590.699
838.817; 4461.889;  -11.643; 8443.797
839.382; 4401.063;  -11.953; 8799.356
839.947; 4465.986;  -11.443; 8810.595
840.511; 4809.367;  -10.843; 8796.394
841.076; 5070.301;  -13.533; 8347.231
841.641; 4889.947;  -11.743; 8224.330
842.205; 4357.372;  -10.013; 8223.349
842.770; 4043.304;  -11.023; 8622.107
843.334; 4119.257;  -14.273; 8410.386
843.898; 4516.229;  -11.323; 8337.465
844.463; 4917.398;  -10.263; 8506.283
845.027; 5105.676;  -10.353; 8280.962
845.591; 5068.636;  -12.163; 8231.141
846.156; 4923.700;  -12.263; 7969.179
846.720; 4885.375;  -11.553; 7768.278
847.284; 4676.765;  -12.393; 7630.957
847.848; 3886.518;  -12.623; 7472.395
848.412; 3284.203;  -11.863; 7437.394
848.976; 3233.572;  -10.203; 7674.592
849.540; 3452.063;  -10.603; 7836.011
850.104; 3686.537;  -12.423; 7913.669
850.668; 3741.423;  -14.613; 7694.508
851.232; 3814.954;  -12.873; 7756.887
851.796; 4082.688;  -14.192; 7926.545
852.359; 4261.602;  -13.652; 7827.844
852.923; 4121.175;  -11.402; 7641.163
853.487; 3758.033;  -12.022; 7342.501
854.050; 3562.333;  -15.202; 7042.820
854.614; 3648.001;  -14.592; 7151.338
855.177; 3835.742;  -12.572; 7105.077
855.741; 4157.345;   -9.932; 6989.675
856.304; 4295.966;  -12.192; 6596.634
856.868; 3986.552;  -13.462; 6356.272
857.431; 3397.478;  -11.542; 6468.571
857.995; 2716.789;  -12.062; 6373.210
858.558; 2001.440;  -11.142; 6324.448
859.121; 1725.846;  -11.742; 6408.327
859.684; 1890.888;  -10.332; 6347.886
860.247; 2176.733;  -11.962; 6321.264
860.810; 2393.354;  -12.332; 6301.903
861.374; 2455.117;  -10.292; 6607.881
861.937; 2476.947;  -12.062; 6408.200
862.500; 2628.984;  -11.702; 6572.639
863.062; 2826.257;  -13.852; 6387.297
863.625; 2934.832;  -12.972; 6190.836
864.188; 2929.485;  -10.292; 5807.254
864.751; 2913.712;  -12.382; 5682.413
865.314; 2737.391;  -13.232; 5547.492
865.876; 2413.938;  -12.772; 5500.150
866.439; 2154.457;  -11.952; 5415.909
867.002; 2207.323;   -9.332; 5501.567
867.564; 2517.096;  -11.712; 5413.946
868.127; 2686.195;  -12.012; 5160.325
868.689; 2393.292;  -11.882; 5133.183
869.252; 2066.653;  -11.572; 5252.382
869.814; 1983.597;  -10.692; 5297.141
870.377; 2038.606;  -12.392; 5390.919
870.939; 2106.010;  -10.582; 5599.898
871.501; 2138.313;  -12.782; 5248.336
872.063; 2162.909;  -15.612; 4854.235
872.626; 2218.831;  -13.922; 4817.074
873.188; 2200.630;  -13.832; 4987.732
873.750; 2141.522;  -10.962; 4868.651
874.312; 2185.416;  -11.022; 4779.330
874.874; 2228.381;  -13.152; 4866.348
875.436; 2157.905;  -13.401; 4718.887
875.998; 2064.813;   -8.891; 4660.005
876.560; 1992.955;  -12.591; 4462.964
877.122; 1940.269;  -14.531; 4145.042
877.683; 1895.022;  -10.781; 4056.481
878.245; 1790.398;  -14.281; 3950.740
878.807; 1733.360;  -10.311; 4058.958
879.369; 1690.948;  -13.201; 3954.677
879.930; 1647.146;  -12.061; 3941.495
880.492; 1638.520;   -9.181; 4067.014
881.053; 1665.085;  -12.051; 3859.633
881.615; 1642.758;  -11.501; 3776.071
882.176; 1554.603;  -12.221; 3734.750
882.738; 1450.243;   -8.931; 3678.489
883.299; 1380.591;  -13.571; 3405.407
883.860; 1386.774;  -12.331; 3351.106
884.422; 1330.407;  -10.201; 3394.044
884.983; 1202.249;  -12.521; 3166.443
885.544; 1084.604;  -12.291; 3189.802
886.105; 1024.539;  -12.991; 3160.360
886.666; 1006.246;  -12.901; 3093.059
887.227;  993.367;  -12.061; 2941.957
887.788;  969.504;  -11.641; 2974.836
888.349;  924.945;  -14.691; 2721.214
888.910;  877.815;   -9.681; 2696.493
889.471;  867.727;   -9.971; 2560.172
890.032;  875.936;  -13.151; 2558.190
890.593;  853.112;  -12.051; 2567.669
891.153;  810.557;  -12.841; 2460.307
891.714;  775.945;  -13.561; 2372.046
892.275;  742.651;  -12.401; 2309.505
892.835;  705.249;  -13.191; 2382.543
893.396;  669.557;  -12.551; 2295.502
893.956;  651.864;  -11.981; 2162.420
894.517;  638.531;  -12.221; 2125.439
895.077;  605.550;  -12.021; 2086.978
895.638;  545.063;  -10.891; 2126.316
896.198;  487.083;  -13.171; 1838.275
896.758;  451.601;  -11.891; 1892.813
897.319;  427.753;  -12.491; 1792.232
897.879;  410.416;  -12.401; 1762.751
898.439;  383.082;  -13.431; 1661.149
898.999;  365.387;  -11.340; 1781.468
899.559;  357.010;  -13.930; 1703.347
900.119;  338.876;  -13.730; 1537.525
900.679;  320.806;   -9.210; 1638.384
901.239;  304.107;  -10.860; 1527.902
901.799;  285.936;  -11.450; 1456.441
902.359;  267.405;  -13.800; 1357.140
902.919;  260.121;  -12.130; 1331.118
903.479;  261.381;  -12.650; 1317.257
904.038;  256.448;  -16.110; 1262.595
904.598;  241.404;  -13.690; 1152.034
905.158;  229.422;  -10.290; 1240.893
905.717;  222.680;  -10.670; 1233.691
906.277;  222.037;  -14.040; 1217.330
906.836;  221.348;  -13.510; 1222.408
907.396;  216.501;  -11.530; 1193.047
907.955;  204.992;  -13.190; 1182.526
908.515;  192.899;  -12.950; 1099.364
909.074;  184.601;  -12.390; 1092.863
909.633;  181.114;  -10.340; 1069.121
910.192;  179.557;  -11.170; 1196.460
910.752;  175.452;  -14.200; 1029.960
911.311;  170.029;  -13.810; 1009.780
911.870;  165.665;  -12.750;  971.460
912.429;  165.467;  -12.380; 1094.080
912.988;  162.916;  -11.930; 1081.060
913.547;  156.604;  -10.990;  940.380
914.106;  153.919;  -11.200;  999.420
914.665;  152.007;  -13.150;  984.020
915.224;  150.476;  -13.310; 1035.760
915.782;  147.737;  -13.340;  922.560
916.341;  148.132;  -10.710; 1049.840
916.900;  144.634;  -12.980;  925.260
917.458;  143.242;  -13.060;  884.220
918.017;  141.459;  -10.900;  942.600
918.576;  140.268;  -11.630;  904.440
919.134;  140.553;  -12.860;  837.980
919.693;  140.976;  -15.160;  893.060
920.251;  139.481;  -13.470;  876.500
920.809;  139.991;  -13.700;  839.580
921.368;  140.406;  -13.420;  885.360
921.926;  140.387;  -14.710;  842.940
922.484;  139.389;  -12.560;  903.360
923.042;  139.780;  -11.930;  880.340
923.601;  140.618;  -10.270;  998.680
924.159;  139.065;  -12.960;  935.560
924.717;  138.300;  -13.040;  841.080
925.275;  140.632;  -12.560;  903.240
925.833;  141.348;  -13.040;  779.320
926.391;  143.085;  -13.360;  938.380
926.949;  141.774;  -13.940;  857.680
927.506;  142.779;   -9.400;  903.500
928.064;  143.643;  -10.940;  877.580
928.622;  142.600;  -13.180;  880.100
929.180;  143.059;  -12.730;  814.180
929.737;  144.574;  -12.840;  808.540
930.295;  148.034;  -11.810;  928.480
930.853;  151.709;  -13.650;  849.100
931.410;  154.244;  -13.580;  821.120
931.968;  154.520;  -12.020;  940.660
932.525;  155.874;  -13.320;  909.380
933.082;  157.671;  -13.800;  811.440
933.640;  162.677;  -11.380;  925.900
934.197;  165.359;  -11.480;  886.360
934.754;  168.281;  -13.220;  897.780
935.312;  164.803;  -14.950;  863.340
935.869;  158.116;  -10.940; 1012.980
936.426;  149.759;  -12.100;  872.800
936.983;  145.201;  -12.930;  889.020
937.540;  143.317;  -14.250;  838.280
938.097;  146.144;  -12.600;  940.120
938.654;  153.528;  -11.260;  898.860
939.211;  159.117;  -13.020;  952.480
939.768;  163.110;  -15.760;  915.420
940.324;  166.107;  -13.920;  904.200
940.881;  161.849;  -11.620;  878.500
941.438;  161.125;   -9.870; 1021.200
941.995;  159.462;  -13.920;  992.560
942.551;  159.091;  -12.830;  875.620
943.108;  161.753;  -11.980;  937.920
943.664;  165.373;  -13.740;  869.340
944.221;  170.427;  -12.670; 1088.140
944.777;  168.572;  -13.250;  869.680
945.334;  167.782;  -13.000;  884.840
945.890;  169.718;  -13.020;  946.480
946.446;  170.780;  -13.880;  947.020
947.003;  173.539;  -12.660;  964.940
947.559;  173.985;   -8.730; 1063.040
948.115;  170.336;  -11.960; 1026.540
948.671;  166.821;  -12.360;  967.300
949.227;  162.455;  -12.700;  859.560
949.783;  159.018;  -13.450;  858.900
950.339;  158.444;  -10.620;  991.000
950.895;  155.746;  -14.770; 1023.840
951.451;  152.649;  -13.650;  925.280
952.007;  152.553;  -11.180;  998.540
952.563;  151.344;  -11.680;  937.780
953.118;  152.163;  -13.280;  904.940
953.674;  154.140;  -12.510;  935.780
954.230;  153.588;  -12.220;  949.640
954.785;  150.091;  -12.190;  936.640
955.341;  144.691;  -12.270;  998.160
955.897;  138.802;  -14.900;  834.660
956.452;  140.139;  -12.520;  953.840
957.008;  140.562;   -9.410; 1083.640
957.563;  139.130;  -11.280; 1009.540
958.118;  136.036;  -13.470;  877.700
958.674;  138.455;  -12.190;  946.780
959.229;  139.392;  -12.760; 1013.980
959.784;  144.900;  -15.710;  832.400
960.339;  150.755;  -12.540; 1001.280
960.894;  151.509;  -11.680;  963.760
961.449;  147.661;  -11.410;  859.960
962.004;  146.945;  -10.430; 1212.840
962.559;  140.472;  -14.040;  860.140
963.114;  137.380;  -14.270;  742.480
963.669;  138.410;  -11.320;  915.500
964.224;  137.262;  -14.620;  874.340
964.779;  135.113;  -14.150;  828.420
965.334;  135.235;  -10.850; 1017.860
965.888;  134.672;  -14.530;  875.360
966.443;  136.621;  -13.520;  972.380
966.998;  132.365;  -13.370;  819.460
967.552;  129.252;   -9.960;  908.380
968.107;  124.877;  -12.360;  868.300
968.661;  126.093;  -12.270;  922.440
969.216;  125.190;  -12.140;  856.280
969.770;  124.687;  -11.860;  917.200
970.324;  124.902;  -12.170;  923.140
970.879;  122.784;  -14.160;  947.180
971.433;  121.227;  -12.940;  952.720
971.987;  116.741;  -10.180;  895.340
972.541;  115.959;  -12.130;  917.100
973.095;  116.980;  -14.980; 1009.460
973.649;  114.586;  -14.480;  809.480
974.203;  115.861;  -13.530;  829.040
974.757;  118.694;  -12.060;  855.220
975.311;  116.992;  -13.240;  872.600
975.865;  114.564;  -12.550;  881.820
976.419;  112.701;  -13.180;  857.400
976.973;  112.536;  -14.100;  849.620
977.526;  112.266;  -13.330;  949.920
978.080;  108.131;  -15.390;  796.780
978.634;  108.403;  -11.670;  921.320
979.187;  105.549;  -10.640;  905.400
979.741;  105.179;  -13.330; 1018.380
980.294;  100.553;  -14.480;  789.160
980.848;   98.371;  -13.420;  717.220
981.401;   96.241;  -12.360;  816.540
981.955;   94.447;  -12.480;  844.300
982.508;   90.474;  -14.000;  746.340
983.061;   91.489;  -10.440;  915.260
983.615;   87.561;  -14.340;  798.800
984.168;   84.734;  -14.950;  770.080
984.721;   84.964;  -13.270;  880.760
985.274;   83.486;  -12.240;  867.500
985.827;   79.972;  -12.720;  834.220
986.380;   76.585;  -14.920;  721.340
986.933;   75.943;  -12.860;  864.800
987.486;   74.897;  -10.440;  861.920
988.039;   74.378;  -11.820;  863.100
988.591;   73.236;  -13.760;  893.260
989.144;   70.917;  -14.080;  737.260
989.697;   71.931;  -13.440;  758.740
990.250;   73.003;  -12.050;  858.100
990.802;   71.706;  -14.550;  755.860
991.355;   71.860;  -10.770;  974.880
991.907;   69.325;  -11.710;  864.320
992.460;   66.789;  -12.650;  753.760
993.012;   65.511;  -13.860;  749.540
993.565;   62.997;  -14.310;  711.360
994.117;   63.565;   -9.920;  950.780
994.669;   60.654;  -13.420;  701.320
995.221;   59.567;  -14.200;  791.920
995.774;   59.665;  -13.400;  787.580
996.326;   57.637;  -11.850;  740.220
996.878;   58.046;  -12.230;  838.420
997.430;   55.686;  -14.260;  699.860
997.982;   55.785;  -11.430;  750.140
998.534;   54.612;  -11.590;  739.060
999.086;   54.484;  -11.960;  738.220
999.638;   53.100;  -13.640;  661.380
1000.190;   52.630;  -13.660;  699.320
1000.741;   52.108;   -9.980;  742.700
1001.293;   51.349;  -11.860;  686.020
1001.845;   50.614;  -14.280;  676.640
1002.396;   50.968;  -12.270;  743.400
1002.948;   50.394;  -13.670;  737.400
1003.500;   49.906;  -12.010;  723.780
1004.051;   50.263;  -11.890;  907.580
1004.603;   49.168;  -11.220;  791.820
1005.154;   44.854;  -13.210;  608.980
1005.705;   44.023;  -11.850;  723.960
1006.257;   44.757;  -13.670;  707.220
1006.808;   43.196;  -12.060;  685.460
1007.359;   42.539;  -10.250;  763.240
1007.910;   41.301;  -13.440;  646.640
1008.461;   41.642;  -13.170;  732.940
1009.013;   39.320;  -14.590;  588.340
1009.564;   41.084;  -12.100;  793.520
1010.115;   38.607;  -14.000;  597.040
1010.665;   38.285;  -15.020;  602.160
1011.216;   38.673;  -12.560;  667.920
1011.767;   38.174;  -11.330;  697.920
1012.318;   38.813;  -11.450;  736.980
1012.869;   37.767;  -11.000;  679.000
1013.419;   37.304;  -11.760;  603.120
1013.970;   37.235;  -11.800;  666.640
1014.521;   36.307;  -14.750;  620.620
1015.071;   37.026;  -14.430;  670.380
1015.622;   36.009;  -14.170;  635.460
1016.172;   35.526;  -11.700;  596.820
1016.723;   35.185;  -13.230;  614.380
1017.273;   35.765;  -16.120;  604.160
1017.823;   35.247;  -13.360;  650.340
1018.374;   34.540;  -13.710;  611.760
1018.924;   35.365;  -11.050;  716.880
1019.474;   35.827;  -14.120;  718.880
1020.024;   33.889;  -12.990;  657.580
1020.574;   34.493;  -12.010;  726.160
1021.124;   34.720;  -12.080;  673.580
1021.674;   32.952;  -15.860;  559.120
1022.224;   34.632;  -11.710;  708.940
1022.774;   33.008;  -13.030;  668.820
1023.324;   34.710;  -11.000;  753.520
1023.874;   35.456;  -13.270;  875.760
1024.423;   32.331;  -14.570;  613.700
1024.973;   32.347;  -12.620;  610.760
1025.523;   31.493;  -12.630;  620.960
1026.072;   30.975;  -14.110;  606.420
1026.622;   31.143;  -15.390;  675.740
1027.172;   32.085;   -9.090;  715.660
1027.721;   30.433;  -12.250;  601.220
1028.270;   31.032;  -15.590;  663.400
1028.820;   30.294;  -13.840;  638.080
1029.369;   30.317;  -13.170;  612.700
1029.918;   30.460;  -14.080;  649.840
1030.468;   29.822;  -13.860;  564.780
1031.017;   30.211;  -12.970;  634.800
1031.566;   29.395;  -12.320;  608.900
1032.115;   30.522;  -13.140;  694.500
1032.664;   28.379;  -14.560;  596.480
1033.213;   29.214;  -11.620;  735.420
1033.762;   28.612;  -13.190;  635.620
1034.311;   28.590;  -13.460;  677.220
1034.860;   28.977;  -15.770;  691.000
1035.408;   28.645;  -13.100;  722.720
1035.957;   29.217;  -12.880;  719.540
1036.506;   26.466;  -13.640;  530.800
1037.055;   30.460;  -12.420;  844.320
1037.603;   28.078;  -13.740;  664.000
1038.152;   25.813;  -13.840;  534.760
1038.700;   26.313;  -10.770;  585.740
1039.249;   27.707;  -13.520;  681.220
1039.797;   26.827;  -13.060;  633.360
1040.345;   26.454;  -11.760;  705.420
1040.894;   26.692;  -10.790;  625.300
1041.442;   26.283;  -15.420;  632.200
1041.990;   25.357;  -14.550;  559.160
1042.538;   24.447;  -15.620;  536.180
1043.087;   24.929;  -14.940;  570.860
1043.635;   26.682;  -12.100;  670.500
1044.183;   25.071;  -13.200;  586.400
1044.731;   25.417;  -11.630;  576.000
1045.279;   24.562;  -14.200;  674.920
1045.827;   27.319;  -12.510;  892.400
1046.374;   23.972;  -14.960;  515.420
1046.922;   23.076;  -11.850;  590.580
1047.470;   24.882;  -13.770;  691.300
1048.018;   24.496;  -15.380;  647.960
1048.565;   24.734;  -14.010;  708.600
1049.113;   22.664;  -14.620;  557.000
1049.660;   23.274;  -14.940;  629.660
1050.208;   24.074;  -14.540;  675.640
1050.755;   22.844;  -13.710;  606.580
1051.303;   24.164;  -11.880;  686.820
1051.850;   22.591;  -12.160;  635.120
1052.397;   21.060;  -15.110;  473.960
1052.945;   21.550;  -14.770;  617.760
1053.492;   23.559;  -12.320;  741.840
1054.039;   23.552;  -13.290;  720.180
1054.586;   21.320;  -15.210;  557.240
1055.133;   22.691;  -12.920;  693.140
1055.680;   22.436;  -12.610;  646.620
1056.227;   21.081;  -12.620;  542.780
1056.774;   23.199;  -13.010;  794.980
1057.321;   20.547;  -16.180;  523.260
1057.868;   21.245;  -11.230;  651.320
1058.415;   20.844;  -10.890;  651.980
1058.961;   21.839;  -12.530;  678.940
1059.508;   21.636;  -14.120;  643.820
1060.055;   20.405;  -13.340;  581.780
1060.601;   20.821;  -12.920;  624.300
1061.148;   20.303;  -14.430;  616.820
1061.694;   19.599;  -14.140;  592.580
1062.241;   20.199;  -12.550;  596.320
1062.787;   20.705;  -13.370;  663.140
1063.334;   22.225;  -12.260;  808.560
1063.880;   20.216;  -10.800;  668.360
1064.426;   20.617;   -9.920;  706.820
1064.972;   19.019;  -12.970;  601.340
1065.518;   17.983;  -14.440;  566.640
1066.065;   18.667;  -12.680;  624.460
1066.611;   18.779;  -13.520;  598.800
1067.157;   19.469;  -11.100;  641.860
1067.703;   19.259;  -14.100;  668.480
1068.249;   18.888;  -13.750;  605.220
1068.794;   18.941;  -11.070;  626.880
1069.340;   17.732;  -13.210;  578.960
1069.886;   18.429;  -14.850;  590.700
1070.432;   16.992;  -14.580;  541.720
1070.977;   16.789;  -12.930;  601.080
1071.523;   17.740;  -11.970;  573.060
1072.068;   17.842;  -13.730;  582.000
1072.614;   16.777;  -14.550;  527.760
1073.160;   17.874;  -13.690;  687.040
1073.705;   16.877;  -14.780;  572.520
1074.250;   16.783;  -15.430;  559.900
1074.796;   17.883;  -11.620;  655.160
1075.341;   17.831;  -11.580;  664.100
1075.886;   17.250;  -13.190;  594.240
1076.431;   17.269;  -13.630;  649.880
1076.976;   16.431;  -11.670;  639.220
1077.521;   15.576;  -11.600;  583.080
1078.067;   15.291;  -13.920;  579.400
1078.612;   15.949;  -12.910;  661.620
1079.156;   15.583;  -15.340;  601.540
1079.701;   15.801;  -12.560;  693.260
1080.246;   16.614;  -12.490;  696.300
1080.791;   16.229;  -14.550;  625.020
1081.336;   16.000;  -15.210;  659.320
1081.880;   15.660;  -11.280;  649.680
1082.425;   15.188;  -12.830;  573.480
1082.970;   16.818;  -11.680;  717.040
1083.514;   15.010;  -15.500;  597.000
1084.059;   14.627;  -11.770;  586.720
1084.603;   14.389;  -13.480;  565.840
1085.147;   14.427;  -13.940;  645.220
1085.692;   15.304;  -13.170;  716.800
1086.236;   12.835;  -15.740;  503.140
1086.780;   15.656;  -10.750;  751.440
1087.325;   15.025;  -14.900;  654.620
1087.869;   14.486;  -15.160;  610.700
1088.413;   14.789;  -11.030;  705.040
1088.957;   12.527;  -15.210;  543.400
1089.501;   14.991;  -12.310;  766.640
1090.045;   14.777;  -12.790;  726.480
1090.589;   11.729;  -14.040;  569.920
1091.133;   13.392;  -12.800;  673.340
1091.676;   13.625;  -13.600;  591.940
1092.220;   13.010;  -12.960;  600.920
1092.764;   13.305;  -10.830;  706.960
1093.307;   13.648;  -12.390;  673.780
1093.851;   12.377;  -15.850;  556.540
1094.395;   13.076;  -12.980;  683.140
1094.938;   12.959;  -13.670;  632.520
1095.482;   11.547;  -12.740;  559.800
1096.025;   13.276;  -13.340;  710.880
1096.568;   14.022;  -10.500;  779.280
1097.112;   10.034;  -13.500;  508.180
1097.655;   12.774;  -13.060;  603.000
1098.198;   10.843;  -13.240;  600.180
1098.741;   11.080;  -15.490;  612.860
1099.285;   11.878;  -13.410;  657.300
1099.828;    9.520;  -15.640;  439.400
1100.371;   12.166;  -13.980;  608.160
1100.914;   11.573;  -13.990;  682.660
1101.457;   11.572;  -15.030;  679.900
1101.999;    9.695;  -12.480;  584.680
1102.542;   12.005;  -12.410;  641.440
1103.085;   10.604;  -14.730;  658.500
1103.628;   10.811;  -12.190;  762.060
1104.170;   10.170;  -12.360;  588.280
1104.713;   10.890;  -13.350;  646.700
1105.256;    9.696;  -14.930;  557.440
1105.798;    9.108;  -15.150;  499.980
1106.341;   11.430;  -13.230;  728.900
1106.883;    9.080;  -14.680;  521.340
1107.425;   10.483;  -14.810;  668.180
1107.968;    9.141;  -12.940;  612.380
1108.510;   10.506;  -10.550;  684.960
1109.052;    8.420;  -15.640;  612.620
1109.594;    9.105;  -14.440;  554.440
1110.136;    9.532;  -11.380;  643.220
1110.679;    8.201;  -13.090;  633.080
1111.221;    9.447;  -14.230;  604.460
1111.763;    8.192;  -14.260;  559.220
1112.304;    7.643;  -14.510;  547.140
1112.846;    9.184;  -14.700;  666.240
1113.388;   11.969;  -12.270;  942.180
1113.930;    9.344;  -13.340;  694.200
1114.472;    8.073;  -12.560;  606.540
1115.013;    6.993;  -14.280;  551.280
1115.555;    7.641;  -14.010;  587.100
1116.097;    7.250;  -14.730;  579.480
1116.638;    8.647;  -12.160;  684.600
1117.180;    8.962;  -14.320;  667.740
1117.721;    7.587;  -15.730;  568.580
1118.262;    8.143;  -13.480;  677.960
1118.804;    7.809;  -11.530;  637.340
1119.345;    6.886;  -13.540;  578.400
1119.886;    8.938;  -14.470;  704.040
1120.427;    7.329;  -13.030;  589.020
1120.969;    7.090;  -13.150;  597.920
1121.510;    6.477;  -13.940;  563.060
1122.051;    7.811;  -12.310;  723.580
1122.592;    5.934;  -13.870;  655.420
1123.133;    5.501;  -12.890;  547.940
1123.673;    7.395;  -13.300;  706.480
1124.214;    6.231;  -14.000;  612.460
1124.755;    6.934;  -13.210;  639.460
1125.296;    6.686;  -13.450;  627.320
1125.836;    7.696;  -12.610;  691.500
1126.377;    5.784;  -15.840;  599.660
1126.918;    6.445;  -11.830;  614.980
1127.458;    5.234;  -11.830;  622.220
1127.999;    6.838;  -11.490;  656.980
1128.539;    6.435;  -12.900;  694.240
1129.079;    6.148;  -14.910;  632.720
1129.620;    5.144;  -12.920;  558.100
1130.160;    4.281;  -14.640;  539.480
1130.700;    5.818;  -13.270;  640.840
1131.240;    5.944;  -14.110;  643.700
1131.781;    5.104;  -13.130;  619.680
1132.321;    4.767;  -15.220;  599.120
1132.861;    4.439;  -15.670;  564.200
1133.401;    4.084;  -13.970;  593.940
1133.941;    5.049;  -13.740;  626.280
1134.481;    3.829;  -13.200;  597.580
1135.020;    4.735;  -14.830;  609.160
1135.560;    4.809;  -14.590;  674.940
1136.100;    3.056;  -13.730;  501.160
1136.640;    3.720;  -15.240;  510.480
1137.179;    3.232;  -14.710;  537.960
1137.719;    4.144;  -14.090;  605.400
1138.258;    3.859;  -12.470;  587.360
1138.798;    4.896;  -12.580;  663.780
1139.337;    3.071;  -16.480;  482.840
1139.877;    4.365;  -13.970;  642.360
1140.416;    5.973;   -9.870;  878.060
1140.955;    2.425;  -14.860;  535.380
1141.494;    3.685;  -14.530;  669.280
1142.034;    2.103;  -13.940;  583.520
1142.573;    4.329;  -11.160;  646.280
1143.112;    2.737;  -15.050;  553.480
1143.651;    3.650;  -15.390;  536.480
1144.190;    4.208;  -12.990;  691.640
1144.729;    3.122;  -12.220;  607.420
1145.267;    3.559;  -14.020;  584.900
1145.806;    4.023;  -12.740;  637.040
1146.345;    2.537;  -14.810;  635.020
1146.884;    2.388;  -12.920;  622.500
1147.422;    2.251;  -13.930;  533.060
1147.961;    4.546;  -11.830;  708.460
1148.500;    3.208;  -12.710;  669.720
1149.038;    3.206;  -14.420;  632.500
1149.577;    2.681;  -13.920;  698.640
1150.115;    0.832;  -17.050;  452.280
1150.653;    2.421;  -14.890;  607.340
1151.192;    2.250;  -15.270;  552.920
1151.730;    2.545;  -13.160;  652.560
1152.268;    1.966;  -15.430;  589.520
1152.806;    1.951;  -15.880;  571.180
1153.344;    0.837;  -13.240;  577.640
1153.882;    2.547;  -13.010;  600.060
1154.421;    0.513;  -16.180;  470.620
1154.958;    0.847;  -13.880;  595.240
1155.496;    2.718;  -13.590;  645.280
1156.034;    2.192;  -11.910;  721.880
1156.572;    3.032;  -12.010;  667.060
1157.110;    0.370;  -16.250;  473.940
1157.647;    2.060;  -15.230;  676.960
1158.185;    0.998;  -13.770;  564.320
1158.723;   -0.052;  -15.300;  509.200
1159.260;    1.593;  -13.130;  701.700
1159.798;    2.260;  -11.300;  658.160
1160.335;    0.401;  -13.210;  631.820

