
Integration time [ms]:   3.882
Averaging Nr. [scans]: 1000
Smoothing Nr. [pixels]: 0
Data measured with spectrometer [name]: 7414430SP
Wave   ;Sample   ;Dark     ;Reference
[nm]   ;[counts] ;[counts] ;[counts] 

288.544;  143.388;    7.153;  793.890
289.143;  146.412;    8.402;  681.602
289.742;  147.667;    7.062;  828.814
290.341;  133.496;    0.191;  789.841
290.940;  123.219;    0.321;  730.702
291.538;  123.874;    3.811;  881.108
292.137;  123.311;   -3.438;  792.581
292.736;  126.467;   -2.809;  975.101
293.335;  123.401;   -5.239;  735.086
293.934;  124.560;   -4.939;  781.677
294.532;  123.898;   -2.199; 1031.958
295.131;  110.378;   -6.831;  834.394
295.730;  110.544;   -6.620;  809.588
296.328;  107.887;   -6.471;  783.442
296.927;  107.670;   -6.571;  779.652
297.525;  108.285;   -7.391;  781.236
298.124;   99.948;   -9.402;  654.009
298.722;  105.308;   -5.781;  761.933
299.321;  102.638;   -6.351;  708.597
299.919;  100.484;   -8.661;  751.918
300.518;   95.875;  -11.922;  689.338
301.116;   97.056;   -6.941;  691.381
301.715;   97.725;   -5.471;  730.222
302.313;   96.369;   -8.361;  704.943
302.911;   92.581;   -9.082;  733.830
303.509;   98.008;   -4.571;  925.627
304.108;   94.678;   -7.111;  760.383
304.706;   94.738;   -7.681;  801.664
305.304;   89.323;   -9.162;  796.707
305.902;   95.125;   -6.761;  784.484
306.500;   90.335;   -6.921;  728.200
307.098;   88.453;   -6.491;  746.560
307.696;   86.827;   -6.941;  780.432
308.294;   86.814;   -6.301;  731.359
308.892;   89.372;   -4.771;  759.769
309.490;   85.414;   -5.141;  712.161
310.088;   82.549;   -2.912;  788.444
310.686;   87.167;   -0.421;  821.749
311.284;   82.909;   -3.461;  766.040
311.882;   81.743;   -6.282;  731.225
312.480;   78.643;   -3.632;  697.167
313.078;   80.036;   -2.112;  808.331
313.675;   81.099;   -1.931;  691.600
314.273;   75.934;   -1.442;  797.837
314.871;   74.818;   -3.002;  589.829
315.468;   72.417;   -2.252;  652.090
316.066;   76.671;   -1.091;  694.427
316.664;   68.301;   -4.512;  656.351
317.261;   72.667;   -0.062;  910.128
317.859;   68.883;   -0.952;  768.735
318.456;   69.686;    0.719;  830.096
319.054;   66.155;   -4.002;  787.828
319.651;   64.018;   -4.972;  759.928
320.249;   63.397;   -1.162;  810.188
320.846;   60.991;   -2.651;  714.286
321.443;   58.517;   -3.832;  832.135
322.041;   56.512;   -4.312;  812.315
322.638;   54.177;   -3.872;  701.456
323.235;   56.390;   -4.361;  665.683
323.833;   53.463;   -4.821;  740.354
324.430;   49.155;   -6.971;  615.900
325.027;   50.271;   -4.361;  876.855
325.624;   50.151;   -5.581;  644.532
326.221;   47.233;   -6.601;  689.717
326.818;   47.138;   -7.301;  818.332
327.415;   49.557;   -6.180;  748.828
328.012;   48.710;   -5.920;  690.585
328.609;   46.388;   -8.390;  731.389
329.206;   44.250;   -6.121;  778.621
329.803;   44.174;   -5.241;  737.841
330.400;   46.623;   -7.420;  704.260
330.997;   47.990;   -5.931;  817.147
331.594;   45.429;   -5.641;  788.185
332.191;   51.672;   -6.451;  728.722
332.787;   54.262;   -4.651;  844.463
333.384;   52.457;   -5.472;  763.093
333.981;   49.407;   -6.303;  815.687
334.578;   53.071;   -5.892;  708.378
335.174;   54.345;   -4.102;  731.469
335.771;   53.048;   -8.053;  836.456
336.367;   51.004;   -7.363;  710.631
336.964;   55.123;   -6.243;  793.266
337.561;   53.890;   -5.653;  731.112
338.157;   48.260;   -7.074;  911.916
338.754;   47.105;   -5.474;  796.589
339.350;   46.167;   -5.624;  722.493
339.946;   47.550;   -5.054;  773.135
340.543;   40.403;   -6.695;  846.136
341.139;   34.514;   -6.215;  720.836
341.735;   33.444;   -5.746;  772.593
342.332;   32.206;   -7.335;  691.472
342.928;   31.788;   -4.835;  795.394
343.524;   26.546;   -4.586;  761.684
344.120;   24.777;   -3.946;  738.562
344.716;   26.845;   -4.835;  723.717
345.313;   24.676;   -5.325;  795.342
345.909;   20.100;   -6.535;  627.336
346.505;   21.851;   -4.725;  740.247
347.101;   22.086;   -4.164;  827.864
347.697;   22.810;   -5.274;  785.398
348.293;   16.514;   -7.145;  627.244
348.889;   17.850;   -4.364;  745.914
349.485;   17.460;   -6.404;  688.205
350.081;   17.986;   -7.534;  772.592
350.676;   13.225;   -6.995;  691.606
351.272;   18.316;   -3.544;  809.530
351.868;   17.867;   -5.324;  780.497
352.464;   14.767;   -7.204;  723.932
353.059;   11.337;   -6.894;  646.017
353.655;   15.054;   -3.754;  777.063
354.251;   15.919;   -6.143;  759.845
354.846;    9.725;   -9.464;  740.646
355.442;    8.191;   -7.555;  753.071
356.038;   10.702;   -5.474;  751.708
356.633;   10.156;   -5.914;  728.594
357.229;    8.535;   -8.944;  724.757
357.824;    6.352;   -6.794;  703.600
358.420;    5.851;   -5.754;  679.726
359.015;    6.125;   -5.664;  695.357
359.610;    7.562;   -8.004;  763.920
360.206;    1.380;   -8.815;  603.240
360.801;    4.730;   -8.834;  646.503
361.396;    7.327;   -6.274;  725.975
361.992;    2.224;   -8.574;  668.220
362.587;   -0.219;   -9.265;  670.160
363.182;    1.855;   -5.484;  689.631
363.777;    2.319;   -5.164;  738.242
364.372;    1.929;   -6.954;  737.314
364.967;   -2.051;   -7.065;  680.744
365.563;    2.786;   -5.684;  815.567
366.158;    0.080;   -6.484;  685.161
366.753;    0.371;   -8.004;  649.263
367.348;   -0.864;  -10.114;  746.056
367.942;   -0.871;   -7.764;  697.298
368.537;   -1.551;   -4.554;  754.245
369.132;   -1.166;   -7.664;  703.428
369.727;   -6.098;   -8.905;  638.079
370.322;   -4.695;   -4.945;  580.186
370.917;   -4.549;   -7.095;  710.646
371.511;   -1.920;   -6.574;  861.834
372.106;   -5.115;   -6.515;  776.964
372.701;   -8.067;   -8.225;  585.988
373.296;   -3.429;   -4.494;  863.135
373.890;   -7.753;   -7.965;  647.840
374.485;   -9.878;   -9.745;  691.199
375.079;   -5.087;   -5.554;  738.685
375.674;   -4.266;   -4.724;  812.970
376.268;   -8.873;   -8.365;  691.759
376.863;  -14.420;   -8.126;  580.327
377.457;   -8.050;   -6.045;  662.490
378.052;   -9.788;   -6.835;  764.884
378.646;   -9.746;   -9.375;  741.167
379.240;  -11.009;   -6.185;  721.176
379.835;   -9.927;   -6.135;  636.978
380.429;  -11.455;   -8.365;  562.557
381.023;  -11.754;   -7.935;  779.205
381.617;  -14.378;   -8.325;  680.106
382.212;  -11.020;   -7.405;  685.303
382.806;   -9.557;   -4.155;  760.690
383.400;  -14.427;   -8.945;  672.281
383.994;  -15.503;   -8.365;  664.870
384.588;  -10.991;   -7.824;  697.701
385.182;   -9.430;   -7.984;  726.624
385.776;  -11.519;  -10.404;  706.875
386.370;  -14.298;   -7.335;  681.968
386.964;  -13.792;   -7.485;  684.155
387.558;  -11.641;   -8.174;  598.360
388.152;  -14.912;  -10.415;  681.959
388.745;  -13.500;   -9.595;  814.707
389.339;  -11.431;   -6.454;  747.642
389.933;  -10.969;   -5.804;  695.370
390.527;  -11.526;   -6.854;  859.029
391.120;  -17.743;   -7.665;  595.318
391.714;  -14.233;   -7.245;  711.633
392.308;  -12.266;   -4.514;  780.253
392.901;  -14.879;   -7.935;  642.460
393.495;  -17.670;   -8.585;  595.414
394.089;  -15.584;   -5.245;  760.452
394.682;  -15.294;   -6.305;  697.188
395.275;  -16.217;   -9.335;  719.927
395.869;  -18.046;   -7.375;  667.314
396.462;  -15.163;   -7.055;  616.609
397.056;  -11.732;   -5.434;  776.621
397.649;  -17.042;   -9.525;  731.575
398.242;  -13.554;   -7.574;  712.645
398.836;  -12.415;   -5.134;  766.408
399.429;  -13.883;   -6.544;  631.041
400.022;  -18.089;   -9.215;  665.902
400.615;  -14.772;   -8.105;  805.609
401.208;  -13.389;   -7.614;  691.451
401.802;  -15.211;   -8.085;  699.329
402.395;  -16.868;   -9.575;  683.502
402.988;  -18.130;   -9.285;  696.627
403.581;  -14.129;   -7.514;  646.878
404.174;  -11.640;   -6.404;  686.568
404.767;  -15.033;   -8.775;  638.583
405.360;  -17.386;   -7.415;  621.445
405.953;  -11.761;   -5.624;  759.034
406.545;  -11.497;   -6.474;  725.342
407.138;  -15.630;   -8.445;  618.350
407.731;  -15.404;  -10.044;  613.303
408.324;  -10.455;   -8.484;  660.554
408.917;  -10.686;   -7.624;  681.864
409.509;  -13.381;   -8.304;  740.396
410.102;  -15.933;   -8.495;  643.948
410.695;   -9.043;   -7.824;  665.758
411.287;  -10.597;   -7.754;  599.821
411.880;  -11.004;   -9.294;  585.421
412.472;  -15.275;   -8.814;  613.092
413.065;  -11.758;   -6.674;  629.408
413.657;   -9.866;   -9.664;  576.678
414.250;   -9.214;  -10.264;  646.681
414.842;  -10.889;   -8.664;  676.353
415.434;   -8.428;   -8.584;  570.463
416.027;   -4.968;   -9.423;  652.196
416.619;   -6.597;  -10.764;  713.400
417.211;   -8.225;   -7.404;  599.352
417.804;   -3.545;   -7.383;  628.499
418.396;   -7.511;   -8.334;  607.643
418.988;   -4.946;   -9.633;  659.238
419.580;   -9.675;  -10.554;  568.276
420.172;   -6.408;   -8.683;  536.196
420.764;   -2.411;   -9.713;  672.482
421.356;   -3.515;  -11.303;  636.898
421.948;   -4.567;   -8.453;  677.661
422.540;    0.581;   -5.793;  680.027
423.132;   -0.344;   -7.162;  600.641
423.724;   -4.356;   -7.933;  561.267
424.316;   -2.156;   -9.083;  621.345
424.908;    1.819;   -8.392;  591.517
425.500;    3.023;   -8.062;  647.978
426.092;    3.485;   -9.692;  648.268
426.683;    2.604;   -8.223;  684.836
427.275;    4.919;   -8.602;  641.471
427.867;    6.649;   -8.382;  668.948
428.458;    6.968;  -10.472;  732.344
429.050;    5.590;   -9.112;  680.749
429.642;    8.257;   -7.752;  743.124
430.233;    7.153;   -8.832;  569.356
430.825;    8.800;   -8.292;  724.809
431.416;    7.280;   -7.522;  698.241
432.008;   10.781;   -9.262;  651.723
432.599;   10.868;   -6.441;  656.073
433.190;    7.990;   -9.222;  637.670
433.782;    7.406;  -11.832;  590.395
434.373;   14.724;   -7.121;  884.765
434.964;   13.456;   -9.141;  602.920
435.556;    9.939;   -9.332;  634.537
436.147;   13.905;   -8.892;  758.490
436.738;   13.590;   -8.151;  701.099
437.329;   19.474;   -8.281;  721.723
437.920;   11.890;   -9.062;  666.688
438.511;   11.320;  -11.182;  564.526
439.103;   18.660;   -7.461;  623.998
439.694;   20.801;   -8.541;  681.583
440.285;   21.011;   -7.351;  764.432
440.876;   19.265;   -8.201;  845.738
441.466;   18.554;  -10.381;  575.162
442.057;   24.221;   -7.620;  665.814
442.648;   22.728;   -8.461;  746.255
443.239;   21.118;   -8.991;  620.477
443.830;   26.036;   -7.910;  704.958
444.421;   27.881;   -7.340;  655.474
445.011;   24.491;   -8.981;  693.619
445.602;   23.862;   -9.341;  743.126
446.193;   25.669;  -11.390;  488.117
446.783;   30.471;  -11.240;  640.397
447.374;   24.956;   -8.471;  692.759
447.964;   26.044;   -8.471;  713.770
448.555;   34.669;   -6.590;  822.742
449.145;   31.302;   -8.200;  662.853
449.736;   32.002;  -11.040;  803.179
450.326;   31.672;   -9.640;  713.626
450.917;   36.591;   -9.480;  675.324
451.507;   36.141;   -8.020;  600.661
452.097;   37.574;  -10.210;  746.267
452.688;   37.744;   -7.810;  742.160
453.278;   37.418;   -9.360;  566.840
453.868;   42.440;   -8.669;  793.550
454.458;   39.501;  -10.950;  651.141
455.048;   39.454;  -10.200;  711.783
455.639;   42.020;   -9.369;  567.096
456.229;   45.509;   -7.739;  710.694
456.819;   47.305;   -8.939;  751.158
457.409;   47.139;   -7.169;  773.993
457.999;   49.719;   -7.779;  737.505
458.589;   50.246;   -7.039;  686.606
459.179;   49.334;   -9.019;  717.658
459.769;   46.493;   -8.909;  627.099
460.358;   52.273;   -8.659;  797.262
460.948;   52.832;   -8.209;  689.503
461.538;   53.821;   -9.879;  660.677
462.128;   51.345;   -9.379;  664.934
462.717;   58.792;   -9.158;  710.326
463.307;   61.998;   -8.638;  705.846
463.897;   57.172;   -8.869;  656.942
464.486;   56.261;   -7.409;  837.128
465.076;   60.971;   -9.618;  733.776
465.666;   65.082;   -7.578;  652.900
466.255;   62.002;   -9.369;  785.651
466.845;   60.989;  -10.049;  666.749
467.434;   64.434;   -8.168;  725.873
468.023;   65.571;   -9.188;  658.357
468.613;   62.881;   -9.849;  713.946
469.202;   67.788;  -12.958;  646.507
469.791;   71.719;   -9.488;  737.811
470.381;   72.853;   -6.468;  742.813
470.970;   72.598;  -10.248;  711.099
471.559;   72.707;  -11.428;  733.291
472.148;   76.097;   -9.738;  675.737
472.738;   79.069;   -7.877;  765.466
473.327;   78.233;  -11.868;  637.529
473.916;   77.615;   -8.578;  737.446
474.505;   81.619;  -11.137;  751.703
475.094;   85.225;   -9.407;  806.570
475.683;   84.617;   -9.977;  797.699
476.272;   85.101;  -10.807;  730.632
476.861;   88.103;  -11.017;  706.754
477.449;   94.440;  -10.316;  728.487
478.038;   88.875;  -10.187;  692.513
478.627;   89.738;  -12.458;  714.852
479.216;   97.126;  -10.127;  769.441
479.805;   99.698;   -6.256;  783.375
480.393;   99.112;   -8.737; 1008.945
480.982;   97.441;   -9.087;  874.501
481.571;  104.983;   -7.806;  858.333
482.159;  104.604;  -10.596;  705.386
482.748;  104.920;  -11.507;  821.385
483.336;  110.310;   -8.366;  858.209
483.925;  110.419;   -7.497;  774.373
484.513;  116.868;   -8.326;  758.962
485.102;  113.358;  -10.277;  810.965
485.690;  122.092;   -8.256; 1011.050
486.278;  124.848;   -7.146;  979.329
486.867;  125.496;   -7.986;  809.662
487.455;  127.428;   -9.926;  898.229
488.043;  128.916;  -10.026;  748.361
488.631;  138.667;   -7.226; 1005.079
489.220;  141.802;   -8.696;  908.626
489.808;  143.529;  -12.276;  741.415
490.396;  151.495;   -9.386;  914.645
490.984;  159.145;   -8.506;  830.161
491.572;  170.971;   -8.226;  940.315
492.160;  178.600;   -9.836;  919.081
492.748;  191.281;  -10.316;  884.341
493.336;  216.714;   -7.146; 1019.693
493.924;  245.614;   -7.965;  958.077
494.512;  281.248;  -10.316; 1066.638
495.100;  327.365;  -10.186; 1103.280
495.687;  395.512;   -7.805; 1206.373
496.275;  474.739;   -9.686; 1150.796
496.863;  572.203;  -11.566; 1281.171
497.451;  670.469;  -11.406; 1386.805
498.038;  815.731;   -8.235; 1556.729
498.626;  971.543;   -7.485; 1741.407
499.214; 1140.906;   -8.646; 2016.609
499.801; 1403.600;   -9.936; 2220.633
500.389; 1665.386;   -8.056; 2312.494
500.976; 1894.074;   -6.166; 2744.849
501.564; 2231.984;   -9.126; 3148.565
502.151; 2714.987;  -12.456; 3515.999
502.738; 3150.993;  -10.056; 3971.274
503.326; 3602.451;  -10.605; 4403.796
503.913; 4011.959;  -10.576; 5161.749
504.500; 4627.725;   -9.056; 5986.420
505.088; 5126.268;  -10.136; 6381.201
505.675; 5763.501;   -9.075; 6925.547
506.262; 6337.010;  -11.346; 7619.060
506.849; 7152.292;   -9.376; 8733.969
507.436; 7851.199;   -7.365; 9790.121
508.023; 7777.495;   -8.686; 9985.472
508.610; 8160.321;   -8.846;10434.618
509.197; 8935.716;   -9.077;11198.435
509.784;10367.995;  -10.246;12391.194
510.371;11874.598;   -9.825;13603.713
510.958;13519.170;  -10.896;14426.586
511.545;13916.629;   -9.006;15243.775
512.132;13425.924;   -8.765;15945.876
512.719;14385.218;   -8.286;16340.369
513.305;16259.702;   -9.256;18011.766
513.892;17500.158;  -11.106;19754.971
514.479;20179.393;   -8.576;20967.805
515.066;23223.713;   -9.046;22299.793
515.652;23939.055;  -10.676;22908.660
516.239;24726.592;  -10.166;23798.875
516.825;25547.965;  -11.266;25567.275
517.412;25528.002;   -7.446;28154.959
517.998;24092.432;  -10.916;28344.111
518.585;23222.555;   -9.166;27134.219
519.171;22595.723;  -10.135;27268.576
519.758;24094.912;   -8.806;28964.129
520.344;27167.254;   -6.716;30664.494
520.930;29413.199;  -10.166;32550.605
521.516;30048.740;   -9.615;35422.895
522.103;31786.992;   -8.656;38280.004
522.689;32365.998;   -9.646;37835.117
523.275;32447.584;  -10.786;37288.613
523.861;35868.043;   -9.266;37281.395
524.447;37562.035;   -8.285;37846.949
525.033;35682.898;   -9.426;38321.949
525.619;33576.473;   -9.836;38579.285
526.205;34203.684;   -8.136;40622.875
526.791;36196.719;   -9.986;42258.836
527.377;36862.289;   -8.236;42966.902
527.963;35714.434;  -12.117;42018.949
528.549;34436.402;   -8.376;42476.828
529.135;35214.293;   -8.696;41854.852
529.721;36225.453;   -9.686;41237.711
530.306;37632.914;   -8.616;41259.445
530.892;38543.754;   -9.396;41506.047
531.478;39093.828;   -9.926;43559.613
532.063;38338.316;  -10.236;47695.563
532.649;37874.609;   -8.257;50808.324
533.235;38485.602;  -11.476;51787.500
533.820;37165.727;   -8.156;52145.035
534.406;35117.363;  -12.257;51133.488
534.991;30307.766;   -8.686;49996.805
535.576;29131.354;   -9.426;48882.852
536.162;32077.787;   -8.436;46942.285
536.747;37636.363;  -10.957;45711.746
537.333;41231.941;  -13.147;48510.180
537.918;44318.410;   -9.027;50439.891
538.503;47398.000;   -8.256;50863.711
539.088;48994.609;  -10.576;50906.922
539.673;48356.297;  -10.907;52621.965
540.259;47600.031;   -9.126;52368.094
540.844;48039.324;   -9.026;50879.109
541.429;48412.055;   -9.597;52077.777
542.014;47705.031;  -11.447;52716.695
542.599;49245.648;   -9.236;52363.281
543.184;49154.844;  -12.267;53187.137
543.769;51421.133;  -10.367;54697.605
544.354;51430.270;  -10.887;53913.914
544.938;45705.055;  -11.687;49680.164
545.523;41485.309;   -8.286;47386.277
546.108;41495.984;   -9.317;49151.949
546.693;41448.949;  -10.187;51384.637
547.278;41214.145;   -9.926;51853.254
547.862;40069.762;   -9.196;51173.750
548.447;39354.461;   -9.657;51691.395
549.031;41393.445;   -9.127;52456.703
549.616;42959.262;  -10.836;52714.516
550.201;43602.953;   -8.507;52414.598
550.785;45102.824;  -10.537;52355.059
551.370;46990.914;  -11.727;54589.453
551.954;49939.266;   -9.457;58267.348
552.538;50966.035;   -8.147;59062.176
553.123;48924.758;   -9.397;58115.285
553.707;47525.672;   -9.558;56556.285
554.291;45380.770;   -9.417;56201.668
554.876;48550.848;   -7.627;55335.762
555.460;48576.043;  -10.457;54155.703
556.044;44037.199;  -10.078;53721.484
556.628;41233.832;   -9.407;53731.016
557.212;41339.141;   -7.957;54312.531
557.796;43623.293;  -11.327;53797.773
558.380;48218.750;  -10.868;56145.984
558.964;48007.988;   -9.637;57277.930
559.548;44661.520;   -8.807;56459.641
560.132;46098.086;  -10.187;54434.543
560.716;46467.262;   -9.868;54800.617
561.300;47202.332;  -10.217;57606.945
561.884;47956.453;   -4.947;58972.445
562.467;44997.066;   -9.588;57327.570
563.051;40991.559;  -11.138;54962.434
563.635;41765.070;   -9.358;52594.473
564.219;41509.313;   -9.797;50610.410
564.802;41451.250;   -9.918;49551.180
565.386;40815.934;  -10.838;48370.953
565.969;39955.797;   -8.037;48178.871
566.553;38360.445;   -5.667;49957.305
567.136;38327.922;   -8.258;50369.594
567.720;38901.137;  -11.278;49492.004
568.303;37328.906;   -9.028;50616.352
568.887;36121.668;   -7.508;50727.148
569.470;36385.238;  -11.068;51698.379
570.053;37152.504;  -10.028;52122.078
570.637;36290.637;  -11.077;52536.438
571.220;37358.547;   -8.747;51186.098
571.803;39613.492;   -8.868;51032.762
572.386;39206.848;  -10.608;49609.887
572.969;39938.863;  -10.548;48285.926
573.552;38308.246;   -7.898;47624.285
574.135;36631.133;   -9.918;45498.641
574.718;33130.355;  -10.328;41970.434
575.301;30569.279;   -9.548;41447.137
575.884;28008.205;   -8.768;40923.836
576.467;34717.445;   -9.858;45267.723
577.050;36798.359;  -11.018;48175.543
577.633;37635.113;  -10.048;47729.328
578.216;36507.117;  -10.268;47579.793
578.799;34600.668;  -11.808;47820.996
579.381;34280.168;   -7.338;48115.551
579.964;34923.008;   -9.728;47333.766
580.547;35612.461;   -8.928;46668.969
581.129;37030.879;   -9.149;44466.141
581.712;38337.730;  -11.359;44164.922
582.294;37525.523;  -10.738;46477.855
582.877;36079.293;   -8.788;48244.254
583.459;35395.383;   -9.859;47437.895
584.042;36942.953;   -9.649;46943.219
584.624;37040.797;  -10.529;46792.227
585.206;34961.426;  -10.298;46557.250
585.789;33103.699;  -11.029;45793.773
586.371;33284.227;   -9.359;43836.391
586.953;31863.113;   -8.799;42972.492
587.536;30765.252;   -8.928;42487.211
588.118;31816.438;   -9.180;42086.414
588.700;31708.793;  -10.519;43389.930
589.282;30220.738;   -8.098;43646.039
589.864;30306.322;   -8.139;43438.109
590.446;31665.996;  -10.509;43151.926
591.028;34442.734;  -11.119;42781.867
591.610;35086.035;  -10.019;42839.098
592.192;33960.008;   -8.838;42820.402
592.774;31737.699;  -11.549;40724.277
593.356;29030.223;  -11.609;39874.789
593.937;30263.139;  -10.019;39980.648
594.519;34619.477;   -7.839;42069.633
595.101;36857.219;  -10.779;42976.031
595.683;36790.852;  -10.049;44084.441
596.264;35199.227;   -9.969;43478.797
596.846;33110.801;   -9.699;43803.672
597.427;32963.129;  -10.970;42986.934
598.009;34138.574;  -13.090;42832.219
598.591;33698.363;   -9.509;42580.086
599.172;31885.514;   -9.019;43061.805
599.753;29739.758;  -13.310;41691.469
600.335;29085.324;  -11.010;40692.520
600.916;28597.605;  -10.309;39982.422
601.498;29176.117;   -8.209;40318.617
602.079;30776.520;  -11.440;40670.609
602.660;32496.541;   -8.690;41450.898
603.241;32836.207;  -12.759;41137.738
603.823;31142.176;  -10.409;38868.797
604.404;32029.977;  -11.790;38182.785
604.985;30665.900;  -10.280;38078.047
605.566;31695.865;   -8.059;38056.633
606.147;31943.090;   -8.960;37020.418
606.728;31341.402;  -10.710;37883.359
607.309;31768.156;  -12.760;38748.273
607.890;30270.402;   -9.959;38850.230
608.471;27465.600;   -9.780;37457.918
609.051;28606.980;   -8.940;36066.457
609.632;32517.104;  -12.070;35991.074
610.213;35114.586;   -9.610;37402.641
610.794;35395.145;   -8.750;38383.363
611.374;34885.914;  -11.100;40562.387
611.955;34768.711;  -12.200;38533.727
612.536;33617.992;  -10.410;36951.789
613.116;33451.078;  -10.010;37197.891
613.697;32642.352;  -10.480;38411.125
614.277;31247.154;  -12.751;38673.938
614.858;29773.799;  -11.600;37075.863
615.438;28111.248;   -8.190;35092.906
616.019;27461.711;   -8.941;33666.301
616.599;27279.500;  -13.540;34189.023
617.179;26703.342;  -10.890;36952.047
617.760;27093.551;   -7.610;39582.574
618.340;27701.225;  -14.441;38943.977
618.920;29634.230;   -9.180;37594.156
619.500;30933.746;  -11.881;37866.938
620.080;31870.549;   -9.870;37869.043
620.660;31221.561;  -13.211;36868.617
621.241;31031.859;  -11.921;36352.309
621.821;30829.301;  -10.271;35459.520
622.401;30429.129;   -8.200;35207.414
622.980;31297.084;  -11.141;35980.422
623.560;32318.645;  -14.321;37351.328
624.140;32042.947;   -9.360;34388.582
624.720;27529.746;   -7.481;32368.764
625.300;25658.416;  -12.730;32638.629
625.880;29891.990;  -11.441;34599.035
626.459;32922.742;  -10.971;36831.738
627.039;35044.902;   -9.011;38299.098
627.619;35377.289;   -8.521;38289.574
628.198;35670.133;   -9.861;37220.695
628.778;34577.379;   -8.841;37632.563
629.357;33497.484;   -9.891;38003.012
629.937;32321.750;  -11.871;38402.039
630.516;30227.506;  -10.641;37868.801
631.096;32348.170;  -11.391;35760.410
631.675;33564.578;   -6.622;35225.219
632.254;31932.162;  -13.002;35130.289
632.834;31250.215;  -11.622;35794.570
633.413;32068.475;   -8.321;35788.922
633.992;30169.277;   -7.732;34532.863
634.571;30460.662;  -10.992;33590.113
635.151;31283.646;  -10.422;34943.863
635.730;30081.701;  -11.511;35352.523
636.309;28866.900;   -7.901;35366.605
636.888;29906.008;  -11.452;36165.637
637.467;31160.092;  -10.672;37515.902
638.046;29926.076;   -9.301;39288.695
638.625;29891.566;  -11.452;38279.699
639.204;30607.088;  -12.262;37741.598
639.782;30708.930;  -11.892;38364.551
640.361;29900.131;  -11.411;36740.621
640.940;27029.098;  -11.501;34950.082
641.519;28246.031;  -10.921;34137.398
642.097;31390.623;  -10.101;35654.258
642.676;31233.082;  -10.821;35637.957
643.255;33255.402;   -8.631;36567.074
643.833;35101.242;  -11.411;37809.434
644.412;36219.852;  -12.021;37337.293
644.990;35777.297;  -12.271;37018.531
645.569;34079.594;   -9.741;36518.469
646.147;33502.563;   -9.051;36186.430
646.726;33398.824;  -13.861;36267.688
647.304;32627.033;   -9.461;36647.625
647.882;32314.596;  -13.171;39286.742
648.461;32608.145;  -11.911;39157.703
649.039;32800.938;   -9.541;35412.883
649.617;34057.164;   -8.901;34744.918
650.195;32650.578;   -8.591;35403.098
650.773;30891.541;  -13.031;35053.797
651.352;28967.158;  -12.211;33756.816
651.930;26562.486;  -11.361;31868.773
652.508;24217.354;   -8.601;33121.551
653.086;27964.217;   -9.991;33564.793
653.663;32626.715;  -11.931;34054.668
654.241;34677.484;  -10.821;35693.309
654.819;34817.289;   -9.341;36422.906
655.397;32557.387;  -10.851;38213.484
655.975;30926.145;  -11.461;39507.625
656.553;30504.949;   -8.841;39498.223
657.130;28992.115;  -10.371;40395.480
657.708;27533.988;  -11.071;39242.020
658.286;28102.154;  -11.141;38920.020
658.863;30158.660;  -10.861;40202.898
659.441;34515.484;  -11.181;39677.938
660.018;35693.418;  -10.851;40413.355
660.596;33488.559;  -12.571;39931.414
661.173;34088.355;  -12.141;39604.531
661.750;33334.344;  -11.571;39700.070
662.328;32301.025;  -10.780;39292.809
662.905;31315.971;  -10.750;38235.648
663.482;27594.318;  -11.320;36212.305
664.060;25190.529;  -10.160;35944.945
664.637;27825.047;  -13.120;35170.785
665.214;30032.717;  -11.500;34197.523
665.791;30281.057;  -12.430;34549.520
666.368;30057.799;   -9.840;35118.578
666.945;29376.799;  -11.290;36019.418
667.522;29433.184;  -13.540;36048.438
668.099;29849.418;  -10.250;36243.914
668.676;28459.377;  -11.270;35958.875
669.253;27815.756;   -8.210;37384.730
669.830;27374.746;   -9.710;36779.629
670.407;27340.402;   -9.700;35231.289
670.984;27497.484;   -9.190;35544.270
671.560;26905.539;   -9.560;35466.867
672.137;25514.059;  -11.820;34280.863
672.714;27708.461;  -12.460;34632.863
673.290;31727.971;  -10.940;35135.422
673.867;30436.500;  -10.510;36114.480
674.443;27895.855;  -12.110;36152.859
675.020;29163.861;  -11.760;35327.238
675.596;31372.988;   -9.380;35795.176
676.173;32237.973;  -11.120;35430.355
676.749;32362.027;  -13.390;33549.516
677.326;31985.127;  -12.600;32210.012
677.902;31829.350;  -10.830;32068.871
678.478;30585.191;  -12.400;32583.891
679.054;29995.100;   -8.610;32088.928
679.631;30316.355;  -11.640;30978.848
680.207;31554.436;   -8.140;33160.887
680.783;32710.742;  -12.300;35570.363
681.359;31179.521;  -10.910;36125.184
681.935;29389.170;  -11.040;35240.922
682.511;28864.379;  -11.130;34429.961
683.087;28472.100;  -11.080;34463.680
683.663;31077.078;  -10.530;34648.898
684.239;31728.119;  -12.120;34546.457
684.815;29752.721;   -8.870;35586.375
685.390;28947.939;   -8.940;35821.895
685.966;29312.719;  -12.109;35085.871
686.542;28818.783;  -13.539;34198.230
687.118;28073.209;  -10.379;32847.707
687.693;27868.240;  -10.189;32794.027
688.269;26896.021;  -12.939;33072.367
688.844;25312.670;   -8.679;33141.664
689.420;26414.713;  -10.919;33965.742
689.995;28113.311;   -7.489;34655.523
690.571;27279.176;  -12.199;33576.742
691.146;27128.760;   -8.979;32657.219
691.722;29374.652;   -9.119;32526.979
692.297;29250.811;  -10.519;33014.617
692.872;27797.986;  -10.629;34012.254
693.448;26320.326;  -12.119;34237.434
694.023;26212.576;   -8.219;34142.672
694.598;25707.488;  -13.209;34132.031
695.173;24525.684;  -11.879;34205.250
695.748;25301.254;  -12.039;32882.488
696.323;26204.348;  -11.779;32864.906
696.898;27008.346;  -10.219;33170.004
697.473;28804.309;  -13.639;32432.984
698.048;29573.348;  -11.239;31649.303
698.623;31134.561;  -10.859;30778.141
699.198;31426.240;  -13.379;31140.119
699.773;32357.207;  -13.409;31764.299
700.348;33260.633;  -12.329;31780.816
700.922;33517.945;   -8.749;32046.375
701.497;32051.826;  -12.449;32603.574
702.072;30178.729;   -8.879;34799.871
702.646;28983.736;  -10.719;35793.172
703.221;27777.484;   -8.469;35201.590
703.795;29479.965;  -11.389;34764.527
704.370;29212.047;  -12.499;34307.367
704.944;27433.084;  -11.449;33509.887
705.519;26182.668;  -10.659;31388.584
706.093;25414.313;  -12.909;31340.104
706.668;25428.879;  -13.509;32630.281
707.242;26409.896;  -10.049;32728.779
707.816;26700.117;  -10.629;32947.238
708.390;25809.764;  -11.829;33277.855
708.965;23873.504;  -11.159;33834.336
709.539;23920.916;  -11.069;33709.273
710.113;24431.078;  -10.908;33044.313
710.687;23002.652;   -9.488;31953.992
711.261;23544.461;  -13.068;30505.949
711.835;25421.049;  -12.748;30262.369
712.409;26400.857;  -10.678;31254.447
712.983;25179.131;  -11.658;32754.986
713.557;24876.160;  -13.718;34018.824
714.131;25991.811;  -13.388;34579.625
714.704;28718.479;   -9.818;33890.262
715.278;30959.406;  -11.818;33531.102
715.852;30979.840;  -11.328;33601.660
716.425;31103.609;   -9.118;33515.117
716.999;31605.576;  -10.188;33185.555
717.573;30656.908;   -9.808;33905.996
718.146;30398.912;  -11.478;35199.293
718.720;31097.752;  -10.998;35060.551
719.293;31857.043;   -9.508;34973.230
719.867;31519.998;  -12.138;36394.449
720.440;29863.475;  -11.288;36663.008
721.013;31398.178;  -11.428;35102.426
721.587;33435.324;  -11.698;33985.266
722.160;35490.102;  -11.608;33524.965
722.733;35537.836;  -11.428;32987.043
723.306;32823.289;  -12.518;33066.301
723.880;30874.391;   -7.408;33399.500
724.453;30490.631;  -11.048;33468.297
725.026;29166.496;  -11.678;33816.637
725.599;27364.449;  -10.978;32797.996
726.172;25439.826;   -8.838;33187.434
726.745;25740.051;  -11.438;35136.613
727.318;26699.234;   -9.828;35751.730
727.891;26980.855;  -10.868;35890.430
728.463;26637.563;  -11.348;34822.090
729.036;25602.777;  -11.608;32895.086
729.609;25372.613;  -14.738;31823.225
730.182;25971.578;   -8.448;31445.283
730.754;26614.068;  -11.228;32373.223
731.327;25932.752;  -12.018;33676.820
731.900;26369.578;  -13.748;33417.000
732.472;27403.799;  -10.928;31978.498
733.045;27992.416;   -9.478;30368.777
733.617;27137.561;  -12.967;30574.215
734.190;26017.549;  -11.707;31280.975
734.762;24548.496;  -11.067;31674.412
735.334;23871.227;  -10.587;31247.291
735.907;24056.486;  -11.947;29876.211
736.479;24670.814;  -11.667;29808.488
737.051;25647.605;  -10.187;30233.547
737.623;26671.789;   -6.887;31469.086
738.195;28081.580;  -12.117;31784.225
738.768;29286.670;  -14.077;32120.523
739.340;27895.613;  -12.207;32094.342
739.912;26053.713;   -8.977;31312.680
740.484;26250.061;  -11.017;31946.238
741.056;28773.033;  -13.517;32984.059
741.628;31442.119;  -11.507;33897.715
742.199;31396.594;   -7.597;33213.016
742.771;30356.158;  -12.227;31369.113
743.343;28244.428;  -12.427;31865.473
743.915;25937.029;   -9.827;32388.631
744.487;24955.830;  -10.007;31079.568
745.058;24772.424;  -11.887;30570.107
745.630;24757.146;  -10.787;29970.127
746.201;25172.865;  -10.887;29186.766
746.773;26700.990;   -9.707;28805.723
747.344;27660.672;  -11.137;29591.223
747.916;26427.959;  -11.887;31412.201
748.487;25214.590;   -9.707;32194.898
749.059;23808.785;  -10.027;32533.719
749.630;23467.211;  -11.787;32158.518
750.201;23791.793;  -12.767;30855.395
750.773;23249.035;  -11.497;28622.555
751.344;23729.789;   -9.937;28405.732
751.915;22603.512;  -11.567;28461.551
752.486;20395.756;  -13.267;27842.850
753.057;19138.469;  -10.627;27845.008
753.628;18773.932;  -11.657;27728.107
754.199;20011.004;  -12.097;27381.086
754.770;21130.430;  -11.447;25882.203
755.341;21508.027;  -11.997;25886.184
755.912;19849.789;  -10.207;26050.861
756.483;17546.213;  -10.937;26798.779
757.054;17524.086;  -11.527;27048.238
757.625;18088.355;  -12.886;26294.838
758.195;18658.104;  -11.226;26142.076
758.766;19533.977;  -12.366;26392.234
759.337;19376.244;  -11.946;26334.594
759.907;19370.840;  -13.856;27579.652
760.478;20599.379;   -9.606;28352.770
761.048;22082.707;  -11.606;27325.088
761.619;22979.230;  -11.036;26460.428
762.189;21866.270;  -12.206;26029.826
762.760;20723.375;   -9.666;26430.145
763.330;20718.787;   -9.796;26670.902
763.900;19828.467;  -10.896;26603.021
764.471;19126.410;  -11.726;25542.740
765.041;20302.430;   -9.656;24358.459
765.611;20502.662;  -11.276;23991.297
766.181;19879.963;  -12.116;24470.236
766.751;19957.670;  -12.376;24845.975
767.321;19527.846;  -11.626;24533.633
767.891;18296.107;  -10.426;24916.492
768.461;16807.406;  -13.456;24776.771
769.031;15608.257;  -11.616;24757.988
769.601;14987.749;  -11.356;24181.088
770.171;14895.373;  -11.586;23670.387
770.741;15482.073;  -12.696;22960.045
771.311;16712.490;  -10.226;22917.523
771.880;17862.275;  -11.146;23562.941
772.450;18217.000;  -11.716;24216.500
773.020;17085.518;  -13.226;24140.398
773.589;15836.090;  -12.586;24414.857
774.159;15537.369;  -10.246;23858.717
774.729;15355.187;  -11.586;22942.135
775.298;15236.955;  -15.926;22324.033
775.867;15544.779;  -10.426;21140.313
776.437;15491.979;  -11.416;20838.092
777.006;13574.409;  -12.766;20599.510
777.576;13369.565;  -13.666;20508.809
778.145;14349.748;  -10.066;20732.947
778.714;14235.311;  -10.276;21062.465
779.283;13717.459;  -12.086;20949.664
779.853;13426.888;  -14.016;20508.623
780.422;13311.100;  -12.376;20649.082
780.991;12985.376;   -9.246;21527.520
781.560;13025.284;   -9.775;22632.658
782.129;13121.146;  -12.495;23048.277
782.698;12635.949;  -11.775;23438.555
783.267;12809.681;  -10.065;23267.734
783.836;13611.181;  -12.455;22415.133
784.404;13976.971;  -13.385;20443.152
784.973;14233.162;  -11.045;19699.150
785.542;13639.740;   -9.505;19763.828
786.111;12653.963;   -9.385;20341.408
786.679;12319.409;  -13.475;20207.967
787.248;12193.205;  -11.245;19516.465
787.817;11182.080;  -12.485;18900.363
788.385;10319.715;  -11.165;17879.121
788.954;11010.472;  -11.755;17658.301
789.522;11667.735;   -9.625;17788.879
790.090;11470.468;   -9.665;18118.277
790.659;10603.899;   -9.295;18338.736
791.227;10625.923;  -12.175;18508.615
791.795;11264.520;  -12.145;17898.254
792.364;11736.065;  -11.575;17295.133
792.932;11109.048;  -11.085;16822.051
793.500;10214.481;  -11.345;17040.148
794.068;10070.971;  -12.565;17179.787
794.636;11152.208;  -12.105;16664.246
795.204;12377.665;  -11.995;16524.545
795.772;12535.319;  -12.615;17274.564
796.340;12096.378;  -12.425;17891.002
796.908;11327.673;  -11.455;17648.561
797.476;10126.687;  -12.165;17064.080
798.044; 9003.102;  -15.795;16672.777
798.612; 8421.895;  -10.985;17023.996
799.180; 8634.341;  -12.055;16561.615
799.747; 8726.544;  -12.525;15962.773
800.315; 8023.804;  -14.765;15296.992
800.883; 7206.595;  -12.435;14801.771
801.450; 7440.488;  -11.295;14534.430
802.018; 8024.918;  -11.185;14173.248
802.585; 7979.673;  -11.625;14029.547
803.153; 7163.033;  -10.665;13836.846
803.720; 6663.247;  -10.275;13567.324
804.287; 6860.530;  -12.865;13360.622
804.855; 7305.308;  -12.324;13681.981
805.422; 7571.567;  -11.574;13536.560
805.989; 7369.121;  -11.004;13355.958
806.556; 7437.919;  -12.214;13747.896
807.124; 7690.428;  -13.304;13987.376
807.691; 7502.676;  -12.034;14038.674
808.258; 7198.115;  -11.014;14120.152
808.825; 7053.023;  -11.804;13860.111
809.392; 6791.728;  -11.544;13268.790
809.959; 6688.532;  -14.954;12680.389
810.526; 7154.229;  -10.214;12427.308
811.093; 7254.491;  -10.754;12030.105
811.659; 6909.646;  -12.194;11653.664
812.226; 6152.427;   -9.194;11637.183
812.793; 5888.605;   -9.644;11611.521
813.360; 6616.312;  -11.544;11885.181
813.926; 7474.888;  -12.814;12770.539
814.493; 7259.729;  -11.524;12677.638
815.060; 6829.522;  -12.254;11974.336
815.626; 6682.841;  -12.114;11594.715
816.193; 6637.215;  -11.994;11579.474
816.759; 6422.568;  -11.464;11666.972
817.325; 6227.145;  -10.444;11325.530
817.892; 6197.098;  -11.124;11105.369
818.458; 6151.052;  -11.864;10843.928
819.024; 6301.675;  -10.634;10714.406
819.591; 6362.631;  -10.554;10469.165
820.157; 6407.942;  -13.334;10235.523
820.723; 6562.976;  -13.044;10847.563
821.289; 6757.169;   -9.664;11040.980
821.855; 7033.813;  -10.994;10357.100
822.421; 7345.336;  -11.784; 9978.918
822.987; 7452.684;  -12.554; 9754.177
823.553; 7367.429;  -12.554;10065.755
824.119; 7003.138;   -8.544;10036.294
824.685; 6414.243;  -12.144;10029.192
825.251; 6200.900;  -12.754;10199.230
825.816; 5901.810;  -11.354; 9820.189
826.382; 5551.164;  -11.004; 9297.248
826.948; 5409.943;  -11.004; 9381.347
827.513; 5535.784;  -12.474; 9450.726
828.079; 5641.288;  -13.084; 9472.444
828.645; 5753.877;  -10.813; 9292.643
829.210; 5615.375;  -11.593; 9065.341
829.776; 5684.878;  -12.633; 9132.620
830.341; 5891.073;  -10.473; 9092.878
830.906; 5906.063;   -8.763; 9078.557
831.472; 5388.370;  -13.453; 8534.535
832.037; 4342.232;  -12.173; 8677.874
832.602; 3952.049;  -14.093; 8628.692
833.167; 4310.868;  -13.593; 8879.031
833.733; 5004.404;  -10.793; 9189.790
834.298; 5426.147;  -14.783; 9052.608
834.863; 5115.687;  -11.023; 8895.087
835.428; 4904.092;  -11.113; 8824.266
835.993; 5222.003;   -9.983; 8845.385
836.558; 5547.479;  -13.003; 8888.563
837.123; 5433.735;  -10.733; 8966.582
837.688; 4974.291;   -9.683; 8617.860
838.253; 4710.862;  -12.253; 8590.699
838.817; 4843.844;  -11.643; 8443.797
839.382; 4925.373;  -11.953; 8799.356
839.947; 4887.220;  -11.443; 8810.595
840.511; 4756.852;  -10.843; 8796.394
841.076; 4781.777;  -13.533; 8347.231
841.641; 4958.424;  -11.743; 8224.330
842.205; 4656.887;  -10.013; 8223.349
842.770; 4249.037;  -11.023; 8622.107
843.334; 4254.681;  -14.273; 8410.386
843.898; 4561.154;  -11.323; 8337.465
844.463; 4899.192;  -10.263; 8506.283
845.027; 4969.776;  -10.353; 8280.962
845.591; 4844.260;  -12.163; 8231.141
846.156; 4652.603;  -12.263; 7969.179
846.720; 4762.149;  -11.553; 7768.278
847.284; 4925.470;  -12.393; 7630.957
847.848; 4394.028;  -12.623; 7472.395
848.412; 3691.195;  -11.863; 7437.394
848.976; 3493.395;  -10.203; 7674.592
849.540; 3566.485;  -10.603; 7836.011
850.104; 3704.643;  -12.423; 7913.669
850.668; 3824.070;  -14.613; 7694.508
851.232; 3727.868;  -12.873; 7756.887
851.796; 3632.944;  -14.192; 7926.545
852.359; 3655.512;  -13.652; 7827.844
852.923; 3618.719;  -11.402; 7641.163
853.487; 3533.988;  -12.022; 7342.501
854.050; 3485.288;  -15.202; 7042.820
854.614; 3431.190;  -14.592; 7151.338
855.177; 3248.402;  -12.572; 7105.077
855.741; 3184.009;   -9.932; 6989.675
856.304; 3361.077;  -12.192; 6596.634
856.868; 3568.220;  -13.462; 6356.272
857.431; 3659.748;  -11.542; 6468.571
857.995; 3664.896;  -12.062; 6373.210
858.558; 3374.945;  -11.142; 6324.448
859.121; 3072.598;  -11.742; 6408.327
859.684; 2877.456;  -10.332; 6347.886
860.247; 2913.571;  -11.962; 6321.264
860.810; 3068.755;  -12.332; 6301.903
861.374; 3062.962;  -10.292; 6607.881
861.937; 2960.681;  -12.062; 6408.200
862.500; 2944.094;  -11.702; 6572.639
863.062; 2929.856;  -13.852; 6387.297
863.625; 2926.679;  -12.972; 6190.836
864.188; 2844.537;  -10.292; 5807.254
864.751; 2805.737;  -12.382; 5682.413
865.314; 2750.555;  -13.232; 5547.492
865.876; 2662.398;  -12.772; 5500.150
866.439; 2503.260;  -11.952; 5415.909
867.002; 2462.198;   -9.332; 5501.567
867.564; 2690.685;  -11.712; 5413.946
868.127; 2875.507;  -12.012; 5160.325
868.689; 2667.910;  -11.882; 5133.183
869.252; 2401.207;  -11.572; 5252.382
869.814; 2301.299;  -10.692; 5297.141
870.377; 2297.719;  -12.392; 5390.919
870.939; 2280.220;  -10.582; 5599.898
871.501; 2314.728;  -12.782; 5248.336
872.063; 2396.770;  -15.612; 4854.235
872.626; 2447.166;  -13.922; 4817.074
873.188; 2334.486;  -13.832; 4987.732
873.750; 2189.618;  -10.962; 4868.651
874.312; 2190.482;  -11.022; 4779.330
874.874; 2193.910;  -13.152; 4866.348
875.436; 2121.254;  -13.401; 4718.887
875.998; 2046.820;   -8.891; 4660.005
876.560; 2038.377;  -12.591; 4462.964
877.122; 2063.288;  -14.531; 4145.042
877.683; 2019.693;  -10.781; 4056.481
878.245; 1921.875;  -14.281; 3950.740
878.807; 1893.092;  -10.311; 4058.958
879.369; 1887.934;  -13.201; 3954.677
879.930; 1920.395;  -12.061; 3941.495
880.492; 1910.878;   -9.181; 4067.014
881.053; 1866.279;  -12.051; 3859.633
881.615; 1797.813;  -11.501; 3776.071
882.176; 1670.654;  -12.221; 3734.750
882.738; 1529.396;   -8.931; 3678.489
883.299; 1431.548;  -13.571; 3405.407
883.860; 1455.492;  -12.331; 3351.106
884.422; 1433.668;  -10.201; 3394.044
884.983; 1321.693;  -12.521; 3166.443
885.544; 1225.103;  -12.291; 3189.802
886.105; 1209.280;  -12.991; 3160.360
886.666; 1237.564;  -12.901; 3093.059
887.227; 1218.925;  -12.061; 2941.957
887.788; 1089.885;  -11.641; 2974.836
888.349;  875.508;  -14.691; 2721.214
888.910;  682.454;   -9.681; 2696.493
889.471;  589.499;   -9.971; 2560.172
890.032;  560.717;  -13.151; 2558.190
890.593;  563.669;  -12.051; 2567.669
891.153;  586.987;  -12.841; 2460.307
891.714;  609.406;  -13.561; 2372.046
892.275;  623.230;  -12.401; 2309.505
892.835;  621.954;  -13.191; 2382.543
893.396;  613.208;  -12.551; 2295.502
893.956;  609.742;  -11.981; 2162.420
894.517;  614.792;  -12.221; 2125.439
895.077;  591.706;  -12.021; 2086.978
895.638;  544.729;  -10.891; 2126.316
896.198;  511.698;  -13.171; 1838.275
896.758;  478.916;  -11.891; 1892.813
897.319;  436.758;  -12.491; 1792.232
897.879;  415.054;  -12.401; 1762.751
898.439;  386.396;  -13.431; 1661.149
898.999;  369.110;  -11.340; 1781.468
899.559;  361.993;  -13.930; 1703.347
900.119;  346.739;  -13.730; 1537.525
900.679;  332.378;   -9.210; 1638.384
901.239;  320.084;  -10.860; 1527.902
901.799;  301.187;  -11.450; 1456.441
902.359;  280.415;  -13.800; 1357.140
902.919;  273.377;  -12.130; 1331.118
903.479;  270.839;  -12.650; 1317.257
904.038;  259.421;  -16.110; 1262.595
904.598;  239.915;  -13.690; 1152.034
905.158;  226.770;  -10.290; 1240.893
905.717;  218.525;  -10.670; 1233.691
906.277;  214.376;  -14.040; 1217.330
906.836;  214.710;  -13.510; 1222.408
907.396;  210.143;  -11.530; 1193.047
907.955;  201.008;  -13.190; 1182.526
908.515;  189.948;  -12.950; 1099.364
909.074;  182.027;  -12.390; 1092.863
909.633;  177.206;  -10.340; 1069.121
910.192;  174.724;  -11.170; 1196.460
910.752;  171.171;  -14.200; 1029.960
911.311;  166.060;  -13.810; 1009.780
911.870;  162.842;  -12.750;  971.460
912.429;  161.721;  -12.380; 1094.080
912.988;  160.128;  -11.930; 1081.060
913.547;  154.951;  -10.990;  940.380
914.106;  152.674;  -11.200;  999.420
914.665;  150.438;  -13.150;  984.020
915.224;  148.039;  -13.310; 1035.760
915.782;  146.025;  -13.340;  922.560
916.341;  146.562;  -10.710; 1049.840
916.900;  144.219;  -12.980;  925.260
917.458;  143.505;  -13.060;  884.220
918.017;  142.228;  -10.900;  942.600
918.576;  140.639;  -11.630;  904.440
919.134;  140.662;  -12.860;  837.980
919.693;  140.611;  -15.160;  893.060
920.251;  139.086;  -13.470;  876.500
920.809;  139.053;  -13.700;  839.580
921.368;  139.996;  -13.420;  885.360
921.926;  139.725;  -14.710;  842.940
922.484;  140.022;  -12.560;  903.360
923.042;  140.167;  -11.930;  880.340
923.601;  141.927;  -10.270;  998.680
924.159;  139.154;  -12.960;  935.560
924.717;  137.486;  -13.040;  841.080
925.275;  138.568;  -12.560;  903.240
925.833;  140.141;  -13.040;  779.320
926.391;  142.079;  -13.360;  938.380
926.949;  141.334;  -13.940;  857.680
927.506;  142.204;   -9.400;  903.500
928.064;  140.783;  -10.940;  877.580
928.622;  140.856;  -13.180;  880.100
929.180;  141.258;  -12.730;  814.180
929.737;  142.090;  -12.840;  808.540
930.295;  146.380;  -11.810;  928.480
930.853;  151.496;  -13.650;  849.100
931.410;  154.041;  -13.580;  821.120
931.968;  156.693;  -12.020;  940.660
932.525;  155.125;  -13.320;  909.380
933.082;  154.829;  -13.800;  811.440
933.640;  158.035;  -11.380;  925.900
934.197;  159.677;  -11.480;  886.360
934.754;  163.473;  -13.220;  897.780
935.312;  162.539;  -14.950;  863.340
935.869;  160.964;  -10.940; 1012.980
936.426;  157.316;  -12.100;  872.800
936.983;  157.131;  -12.930;  889.020
937.540;  160.043;  -14.250;  838.280
938.097;  164.841;  -12.600;  940.120
938.654;  170.291;  -11.260;  898.860
939.211;  172.106;  -13.020;  952.480
939.768;  174.171;  -15.760;  915.420
940.324;  177.898;  -13.920;  904.200
940.881;  174.426;  -11.620;  878.500
941.438;  171.334;   -9.870; 1021.200
941.995;  166.751;  -13.920;  992.560
942.551;  163.274;  -12.830;  875.620
943.108;  163.446;  -11.980;  937.920
943.664;  166.389;  -13.740;  869.340
944.221;  172.763;  -12.670; 1088.140
944.777;  170.959;  -13.250;  869.680
945.334;  168.458;  -13.000;  884.840
945.890;  169.328;  -13.020;  946.480
946.446;  169.246;  -13.880;  947.020
947.003;  170.348;  -12.660;  964.940
947.559;  171.702;   -8.730; 1063.040
948.115;  169.059;  -11.960; 1026.540
948.671;  163.937;  -12.360;  967.300
949.227;  157.868;  -12.700;  859.560
949.783;  155.593;  -13.450;  858.900
950.339;  154.255;  -10.620;  991.000
950.895;  151.644;  -14.770; 1023.840
951.451;  148.769;  -13.650;  925.280
952.007;  150.408;  -11.180;  998.540
952.563;  150.351;  -11.680;  937.780
953.118;  149.418;  -13.280;  904.940
953.674;  151.139;  -12.510;  935.780
954.230;  151.379;  -12.220;  949.640
954.785;  148.346;  -12.190;  936.640
955.341;  144.688;  -12.270;  998.160
955.897;  140.446;  -14.900;  834.660
956.452;  141.259;  -12.520;  953.840
957.008;  139.539;   -9.410; 1083.640
957.563;  135.795;  -11.280; 1009.540
958.118;  132.275;  -13.470;  877.700
958.674;  134.299;  -12.190;  946.780
959.229;  135.928;  -12.760; 1013.980
959.784;  140.482;  -15.710;  832.400
960.339;  146.535;  -12.540; 1001.280
960.894;  146.861;  -11.680;  963.760
961.449;  141.916;  -11.410;  859.960
962.004;  140.138;  -10.430; 1212.840
962.559;  133.424;  -14.040;  860.140
963.114;  129.772;  -14.270;  742.480
963.669;  131.044;  -11.320;  915.500
964.224;  130.817;  -14.620;  874.340
964.779;  129.333;  -14.150;  828.420
965.334;  127.987;  -10.850; 1017.860
965.888;  127.839;  -14.530;  875.360
966.443;  129.168;  -13.520;  972.380
966.998;  126.024;  -13.370;  819.460
967.552;  124.571;   -9.960;  908.380
968.107;  120.375;  -12.360;  868.300
968.661;  121.195;  -12.270;  922.440
969.216;  120.219;  -12.140;  856.280
969.770;  120.039;  -11.860;  917.200
970.324;  121.148;  -12.170;  923.140
970.879;  119.830;  -14.160;  947.180
971.433;  116.905;  -12.940;  952.720
971.987;  112.441;  -10.180;  895.340
972.541;  111.634;  -12.130;  917.100
973.095;  113.121;  -14.980; 1009.460
973.649;  112.576;  -14.480;  809.480
974.203;  115.831;  -13.530;  829.040
974.757;  117.673;  -12.060;  855.220
975.311;  114.998;  -13.240;  872.600
975.865;  111.702;  -12.550;  881.820
976.419;  109.319;  -13.180;  857.400
976.973;  107.161;  -14.100;  849.620
977.526;  104.715;  -13.330;  949.920
978.080;  100.322;  -15.390;  796.780
978.634;   99.863;  -11.670;  921.320
979.187;   97.763;  -10.640;  905.400
979.741;   98.548;  -13.330; 1018.380
980.294;   96.255;  -14.480;  789.160
980.848;   95.547;  -13.420;  717.220
981.401;   94.088;  -12.360;  816.540
981.955;   91.422;  -12.480;  844.300
982.508;   86.975;  -14.000;  746.340
983.061;   87.317;  -10.440;  915.260
983.615;   85.444;  -14.340;  798.800
984.168;   82.471;  -14.950;  770.080
984.721;   82.300;  -13.270;  880.760
985.274;   80.906;  -12.240;  867.500
985.827;   78.695;  -12.720;  834.220
986.380;   75.699;  -14.920;  721.340
986.933;   75.486;  -12.860;  864.800
987.486;   74.820;  -10.440;  861.920
988.039;   73.629;  -11.820;  863.100
988.591;   71.328;  -13.760;  893.260
989.144;   70.105;  -14.080;  737.260
989.697;   70.561;  -13.440;  758.740
990.250;   70.979;  -12.050;  858.100
990.802;   69.086;  -14.550;  755.860
991.355;   69.546;  -10.770;  974.880
991.907;   67.872;  -11.710;  864.320
992.460;   66.198;  -12.650;  753.760
993.012;   65.708;  -13.860;  749.540
993.565;   62.370;  -14.310;  711.360
994.117;   64.077;   -9.920;  950.780
994.669;   60.066;  -13.420;  701.320
995.221;   58.711;  -14.200;  791.920
995.774;   58.020;  -13.400;  787.580
996.326;   58.242;  -11.850;  740.220
996.878;   57.731;  -12.230;  838.420
997.430;   55.372;  -14.260;  699.860
997.982;   55.568;  -11.430;  750.140
998.534;   56.005;  -11.590;  739.060
999.086;   54.790;  -11.960;  738.220
999.638;   53.699;  -13.640;  661.380
1000.190;   52.908;  -13.660;  699.320
1000.741;   52.030;   -9.980;  742.700
1001.293;   51.843;  -11.860;  686.020
1001.845;   50.158;  -14.280;  676.640
1002.396;   50.021;  -12.270;  743.400
1002.948;   49.901;  -13.670;  737.400
1003.500;   48.501;  -12.010;  723.780
1004.051;   49.131;  -11.890;  907.580
1004.603;   48.450;  -11.220;  791.820
1005.154;   44.898;  -13.210;  608.980
1005.705;   43.708;  -11.850;  723.960
1006.257;   43.531;  -13.670;  707.220
1006.808;   43.016;  -12.060;  685.460
1007.359;   42.307;  -10.250;  763.240
1007.910;   40.313;  -13.440;  646.640
1008.461;   40.280;  -13.170;  732.940
1009.013;   39.236;  -14.590;  588.340
1009.564;   41.420;  -12.100;  793.520
1010.115;   38.500;  -14.000;  597.040
1010.665;   38.840;  -15.020;  602.160
1011.216;   39.236;  -12.560;  667.920
1011.767;   38.529;  -11.330;  697.920
1012.318;   38.143;  -11.450;  736.980
1012.869;   37.130;  -11.000;  679.000
1013.419;   36.716;  -11.760;  603.120
1013.970;   36.994;  -11.800;  666.640
1014.521;   36.401;  -14.750;  620.620
1015.071;   36.758;  -14.430;  670.380
1015.622;   35.785;  -14.170;  635.460
1016.172;   34.918;  -11.700;  596.820
1016.723;   34.989;  -13.230;  614.380
1017.273;   35.303;  -16.120;  604.160
1017.823;   35.271;  -13.360;  650.340
1018.374;   34.217;  -13.710;  611.760
1018.924;   35.126;  -11.050;  716.880
1019.474;   34.909;  -14.120;  718.880
1020.024;   33.274;  -12.990;  657.580
1020.574;   34.942;  -12.010;  726.160
1021.124;   34.079;  -12.080;  673.580
1021.674;   33.121;  -15.860;  559.120
1022.224;   33.706;  -11.710;  708.940
1022.774;   32.782;  -13.030;  668.820
1023.324;   33.616;  -11.000;  753.520
1023.874;   34.789;  -13.270;  875.760
1024.423;   31.913;  -14.570;  613.700
1024.973;   32.072;  -12.620;  610.760
1025.523;   30.615;  -12.630;  620.960
1026.072;   30.831;  -14.110;  606.420
1026.622;   29.983;  -15.390;  675.740
1027.172;   32.306;   -9.090;  715.660
1027.721;   30.173;  -12.250;  601.220
1028.270;   30.359;  -15.590;  663.400
1028.820;   29.747;  -13.840;  638.080
1029.369;   30.340;  -13.170;  612.700
1029.918;   30.111;  -14.080;  649.840
1030.468;   29.490;  -13.860;  564.780
1031.017;   29.973;  -12.970;  634.800
1031.566;   29.144;  -12.320;  608.900
1032.115;   29.129;  -13.140;  694.500
1032.664;   28.398;  -14.560;  596.480
1033.213;   29.174;  -11.620;  735.420
1033.762;   28.425;  -13.190;  635.620
1034.311;   27.880;  -13.460;  677.220
1034.860;   28.227;  -15.770;  691.000
1035.408;   28.113;  -13.100;  722.720
1035.957;   28.603;  -12.880;  719.540
1036.506;   26.531;  -13.640;  530.800
1037.055;   29.558;  -12.420;  844.320
1037.603;   27.318;  -13.740;  664.000
1038.152;   25.368;  -13.840;  534.760
1038.700;   26.605;  -10.770;  585.740
1039.249;   26.369;  -13.520;  681.220
1039.797;   26.758;  -13.060;  633.360
1040.345;   25.862;  -11.760;  705.420
1040.894;   25.667;  -10.790;  625.300
1041.442;   25.491;  -15.420;  632.200
1041.990;   24.776;  -14.550;  559.160
1042.538;   24.119;  -15.620;  536.180
1043.087;   25.111;  -14.940;  570.860
1043.635;   26.191;  -12.100;  670.500
1044.183;   24.313;  -13.200;  586.400
1044.731;   24.947;  -11.630;  576.000
1045.279;   24.138;  -14.200;  674.920
1045.827;   26.670;  -12.510;  892.400
1046.374;   22.686;  -14.960;  515.420
1046.922;   22.805;  -11.850;  590.580
1047.470;   24.552;  -13.770;  691.300
1048.018;   23.761;  -15.380;  647.960
1048.565;   24.696;  -14.010;  708.600
1049.113;   22.905;  -14.620;  557.000
1049.660;   22.871;  -14.940;  629.660
1050.208;   23.055;  -14.540;  675.640
1050.755;   22.207;  -13.710;  606.580
1051.303;   23.793;  -11.880;  686.820
1051.850;   22.300;  -12.160;  635.120
1052.397;   20.007;  -15.110;  473.960
1052.945;   21.594;  -14.770;  617.760
1053.492;   23.079;  -12.320;  741.840
1054.039;   23.040;  -13.290;  720.180
1054.586;   21.128;  -15.210;  557.240
1055.133;   21.828;  -12.920;  693.140
1055.680;   22.223;  -12.610;  646.620
1056.227;   20.784;  -12.620;  542.780
1056.774;   22.918;  -13.010;  794.980
1057.321;   20.121;  -16.180;  523.260
1057.868;   21.539;  -11.230;  651.320
1058.415;   20.379;  -10.890;  651.980
1058.961;   21.281;  -12.530;  678.940
1059.508;   20.386;  -14.120;  643.820
1060.055;   20.447;  -13.340;  581.780
1060.601;   20.951;  -12.920;  624.300
1061.148;   20.243;  -14.430;  616.820
1061.694;   18.896;  -14.140;  592.580
1062.241;   19.393;  -12.550;  596.320
1062.787;   19.648;  -13.370;  663.140
1063.334;   21.852;  -12.260;  808.560
1063.880;   19.257;  -10.800;  668.360
1064.426;   19.966;   -9.920;  706.820
1064.972;   18.853;  -12.970;  601.340
1065.518;   17.713;  -14.440;  566.640
1066.065;   18.419;  -12.680;  624.460
1066.611;   17.792;  -13.520;  598.800
1067.157;   19.133;  -11.100;  641.860
1067.703;   18.599;  -14.100;  668.480
1068.249;   18.122;  -13.750;  605.220
1068.794;   18.116;  -11.070;  626.880
1069.340;   16.688;  -13.210;  578.960
1069.886;   17.833;  -14.850;  590.700
1070.432;   16.647;  -14.580;  541.720
1070.977;   16.504;  -12.930;  601.080
1071.523;   16.371;  -11.970;  573.060
1072.068;   17.642;  -13.730;  582.000
1072.614;   16.292;  -14.550;  527.760
1073.160;   17.251;  -13.690;  687.040
1073.705;   15.637;  -14.780;  572.520
1074.250;   15.964;  -15.430;  559.900
1074.796;   16.993;  -11.620;  655.160
1075.341;   17.336;  -11.580;  664.100
1075.886;   16.378;  -13.190;  594.240
1076.431;   16.358;  -13.630;  649.880
1076.976;   15.967;  -11.670;  639.220
1077.521;   15.416;  -11.600;  583.080
1078.067;   14.521;  -13.920;  579.400
1078.612;   15.755;  -12.910;  661.620
1079.156;   15.236;  -15.340;  601.540
1079.701;   15.076;  -12.560;  693.260
1080.246;   15.850;  -12.490;  696.300
1080.791;   15.459;  -14.550;  625.020
1081.336;   14.871;  -15.210;  659.320
1081.880;   15.215;  -11.280;  649.680
1082.425;   14.715;  -12.830;  573.480
1082.970;   16.298;  -11.680;  717.040
1083.514;   14.970;  -15.500;  597.000
1084.059;   13.533;  -11.770;  586.720
1084.603;   13.324;  -13.480;  565.840
1085.147;   14.784;  -13.940;  645.220
1085.692;   14.747;  -13.170;  716.800
1086.236;   12.836;  -15.740;  503.140
1086.780;   15.184;  -10.750;  751.440
1087.325;   13.411;  -14.900;  654.620
1087.869;   13.916;  -15.160;  610.700
1088.413;   14.489;  -11.030;  705.040
1088.957;   12.545;  -15.210;  543.400
1089.501;   14.472;  -12.310;  766.640
1090.045;   14.237;  -12.790;  726.480
1090.589;   11.594;  -14.040;  569.920
1091.133;   12.282;  -12.800;  673.340
1091.676;   13.203;  -13.600;  591.940
1092.220;   11.631;  -12.960;  600.920
1092.764;   13.357;  -10.830;  706.960
1093.307;   12.899;  -12.390;  673.780
1093.851;   11.857;  -15.850;  556.540
1094.395;   12.454;  -12.980;  683.140
1094.938;   11.533;  -13.670;  632.520
1095.482;   11.433;  -12.740;  559.800
1096.025;   12.914;  -13.340;  710.880
1096.568;   12.614;  -10.500;  779.280
1097.112;    9.942;  -13.500;  508.180
1097.655;   11.954;  -13.060;  603.000
1098.198;   10.210;  -13.240;  600.180
1098.741;   10.832;  -15.490;  612.860
1099.285;   11.524;  -13.410;  657.300
1099.828;    9.970;  -15.640;  439.400
1100.371;   10.897;  -13.980;  608.160
1100.914;   11.206;  -13.990;  682.660
1101.457;   10.934;  -15.030;  679.900
1101.999;    9.518;  -12.480;  584.680
1102.542;   10.967;  -12.410;  641.440
1103.085;   10.214;  -14.730;  658.500
1103.628;   10.564;  -12.190;  762.060
1104.170;    9.757;  -12.360;  588.280
1104.713;    9.921;  -13.350;  646.700
1105.256;    9.262;  -14.930;  557.440
1105.798;    8.180;  -15.150;  499.980
1106.341;   10.179;  -13.230;  728.900
1106.883;    8.956;  -14.680;  521.340
1107.425;    9.816;  -14.810;  668.180
1107.968;    8.936;  -12.940;  612.380
1108.510;    9.623;  -10.550;  684.960
1109.052;    8.269;  -15.640;  612.620
1109.594;    8.416;  -14.440;  554.440
1110.136;    9.008;  -11.380;  643.220
1110.679;    9.046;  -13.090;  633.080
1111.221;    8.560;  -14.230;  604.460
1111.763;    6.698;  -14.260;  559.220
1112.304;    7.891;  -14.510;  547.140
1112.846;    8.550;  -14.700;  666.240
1113.388;   11.876;  -12.270;  942.180
1113.930;    8.171;  -13.340;  694.200
1114.472;    7.757;  -12.560;  606.540
1115.013;    6.934;  -14.280;  551.280
1115.555;    7.050;  -14.010;  587.100
1116.097;    6.648;  -14.730;  579.480
1116.638;    7.153;  -12.160;  684.600
1117.180;    7.988;  -14.320;  667.740
1117.721;    6.939;  -15.730;  568.580
1118.262;    8.040;  -13.480;  677.960
1118.804;    7.606;  -11.530;  637.340
1119.345;    7.288;  -13.540;  578.400
1119.886;    8.121;  -14.470;  704.040
1120.427;    6.853;  -13.030;  589.020
1120.969;    6.771;  -13.150;  597.920
1121.510;    6.730;  -13.940;  563.060
1122.051;    6.919;  -12.310;  723.580
1122.592;    5.469;  -13.870;  655.420
1123.133;    5.444;  -12.890;  547.940
1123.673;    6.994;  -13.300;  706.480
1124.214;    6.147;  -14.000;  612.460
1124.755;    6.334;  -13.210;  639.460
1125.296;    5.630;  -13.450;  627.320
1125.836;    6.740;  -12.610;  691.500
1126.377;    5.537;  -15.840;  599.660
1126.918;    5.744;  -11.830;  614.980
1127.458;    4.631;  -11.830;  622.220
1127.999;    5.831;  -11.490;  656.980
1128.539;    6.397;  -12.900;  694.240
1129.079;    5.012;  -14.910;  632.720
1129.620;    4.413;  -12.920;  558.100
1130.160;    4.151;  -14.640;  539.480
1130.700;    5.164;  -13.270;  640.840
1131.240;    5.081;  -14.110;  643.700
1131.781;    5.017;  -13.130;  619.680
1132.321;    4.657;  -15.220;  599.120
1132.861;    4.025;  -15.670;  564.200
1133.401;    2.985;  -13.970;  593.940
1133.941;    4.786;  -13.740;  626.280
1134.481;    4.006;  -13.200;  597.580
1135.020;    3.418;  -14.830;  609.160
1135.560;    4.693;  -14.590;  674.940
1136.100;    2.782;  -13.730;  501.160
1136.640;    3.110;  -15.240;  510.480
1137.179;    3.084;  -14.710;  537.960
1137.719;    3.591;  -14.090;  605.400
1138.258;    3.309;  -12.470;  587.360
1138.798;    4.536;  -12.580;  663.780
1139.337;    2.421;  -16.480;  482.840
1139.877;    3.956;  -13.970;  642.360
1140.416;    6.541;   -9.870;  878.060
1140.955;    2.735;  -14.860;  535.380
1141.494;    3.412;  -14.530;  669.280
1142.034;    2.606;  -13.940;  583.520
1142.573;    3.756;  -11.160;  646.280
1143.112;    2.348;  -15.050;  553.480
1143.651;    2.894;  -15.390;  536.480
1144.190;    3.339;  -12.990;  691.640
1144.729;    2.794;  -12.220;  607.420
1145.267;    3.238;  -14.020;  584.900
1145.806;    3.913;  -12.740;  637.040
1146.345;    2.349;  -14.810;  635.020
1146.884;    1.887;  -12.920;  622.500
1147.422;    1.397;  -13.930;  533.060
1147.961;    3.528;  -11.830;  708.460
1148.500;    3.364;  -12.710;  669.720
1149.038;    2.935;  -14.420;  632.500
1149.577;    2.409;  -13.920;  698.640
1150.115;    0.405;  -17.050;  452.280
1150.653;    2.118;  -14.890;  607.340
1151.192;    1.588;  -15.270;  552.920
1151.730;    1.943;  -13.160;  652.560
1152.268;    2.179;  -15.430;  589.520
1152.806;    2.170;  -15.880;  571.180
1153.344;    0.832;  -13.240;  577.640
1153.882;    1.929;  -13.010;  600.060
1154.421;    0.597;  -16.180;  470.620
1154.958;    0.610;  -13.880;  595.240
1155.496;    2.034;  -13.590;  645.280
1156.034;    1.865;  -11.910;  721.880
1156.572;    2.642;  -12.010;  667.060
1157.110;    0.214;  -16.250;  473.940
1157.647;    1.398;  -15.230;  676.960
1158.185;    0.575;  -13.770;  564.320
1158.723;    0.321;  -15.300;  509.200
1159.260;    1.456;  -13.130;  701.700
1159.798;    1.817;  -11.300;  658.160
1160.335;    1.111;  -13.210;  631.820

