
Integration time [ms]:   3.882
Averaging Nr. [scans]: 1000
Smoothing Nr. [pixels]: 0
Data measured with spectrometer [name]: 7414430SP
Wave   ;Sample   ;Dark     ;Reference
[nm]   ;[counts] ;[counts] ;[counts] 

288.544;  142.459;    7.153;  793.890
289.143;  145.617;    8.402;  681.602
289.742;  146.331;    7.062;  828.814
290.341;  132.688;    0.191;  789.841
290.940;  122.576;    0.321;  730.702
291.538;  123.955;    3.811;  881.108
292.137;  122.780;   -3.438;  792.581
292.736;  125.627;   -2.809;  975.101
293.335;  122.067;   -5.239;  735.086
293.934;  123.030;   -4.939;  781.677
294.532;  123.789;   -2.199; 1031.958
295.131;  109.349;   -6.831;  834.394
295.730;  109.867;   -6.620;  809.588
296.328;  107.204;   -6.471;  783.442
296.927;  107.175;   -6.571;  779.652
297.525;  107.784;   -7.391;  781.236
298.124;   99.269;   -9.402;  654.009
298.722;  104.000;   -5.781;  761.933
299.321;  101.661;   -6.351;  708.597
299.919;   99.648;   -8.661;  751.918
300.518;   94.991;  -11.922;  689.338
301.116;   95.797;   -6.941;  691.381
301.715;   97.199;   -5.471;  730.222
302.313;   95.803;   -8.361;  704.943
302.911;   91.669;   -9.082;  733.830
303.509;   96.620;   -4.571;  925.627
304.108;   94.602;   -7.111;  760.383
304.706;   94.185;   -7.681;  801.664
305.304;   88.264;   -9.162;  796.707
305.902;   94.163;   -6.761;  784.484
306.500;   89.647;   -6.921;  728.200
307.098;   88.540;   -6.491;  746.560
307.696;   86.824;   -6.941;  780.432
308.294;   86.396;   -6.301;  731.359
308.892;   88.985;   -4.771;  759.769
309.490;   84.047;   -5.141;  712.161
310.088;   82.843;   -2.912;  788.444
310.686;   87.073;   -0.421;  821.749
311.284;   82.951;   -3.461;  766.040
311.882;   81.383;   -6.282;  731.225
312.480;   77.855;   -3.632;  697.167
313.078;   80.104;   -2.112;  808.331
313.675;   80.280;   -1.931;  691.600
314.273;   75.441;   -1.442;  797.837
314.871;   74.637;   -3.002;  589.829
315.468;   72.218;   -2.252;  652.090
316.066;   75.370;   -1.091;  694.427
316.664;   68.948;   -4.512;  656.351
317.261;   73.103;   -0.062;  910.128
317.859;   68.740;   -0.952;  768.735
318.456;   68.992;    0.719;  830.096
319.054;   65.972;   -4.002;  787.828
319.651;   64.741;   -4.972;  759.928
320.249;   63.119;   -1.162;  810.188
320.846;   61.393;   -2.651;  714.286
321.443;   59.720;   -3.832;  832.135
322.041;   56.126;   -4.312;  812.315
322.638;   54.300;   -3.872;  701.456
323.235;   55.907;   -4.361;  665.683
323.833;   52.627;   -4.821;  740.354
324.430;   48.679;   -6.971;  615.900
325.027;   49.875;   -4.361;  876.855
325.624;   49.524;   -5.581;  644.532
326.221;   47.707;   -6.601;  689.717
326.818;   46.595;   -7.301;  818.332
327.415;   49.324;   -6.180;  748.828
328.012;   48.088;   -5.920;  690.585
328.609;   46.838;   -8.390;  731.389
329.206;   44.704;   -6.121;  778.621
329.803;   44.756;   -5.241;  737.841
330.400;   47.027;   -7.420;  704.260
330.997;   47.794;   -5.931;  817.147
331.594;   45.489;   -5.641;  788.185
332.191;   51.500;   -6.451;  728.722
332.787;   54.357;   -4.651;  844.463
333.384;   51.955;   -5.472;  763.093
333.981;   49.301;   -6.303;  815.687
334.578;   52.703;   -5.892;  708.378
335.174;   54.801;   -4.102;  731.469
335.771;   53.701;   -8.053;  836.456
336.367;   51.513;   -7.363;  710.631
336.964;   54.302;   -6.243;  793.266
337.561;   54.057;   -5.653;  731.112
338.157;   48.368;   -7.074;  911.916
338.754;   46.067;   -5.474;  796.589
339.350;   45.904;   -5.624;  722.493
339.946;   47.774;   -5.054;  773.135
340.543;   40.302;   -6.695;  846.136
341.139;   34.113;   -6.215;  720.836
341.735;   33.394;   -5.746;  772.593
342.332;   31.920;   -7.335;  691.472
342.928;   31.679;   -4.835;  795.394
343.524;   26.713;   -4.586;  761.684
344.120;   23.124;   -3.946;  738.562
344.716;   25.559;   -4.835;  723.717
345.313;   24.106;   -5.325;  795.342
345.909;   19.314;   -6.535;  627.336
346.505;   21.333;   -4.725;  740.247
347.101;   21.355;   -4.164;  827.864
347.697;   22.310;   -5.274;  785.398
348.293;   16.366;   -7.145;  627.244
348.889;   17.486;   -4.364;  745.914
349.485;   16.989;   -6.404;  688.205
350.081;   18.327;   -7.534;  772.592
350.676;   13.397;   -6.995;  691.606
351.272;   17.698;   -3.544;  809.530
351.868;   16.489;   -5.324;  780.497
352.464;   14.638;   -7.204;  723.932
353.059;   11.297;   -6.894;  646.017
353.655;   14.279;   -3.754;  777.063
354.251;   15.527;   -6.143;  759.845
354.846;    9.442;   -9.464;  740.646
355.442;    8.090;   -7.555;  753.071
356.038;   10.281;   -5.474;  751.708
356.633;    9.552;   -5.914;  728.594
357.229;    7.663;   -8.944;  724.757
357.824;    6.127;   -6.794;  703.600
358.420;    5.706;   -5.754;  679.726
359.015;    6.169;   -5.664;  695.357
359.610;    6.878;   -8.004;  763.920
360.206;    0.661;   -8.815;  603.240
360.801;    3.797;   -8.834;  646.503
361.396;    6.676;   -6.274;  725.975
361.992;    1.592;   -8.574;  668.220
362.587;   -0.957;   -9.265;  670.160
363.182;    0.671;   -5.484;  689.631
363.777;    1.490;   -5.164;  738.242
364.372;    1.659;   -6.954;  737.314
364.967;   -1.469;   -7.065;  680.744
365.563;    2.875;   -5.684;  815.567
366.158;   -0.242;   -6.484;  685.161
366.753;   -0.260;   -8.004;  649.263
367.348;   -1.897;  -10.114;  746.056
367.942;   -1.914;   -7.764;  697.298
368.537;   -2.617;   -4.554;  754.245
369.132;   -2.377;   -7.664;  703.428
369.727;   -6.902;   -8.905;  638.079
370.322;   -5.400;   -4.945;  580.186
370.917;   -5.218;   -7.095;  710.646
371.511;   -2.086;   -6.574;  861.834
372.106;   -5.439;   -6.515;  776.964
372.701;   -8.838;   -8.225;  585.988
373.296;   -2.841;   -4.494;  863.135
373.890;   -7.667;   -7.965;  647.840
374.485;   -9.755;   -9.745;  691.199
375.079;   -6.914;   -5.554;  738.685
375.674;   -4.448;   -4.724;  812.970
376.268;   -9.532;   -8.365;  691.759
376.863;  -14.863;   -8.126;  580.327
377.457;   -8.110;   -6.045;  662.490
378.052;   -9.622;   -6.835;  764.884
378.646;  -10.358;   -9.375;  741.167
379.240;  -11.224;   -6.185;  721.176
379.835;  -10.993;   -6.135;  636.978
380.429;  -12.529;   -8.365;  562.557
381.023;  -12.156;   -7.935;  779.205
381.617;  -14.635;   -8.325;  680.106
382.212;  -11.649;   -7.405;  685.303
382.806;  -10.075;   -4.155;  760.690
383.400;  -14.206;   -8.945;  672.281
383.994;  -16.063;   -8.365;  664.870
384.588;  -11.131;   -7.824;  697.701
385.182;  -10.672;   -7.984;  726.624
385.776;  -11.735;  -10.404;  706.875
386.370;  -14.968;   -7.335;  681.968
386.964;  -14.296;   -7.485;  684.155
387.558;  -11.992;   -8.174;  598.360
388.152;  -15.760;  -10.415;  681.959
388.745;  -12.978;   -9.595;  814.707
389.339;  -12.457;   -6.454;  747.642
389.933;  -10.978;   -5.804;  695.370
390.527;  -12.169;   -6.854;  859.029
391.120;  -18.778;   -7.665;  595.318
391.714;  -14.917;   -7.245;  711.633
392.308;  -11.430;   -4.514;  780.253
392.901;  -16.659;   -7.935;  642.460
393.495;  -17.587;   -8.585;  595.414
394.089;  -15.644;   -5.245;  760.452
394.682;  -15.745;   -6.305;  697.188
395.275;  -16.526;   -9.335;  719.927
395.869;  -18.570;   -7.375;  667.314
396.462;  -17.029;   -7.055;  616.609
397.056;  -12.265;   -5.434;  776.621
397.649;  -16.328;   -9.525;  731.575
398.242;  -14.026;   -7.574;  712.645
398.836;  -12.714;   -5.134;  766.408
399.429;  -14.473;   -6.544;  631.041
400.022;  -17.989;   -9.215;  665.902
400.615;  -15.103;   -8.105;  805.609
401.208;  -13.671;   -7.614;  691.451
401.802;  -16.110;   -8.085;  699.329
402.395;  -16.992;   -9.575;  683.502
402.988;  -18.271;   -9.285;  696.627
403.581;  -14.712;   -7.514;  646.878
404.174;  -12.491;   -6.404;  686.568
404.767;  -15.147;   -8.775;  638.583
405.360;  -17.831;   -7.415;  621.445
405.953;  -12.160;   -5.624;  759.034
406.545;  -11.348;   -6.474;  725.342
407.138;  -16.729;   -8.445;  618.350
407.731;  -14.572;  -10.044;  613.303
408.324;  -10.628;   -8.484;  660.554
408.917;  -11.649;   -7.624;  681.864
409.509;  -13.546;   -8.304;  740.396
410.102;  -16.409;   -8.495;  643.948
410.695;   -9.333;   -7.824;  665.758
411.287;  -10.863;   -7.754;  599.821
411.880;  -11.940;   -9.294;  585.421
412.472;  -14.505;   -8.814;  613.092
413.065;  -12.187;   -6.674;  629.408
413.657;  -10.354;   -9.664;  576.678
414.250;   -8.967;  -10.264;  646.681
414.842;  -11.304;   -8.664;  676.353
415.434;   -9.693;   -8.584;  570.463
416.027;   -5.933;   -9.423;  652.196
416.619;   -6.853;  -10.764;  713.400
417.211;   -8.129;   -7.404;  599.352
417.804;   -3.727;   -7.383;  628.499
418.396;   -8.129;   -8.334;  607.643
418.988;   -4.992;   -9.633;  659.238
419.580;   -8.696;  -10.554;  568.276
420.172;   -7.396;   -8.683;  536.196
420.764;   -3.014;   -9.713;  672.482
421.356;   -3.920;  -11.303;  636.898
421.948;   -4.603;   -8.453;  677.661
422.540;    0.482;   -5.793;  680.027
423.132;   -0.478;   -7.162;  600.641
423.724;   -4.455;   -7.933;  561.267
424.316;   -2.092;   -9.083;  621.345
424.908;    1.297;   -8.392;  591.517
425.500;    2.430;   -8.062;  647.978
426.092;    3.086;   -9.692;  648.268
426.683;    1.637;   -8.223;  684.836
427.275;    4.519;   -8.602;  641.471
427.867;    5.873;   -8.382;  668.948
428.458;    6.714;  -10.472;  732.344
429.050;    4.814;   -9.112;  680.749
429.642;    6.671;   -7.752;  743.124
430.233;    7.922;   -8.832;  569.356
430.825;    9.271;   -8.292;  724.809
431.416;    5.600;   -7.522;  698.241
432.008;   10.115;   -9.262;  651.723
432.599;   10.591;   -6.441;  656.073
433.190;    7.151;   -9.222;  637.670
433.782;    7.004;  -11.832;  590.395
434.373;   15.283;   -7.121;  884.765
434.964;   12.064;   -9.141;  602.920
435.556;   10.357;   -9.332;  634.537
436.147;   13.452;   -8.892;  758.490
436.738;   13.559;   -8.151;  701.099
437.329;   19.477;   -8.281;  721.723
437.920;   11.810;   -9.062;  666.688
438.511;   11.673;  -11.182;  564.526
439.103;   18.493;   -7.461;  623.998
439.694;   19.744;   -8.541;  681.583
440.285;   20.276;   -7.351;  764.432
440.876;   19.568;   -8.201;  845.738
441.466;   18.710;  -10.381;  575.162
442.057;   24.062;   -7.620;  665.814
442.648;   22.203;   -8.461;  746.255
443.239;   20.114;   -8.991;  620.477
443.830;   25.248;   -7.910;  704.958
444.421;   27.013;   -7.340;  655.474
445.011;   23.299;   -8.981;  693.619
445.602;   24.015;   -9.341;  743.126
446.193;   25.140;  -11.390;  488.117
446.783;   29.900;  -11.240;  640.397
447.374;   25.330;   -8.471;  692.759
447.964;   25.926;   -8.471;  713.770
448.555;   34.433;   -6.590;  822.742
449.145;   30.622;   -8.200;  662.853
449.736;   30.889;  -11.040;  803.179
450.326;   30.951;   -9.640;  713.626
450.917;   36.123;   -9.480;  675.324
451.507;   36.163;   -8.020;  600.661
452.097;   36.707;  -10.210;  746.267
452.688;   36.950;   -7.810;  742.160
453.278;   37.065;   -9.360;  566.840
453.868;   41.774;   -8.669;  793.550
454.458;   39.508;  -10.950;  651.141
455.048;   40.242;  -10.200;  711.783
455.639;   41.153;   -9.369;  567.096
456.229;   44.843;   -7.739;  710.694
456.819;   46.303;   -8.939;  751.158
457.409;   46.692;   -7.169;  773.993
457.999;   49.617;   -7.779;  737.505
458.589;   49.409;   -7.039;  686.606
459.179;   49.808;   -9.019;  717.658
459.769;   46.519;   -8.909;  627.099
460.358;   51.899;   -8.659;  797.262
460.948;   51.667;   -8.209;  689.503
461.538;   53.966;   -9.879;  660.677
462.128;   51.025;   -9.379;  664.934
462.717;   58.360;   -9.158;  710.326
463.307;   61.017;   -8.638;  705.846
463.897;   56.519;   -8.869;  656.942
464.486;   56.275;   -7.409;  837.128
465.076;   60.474;   -9.618;  733.776
465.666;   63.817;   -7.578;  652.900
466.255;   62.811;   -9.369;  785.651
466.845;   60.713;  -10.049;  666.749
467.434;   63.816;   -8.168;  725.873
468.023;   64.706;   -9.188;  658.357
468.613;   63.100;   -9.849;  713.946
469.202;   67.026;  -12.958;  646.507
469.791;   71.085;   -9.488;  737.811
470.381;   72.755;   -6.468;  742.813
470.970;   72.841;  -10.248;  711.099
471.559;   72.749;  -11.428;  733.291
472.148;   74.993;   -9.738;  675.737
472.738;   78.124;   -7.877;  765.466
473.327;   77.159;  -11.868;  637.529
473.916;   77.441;   -8.578;  737.446
474.505;   81.080;  -11.137;  751.703
475.094;   85.286;   -9.407;  806.570
475.683;   84.227;   -9.977;  797.699
476.272;   84.937;  -10.807;  730.632
476.861;   87.973;  -11.017;  706.754
477.449;   93.871;  -10.316;  728.487
478.038;   88.278;  -10.187;  692.513
478.627;   89.875;  -12.458;  714.852
479.216;   96.156;  -10.127;  769.441
479.805;   99.260;   -6.256;  783.375
480.393;   99.192;   -8.737; 1008.945
480.982;   97.949;   -9.087;  874.501
481.571;  104.312;   -7.806;  858.333
482.159;  104.156;  -10.596;  705.386
482.748;  104.102;  -11.507;  821.385
483.336;  108.622;   -8.366;  858.209
483.925;  109.569;   -7.497;  774.373
484.513;  116.251;   -8.326;  758.962
485.102;  112.900;  -10.277;  810.965
485.690;  122.449;   -8.256; 1011.050
486.278;  123.548;   -7.146;  979.329
486.867;  124.185;   -7.986;  809.662
487.455;  125.643;   -9.926;  898.229
488.043;  128.071;  -10.026;  748.361
488.631;  137.594;   -7.226; 1005.079
489.220;  141.768;   -8.696;  908.626
489.808;  142.108;  -12.276;  741.415
490.396;  150.061;   -9.386;  914.645
490.984;  157.455;   -8.506;  830.161
491.572;  168.771;   -8.226;  940.315
492.160;  175.482;   -9.836;  919.081
492.748;  188.182;  -10.316;  884.341
493.336;  212.274;   -7.146; 1019.693
493.924;  240.726;   -7.965;  958.077
494.512;  275.415;  -10.316; 1066.638
495.100;  319.226;  -10.186; 1103.280
495.687;  389.840;   -7.805; 1206.373
496.275;  467.944;   -9.686; 1150.796
496.863;  566.315;  -11.566; 1281.171
497.451;  660.398;  -11.406; 1386.805
498.038;  792.363;   -8.235; 1556.729
498.626;  934.867;   -7.485; 1741.407
499.214; 1109.470;   -8.646; 2016.609
499.801; 1394.091;   -9.936; 2220.633
500.389; 1674.094;   -8.056; 2312.494
500.976; 1885.242;   -6.166; 2744.849
501.564; 2144.379;   -9.126; 3148.565
502.151; 2550.609;  -12.456; 3515.999
502.738; 2984.711;  -10.056; 3971.274
503.326; 3433.752;  -10.605; 4403.796
503.913; 3849.578;  -10.576; 5161.749
504.500; 4485.703;   -9.056; 5986.420
505.088; 5027.231;  -10.136; 6381.201
505.675; 5764.998;   -9.075; 6925.547
506.262; 6254.281;  -11.346; 7619.060
506.849; 7143.925;   -9.376; 8733.969
507.436; 7873.112;   -7.365; 9790.121
508.023; 7702.444;   -8.686; 9985.472
508.610; 7988.009;   -8.846;10434.618
509.197; 8935.179;   -9.077;11198.435
509.784;10517.920;  -10.246;12391.194
510.371;11840.733;   -9.825;13603.713
510.958;13146.124;  -10.896;14426.586
511.545;13706.284;   -9.006;15243.775
512.132;13252.167;   -8.765;15945.876
512.719;14010.382;   -8.286;16340.369
513.305;15879.970;   -9.256;18011.766
513.892;17690.559;  -11.106;19754.971
514.479;21068.975;   -8.576;20967.805
515.066;24279.674;   -9.046;22299.793
515.652;24693.139;  -10.676;22908.660
516.239;25019.953;  -10.166;23798.875
516.825;24944.461;  -11.266;25567.275
517.412;24538.955;   -7.446;28154.959
517.998;23553.443;  -10.916;28344.111
518.585;22918.340;   -9.166;27134.219
519.171;21924.637;  -10.135;27268.576
519.758;23176.799;   -8.806;28964.129
520.344;26612.980;   -6.716;30664.494
520.930;29183.367;  -10.166;32550.605
521.516;29319.459;   -9.615;35422.895
522.103;31693.418;   -8.656;38280.004
522.689;32580.256;   -9.646;37835.117
523.275;31948.547;  -10.786;37288.613
523.861;34806.801;   -9.266;37281.395
524.447;35921.324;   -8.285;37846.949
525.033;34731.242;   -9.426;38321.949
525.619;33622.941;   -9.836;38579.285
526.205;34695.191;   -8.136;40622.875
526.791;35743.809;   -9.986;42258.836
527.377;36327.676;   -8.236;42966.902
527.963;35803.914;  -12.117;42018.949
528.549;34455.207;   -8.376;42476.828
529.135;35604.977;   -8.696;41854.852
529.721;38133.609;   -9.686;41237.711
530.306;39993.113;   -8.616;41259.445
530.892;41486.992;   -9.396;41506.047
531.478;42010.371;   -9.926;43559.613
532.063;42408.809;  -10.236;47695.563
532.649;44255.285;   -8.257;50808.324
533.235;45292.078;  -11.476;51787.500
533.820;44795.469;   -8.156;52145.035
534.406;45667.449;  -12.257;51133.488
534.991;42836.934;   -8.686;49996.805
535.576;39956.988;   -9.426;48882.852
536.162;38765.164;   -8.436;46942.285
536.747;39425.477;  -10.957;45711.746
537.333;39691.512;  -13.147;48510.180
537.918;41862.434;   -9.027;50439.891
538.503;44049.750;   -8.256;50863.711
539.088;45519.039;  -10.576;50906.922
539.673;46621.344;  -10.907;52621.965
540.259;47054.297;   -9.126;52368.094
540.844;46184.809;   -9.026;50879.109
541.429;45764.871;   -9.597;52077.777
542.014;47003.152;  -11.447;52716.695
542.599;48366.094;   -9.236;52363.281
543.184;48699.238;  -12.267;53187.137
543.769;49733.840;  -10.367;54697.605
544.354;49255.375;  -10.887;53913.914
544.938;43840.191;  -11.687;49680.164
545.523;39533.418;   -8.286;47386.277
546.108;40131.109;   -9.317;49151.949
546.693;40677.965;  -10.187;51384.637
547.278;38906.031;   -9.926;51853.254
547.862;37839.711;   -9.196;51173.750
548.447;38041.410;   -9.657;51691.395
549.031;40104.254;   -9.127;52456.703
549.616;42001.527;  -10.836;52714.516
550.201;42984.977;   -8.507;52414.598
550.785;44494.844;  -10.537;52355.059
551.370;47223.164;  -11.727;54589.453
551.954;47752.938;   -9.457;58267.348
552.538;47042.363;   -8.147;59062.176
553.123;45625.508;   -9.397;58115.285
553.707;45426.988;   -9.558;56556.285
554.291;44214.980;   -9.417;56201.668
554.876;47140.465;   -7.627;55335.762
555.460;46426.816;  -10.457;54155.703
556.044;41625.957;  -10.078;53721.484
556.628;40418.086;   -9.407;53731.016
557.212;40803.324;   -7.957;54312.531
557.796;42315.629;  -11.327;53797.773
558.380;46425.016;  -10.868;56145.984
558.964;46045.582;   -9.637;57277.930
559.548;43579.984;   -8.807;56459.641
560.132;45397.184;  -10.187;54434.543
560.716;45489.082;   -9.868;54800.617
561.300;47662.719;  -10.217;57606.945
561.884;48216.902;   -4.947;58972.445
562.467;45207.773;   -9.588;57327.570
563.051;40685.645;  -11.138;54962.434
563.635;41015.258;   -9.358;52594.473
564.219;41170.516;   -9.797;50610.410
564.802;41098.301;   -9.918;49551.180
565.386;40346.840;  -10.838;48370.953
565.969;38935.797;   -8.037;48178.871
566.553;37654.410;   -5.667;49957.305
567.136;38321.145;   -8.258;50369.594
567.720;38994.582;  -11.278;49492.004
568.303;36915.473;   -9.028;50616.352
568.887;35083.359;   -7.508;50727.148
569.470;34736.676;  -11.068;51698.379
570.053;36271.480;  -10.028;52122.078
570.637;36142.109;  -11.077;52536.438
571.220;37411.215;   -8.747;51186.098
571.803;39904.758;   -8.868;51032.762
572.386;40689.684;  -10.608;49609.887
572.969;40701.586;  -10.548;48285.926
573.552;38634.371;   -7.898;47624.285
574.135;37356.398;   -9.918;45498.641
574.718;33208.566;  -10.328;41970.434
575.301;30569.293;   -9.548;41447.137
575.884;27930.020;   -8.768;40923.836
576.467;33466.754;   -9.858;45267.723
577.050;34812.352;  -11.018;48175.543
577.633;36218.469;  -10.048;47729.328
578.216;35860.078;  -10.268;47579.793
578.799;33816.441;  -11.808;47820.996
579.381;32879.277;   -7.338;48115.551
579.964;34622.559;   -9.728;47333.766
580.547;35077.625;   -8.928;46668.969
581.129;35337.176;   -9.149;44466.141
581.712;36541.387;  -11.359;44164.922
582.294;36004.578;  -10.738;46477.855
582.877;34359.938;   -8.788;48244.254
583.459;33714.250;   -9.859;47437.895
584.042;35086.668;   -9.649;46943.219
584.624;34629.844;  -10.529;46792.227
585.206;32185.189;  -10.298;46557.250
585.789;29474.236;  -11.029;45793.773
586.371;27371.629;   -9.359;43836.391
586.953;25166.021;   -8.799;42972.492
587.536;25714.352;   -8.928;42487.211
588.118;28823.768;   -9.180;42086.414
588.700;30486.793;  -10.519;43389.930
589.282;30419.391;   -8.098;43646.039
589.864;30662.639;   -8.139;43438.109
590.446;32673.883;  -10.509;43151.926
591.028;35561.168;  -11.119;42781.867
591.610;36575.457;  -10.019;42839.098
592.192;35123.250;   -8.838;42820.402
592.774;32722.998;  -11.549;40724.277
593.356;29908.139;  -11.609;39874.789
593.937;30792.594;  -10.019;39980.648
594.519;34517.129;   -7.839;42069.633
595.101;36818.359;  -10.779;42976.031
595.683;37193.289;  -10.049;44084.441
596.264;35540.191;   -9.969;43478.797
596.846;33637.879;   -9.699;43803.672
597.427;32995.316;  -10.970;42986.934
598.009;33802.383;  -13.090;42832.219
598.591;34009.406;   -9.509;42580.086
599.172;32488.193;   -9.019;43061.805
599.753;30208.105;  -13.310;41691.469
600.335;29854.166;  -11.010;40692.520
600.916;29798.139;  -10.309;39982.422
601.498;30195.412;   -8.209;40318.617
602.079;31105.662;  -11.440;40670.609
602.660;32634.881;   -8.690;41450.898
603.241;33937.316;  -12.759;41137.738
603.823;32310.213;  -10.409;38868.797
604.404;32582.219;  -11.790;38182.785
604.985;30933.744;  -10.280;38078.047
605.566;31736.391;   -8.059;38056.633
606.147;31832.412;   -8.960;37020.418
606.728;31352.068;  -10.710;37883.359
607.309;31231.961;  -12.760;38748.273
607.890;29127.357;   -9.959;38850.230
608.471;27162.443;   -9.780;37457.918
609.051;28940.791;   -8.940;36066.457
609.632;32424.104;  -12.070;35991.074
610.213;34458.352;   -9.610;37402.641
610.794;34690.188;   -8.750;38383.363
611.374;33517.594;  -11.100;40562.387
611.955;33697.863;  -12.200;38533.727
612.536;33484.859;  -10.410;36951.789
613.116;33423.523;  -10.010;37197.891
613.697;32453.697;  -10.480;38411.125
614.277;30799.861;  -12.751;38673.938
614.858;30019.412;  -11.600;37075.863
615.438;29257.387;   -8.190;35092.906
616.019;28810.971;   -8.941;33666.301
616.599;29651.227;  -13.540;34189.023
617.179;29298.852;  -10.890;36952.047
617.760;28803.172;   -7.610;39582.574
618.340;28571.432;  -14.441;38943.977
618.920;29429.041;   -9.180;37594.156
619.500;30339.826;  -11.881;37866.938
620.080;32425.250;   -9.870;37869.043
620.660;32216.145;  -13.211;36868.617
621.241;31152.424;  -11.921;36352.309
621.821;30261.605;  -10.271;35459.520
622.401;29830.348;   -8.200;35207.414
622.980;30717.074;  -11.141;35980.422
623.560;32372.385;  -14.321;37351.328
624.140;32449.340;   -9.360;34388.582
624.720;28261.473;   -7.481;32368.764
625.300;25591.762;  -12.730;32638.629
625.880;30189.746;  -11.441;34599.035
626.459;33022.395;  -10.971;36831.738
627.039;34588.398;   -9.011;38299.098
627.619;34461.652;   -8.521;38289.574
628.198;35101.641;   -9.861;37220.695
628.778;34574.066;   -8.841;37632.563
629.357;33661.113;   -9.891;38003.012
629.937;31577.494;  -11.871;38402.039
630.516;29366.943;  -10.641;37868.801
631.096;31890.432;  -11.391;35760.410
631.675;33985.227;   -6.622;35225.219
632.254;32051.516;  -13.002;35130.289
632.834;30834.715;  -11.622;35794.570
633.413;32326.279;   -8.321;35788.922
633.992;30679.203;   -7.732;34532.863
634.571;30738.285;  -10.992;33590.113
635.151;31814.098;  -10.422;34943.863
635.730;30978.756;  -11.511;35352.523
636.309;29219.611;   -7.901;35366.605
636.888;29556.674;  -11.452;36165.637
637.467;30551.689;  -10.672;37515.902
638.046;29903.510;   -9.301;39288.695
638.625;30327.730;  -11.452;38279.699
639.204;31133.055;  -12.262;37741.598
639.782;31138.100;  -11.892;38364.551
640.361;30301.199;  -11.411;36740.621
640.940;27439.496;  -11.501;34950.082
641.519;28446.551;  -10.921;34137.398
642.097;31511.711;  -10.101;35654.258
642.676;31113.834;  -10.821;35637.957
643.255;33378.063;   -8.631;36567.074
643.833;35990.820;  -11.411;37809.434
644.412;36857.184;  -12.021;37337.293
644.990;36341.895;  -12.271;37018.531
645.569;34966.117;   -9.741;36518.469
646.147;33888.484;   -9.051;36186.430
646.726;32772.391;  -13.861;36267.688
647.304;32290.209;   -9.461;36647.625
647.882;31638.621;  -13.171;39286.742
648.461;32121.543;  -11.911;39157.703
649.039;32898.883;   -9.541;35412.883
649.617;34325.582;   -8.901;34744.918
650.195;32039.430;   -8.591;35403.098
650.773;29876.568;  -13.031;35053.797
651.352;28496.744;  -12.211;33756.816
651.930;26066.393;  -11.361;31868.773
652.508;23075.521;   -8.601;33121.551
653.086;26464.268;   -9.991;33564.793
653.663;31274.588;  -11.931;34054.668
654.241;33656.852;  -10.821;35693.309
654.819;34143.480;   -9.341;36422.906
655.397;31930.703;  -10.851;38213.484
655.975;30304.088;  -11.461;39507.625
656.553;30601.588;   -8.841;39498.223
657.130;29363.453;  -10.371;40395.480
657.708;27762.693;  -11.071;39242.020
658.286;27573.197;  -11.141;38920.020
658.863;29424.432;  -10.861;40202.898
659.441;34725.691;  -11.181;39677.938
660.018;36628.941;  -10.851;40413.355
660.596;35211.996;  -12.571;39931.414
661.173;35882.332;  -12.141;39604.531
661.750;33896.777;  -11.571;39700.070
662.328;31407.715;  -10.780;39292.809
662.905;30128.057;  -10.750;38235.648
663.482;27095.631;  -11.320;36212.305
664.060;25595.443;  -10.160;35944.945
664.637;29768.990;  -13.120;35170.785
665.214;32219.057;  -11.500;34197.523
665.791;31074.654;  -12.430;34549.520
666.368;29723.752;   -9.840;35118.578
666.945;28988.998;  -11.290;36019.418
667.522;29135.221;  -13.540;36048.438
668.099;30046.867;  -10.250;36243.914
668.676;28891.270;  -11.270;35958.875
669.253;27955.334;   -8.210;37384.730
669.830;27026.531;   -9.710;36779.629
670.407;27128.906;   -9.700;35231.289
670.984;27243.396;   -9.190;35544.270
671.560;25672.754;   -9.560;35466.867
672.137;24796.826;  -11.820;34280.863
672.714;27867.672;  -12.460;34632.863
673.290;32204.100;  -10.940;35135.422
673.867;31959.504;  -10.510;36114.480
674.443;29734.885;  -12.110;36152.859
675.020;30591.314;  -11.760;35327.238
675.596;31858.703;   -9.380;35795.176
676.173;32071.336;  -11.120;35430.355
676.749;32070.672;  -13.390;33549.516
677.326;31066.000;  -12.600;32210.012
677.902;29889.445;  -10.830;32068.871
678.478;28819.082;  -12.400;32583.891
679.054;29383.840;   -8.610;32088.928
679.631;30359.223;  -11.640;30978.848
680.207;31916.744;   -8.140;33160.887
680.783;32575.145;  -12.300;35570.363
681.359;31010.650;  -10.910;36125.184
681.935;29608.123;  -11.040;35240.922
682.511;29379.768;  -11.130;34429.961
683.087;29273.605;  -11.080;34463.680
683.663;31102.025;  -10.530;34648.898
684.239;31341.080;  -12.120;34546.457
684.815;30071.650;   -8.870;35586.375
685.390;29004.887;   -8.940;35821.895
685.966;28547.750;  -12.109;35085.871
686.542;27909.889;  -13.539;34198.230
687.118;27659.840;  -10.379;32847.707
687.693;27937.295;  -10.189;32794.027
688.269;26926.791;  -12.939;33072.367
688.844;25761.498;   -8.679;33141.664
689.420;27288.408;  -10.919;33965.742
689.995;28376.740;   -7.489;34655.523
690.571;27020.904;  -12.199;33576.742
691.146;26783.170;   -8.979;32657.219
691.722;29089.730;   -9.119;32526.979
692.297;29302.129;  -10.519;33014.617
692.872;28552.910;  -10.629;34012.254
693.448;27597.434;  -12.119;34237.434
694.023;27024.328;   -8.219;34142.672
694.598;25793.865;  -13.209;34132.031
695.173;24487.502;  -11.879;34205.250
695.748;25287.203;  -12.039;32882.488
696.323;26356.197;  -11.779;32864.906
696.898;27068.830;  -10.219;33170.004
697.473;28732.422;  -13.639;32432.984
698.048;29324.527;  -11.239;31649.303
698.623;31132.830;  -10.859;30778.141
699.198;32383.617;  -13.379;31140.119
699.773;32971.809;  -13.409;31764.299
700.348;33027.820;  -12.329;31780.816
700.922;33289.125;   -8.749;32046.375
701.497;33066.027;  -12.449;32603.574
702.072;31393.156;   -8.879;34799.871
702.646;29512.646;  -10.719;35793.172
703.221;28303.951;   -8.469;35201.590
703.795;29391.264;  -11.389;34764.527
704.370;28421.912;  -12.499;34307.367
704.944;26857.381;  -11.449;33509.887
705.519;26161.635;  -10.659;31388.584
706.093;25527.400;  -12.909;31340.104
706.668;25751.135;  -13.509;32630.281
707.242;27203.277;  -10.049;32728.779
707.816;27652.918;  -10.629;32947.238
708.390;26649.029;  -11.829;33277.855
708.965;25036.080;  -11.159;33834.336
709.539;25186.186;  -11.069;33709.273
710.113;24783.270;  -10.908;33044.313
710.687;22694.646;   -9.488;31953.992
711.261;23193.238;  -13.068;30505.949
711.835;25683.994;  -12.748;30262.369
712.409;27193.822;  -10.678;31254.447
712.983;26233.295;  -11.658;32754.986
713.557;25881.869;  -13.718;34018.824
714.131;26566.217;  -13.388;34579.625
714.704;28999.865;   -9.818;33890.262
715.278;31227.387;  -11.818;33531.102
715.852;31905.967;  -11.328;33601.660
716.425;32411.984;   -9.118;33515.117
716.999;32480.031;  -10.188;33185.555
717.573;31310.330;   -9.808;33905.996
718.146;30904.582;  -11.478;35199.293
718.720;30434.703;  -10.998;35060.551
719.293;30114.504;   -9.508;34973.230
719.867;30499.350;  -12.138;36394.449
720.440;29547.811;  -11.288;36663.008
721.013;31550.779;  -11.428;35102.426
721.587;33748.285;  -11.698;33985.266
722.160;35902.086;  -11.608;33524.965
722.733;35694.996;  -11.428;32987.043
723.306;32163.428;  -12.518;33066.301
723.880;30299.516;   -7.408;33399.500
724.453;29926.707;  -11.048;33468.297
725.026;28555.189;  -11.678;33816.637
725.599;27215.053;  -10.978;32797.996
726.172;25233.701;   -8.838;33187.434
726.745;25120.617;  -11.438;35136.613
727.318;26616.232;   -9.828;35751.730
727.891;27307.029;  -10.868;35890.430
728.463;27287.691;  -11.348;34822.090
729.036;25935.383;  -11.608;32895.086
729.609;25275.750;  -14.738;31823.225
730.182;25731.303;   -8.448;31445.283
730.754;26506.711;  -11.228;32373.223
731.327;26476.691;  -12.018;33676.820
731.900;27845.572;  -13.748;33417.000
732.472;28918.691;  -10.928;31978.498
733.045;28713.445;   -9.478;30368.777
733.617;27209.631;  -12.967;30574.215
734.190;26481.512;  -11.707;31280.975
734.762;25587.328;  -11.067;31674.412
735.334;24454.969;  -10.587;31247.291
735.907;23637.936;  -11.947;29876.211
736.479;24264.059;  -11.667;29808.488
737.051;25935.545;  -10.187;30233.547
737.623;26967.094;   -6.887;31469.086
738.195;28648.236;  -12.117;31784.225
738.768;30310.598;  -14.077;32120.523
739.340;28942.326;  -12.207;32094.342
739.912;26677.871;   -8.977;31312.680
740.484;26240.854;  -11.017;31946.238
741.056;29104.201;  -13.517;32984.059
741.628;32187.793;  -11.507;33897.715
742.199;32208.799;   -7.597;33213.016
742.771;30804.070;  -12.227;31369.113
743.343;28544.479;  -12.427;31865.473
743.915;26609.949;   -9.827;32388.631
744.487;25920.492;  -10.007;31079.568
745.058;25345.869;  -11.887;30570.107
745.630;24713.006;  -10.787;29970.127
746.201;24311.535;  -10.887;29186.766
746.773;25566.502;   -9.707;28805.723
747.344;26652.404;  -11.137;29591.223
747.916;25642.896;  -11.887;31412.201
748.487;24655.025;   -9.707;32194.898
749.059;23589.520;  -10.027;32533.719
749.630;22995.645;  -11.787;32158.518
750.201;22455.088;  -12.767;30855.395
750.773;21511.326;  -11.497;28622.555
751.344;22620.090;   -9.937;28405.732
751.915;22280.762;  -11.567;28461.551
752.486;20209.648;  -13.267;27842.850
753.057;18796.131;  -10.627;27845.008
753.628;18463.350;  -11.657;27728.107
754.199;20489.539;  -12.097;27381.086
754.770;21826.479;  -11.447;25882.203
755.341;22214.561;  -11.997;25886.184
755.912;20449.400;  -10.207;26050.861
756.483;18127.018;  -10.937;26798.779
757.054;18397.385;  -11.527;27048.238
757.625;19002.656;  -12.886;26294.838
758.195;19098.654;  -11.226;26142.076
758.766;19657.932;  -12.366;26392.234
759.337;18907.559;  -11.946;26334.594
759.907;18386.748;  -13.856;27579.652
760.478;19478.092;   -9.606;28352.770
761.048;21019.889;  -11.606;27325.088
761.619;21970.984;  -11.036;26460.428
762.189;20944.328;  -12.206;26029.826
762.760;20422.084;   -9.666;26430.145
763.330;20953.748;   -9.796;26670.902
763.900;20076.160;  -10.896;26603.021
764.471;19200.680;  -11.726;25542.740
765.041;20066.090;   -9.656;24358.459
765.611;20602.529;  -11.276;23991.297
766.181;20159.689;  -12.116;24470.236
766.751;19885.928;  -12.376;24845.975
767.321;19789.719;  -11.626;24533.633
767.891;19025.303;  -10.426;24916.492
768.461;17288.119;  -13.456;24776.771
769.031;15366.645;  -11.616;24757.988
769.601;14786.614;  -11.356;24181.088
770.171;14967.320;  -11.586;23670.387
770.741;15753.621;  -12.696;22960.045
771.311;17296.203;  -10.226;22917.523
771.880;18141.092;  -11.146;23562.941
772.450;18388.637;  -11.716;24216.500
773.020;17538.939;  -13.226;24140.398
773.589;16309.668;  -12.586;24414.857
774.159;15907.432;  -10.246;23858.717
774.729;15516.011;  -11.586;22942.135
775.298;15409.410;  -15.926;22324.033
775.867;15656.304;  -10.426;21140.313
776.437;15470.170;  -11.416;20838.092
777.006;13637.626;  -12.766;20599.510
777.576;13469.737;  -13.666;20508.809
778.145;14474.835;  -10.066;20732.947
778.714;14345.999;  -10.276;21062.465
779.283;13779.488;  -12.086;20949.664
779.853;13705.379;  -14.016;20508.623
780.422;13655.842;  -12.376;20649.082
780.991;13172.838;   -9.246;21527.520
781.560;12916.390;   -9.775;22632.658
782.129;13048.456;  -12.495;23048.277
782.698;13058.176;  -11.775;23438.555
783.267;13218.522;  -10.065;23267.734
783.836;14077.775;  -12.455;22415.133
784.404;14392.430;  -13.385;20443.152
784.973;14387.920;  -11.045;19699.150
785.542;13893.992;   -9.505;19763.828
786.111;13070.875;   -9.385;20341.408
786.679;12782.704;  -13.475;20207.967
787.248;12603.240;  -11.245;19516.465
787.817;11404.153;  -12.485;18900.363
788.385;10301.487;  -11.165;17879.121
788.954;10876.699;  -11.755;17658.301
789.522;11609.126;   -9.625;17788.879
790.090;11671.417;   -9.665;18118.277
790.659;10904.394;   -9.295;18338.736
791.227;10952.022;  -12.175;18508.615
791.795;11734.473;  -12.145;17898.254
792.364;12012.657;  -11.575;17295.133
792.932;11306.661;  -11.085;16822.051
793.500;10595.112;  -11.345;17040.148
794.068;10400.943;  -12.565;17179.787
794.636;11345.017;  -12.105;16664.246
795.204;12393.684;  -11.995;16524.545
795.772;12323.763;  -12.615;17274.564
796.340;11784.786;  -12.425;17891.002
796.908;11092.386;  -11.455;17648.561
797.476; 9954.378;  -12.165;17064.080
798.044; 8912.304;  -15.795;16672.777
798.612; 8592.952;  -10.985;17023.996
799.180; 9115.343;  -12.055;16561.615
799.747; 9340.848;  -12.525;15962.773
800.315; 8497.896;  -14.765;15296.992
800.883; 7462.910;  -12.435;14801.771
801.450; 7469.179;  -11.295;14534.430
802.018; 7981.208;  -11.185;14173.248
802.585; 8116.110;  -11.625;14029.547
803.153; 7429.424;  -10.665;13836.846
803.720; 6981.009;  -10.275;13567.324
804.287; 7093.408;  -12.865;13360.622
804.855; 7393.726;  -12.324;13681.981
805.422; 7581.029;  -11.574;13536.560
805.989; 7338.073;  -11.004;13355.958
806.556; 7452.517;  -12.214;13747.896
807.124; 7699.481;  -13.304;13987.376
807.691; 7490.598;  -12.034;14038.674
808.258; 7240.243;  -11.014;14120.152
808.825; 7117.049;  -11.804;13860.111
809.392; 6892.827;  -11.544;13268.790
809.959; 6804.469;  -14.954;12680.389
810.526; 7187.449;  -10.214;12427.308
811.093; 7143.641;  -10.754;12030.105
811.659; 6757.244;  -12.194;11653.664
812.226; 6124.043;   -9.194;11637.183
812.793; 5965.421;   -9.644;11611.521
813.360; 6635.585;  -11.544;11885.181
813.926; 7573.300;  -12.814;12770.539
814.493; 7487.852;  -11.524;12677.638
815.060; 7147.611;  -12.254;11974.336
815.626; 6938.140;  -12.114;11594.715
816.193; 6640.669;  -11.994;11579.474
816.759; 6344.236;  -11.464;11666.972
817.325; 6111.152;  -10.444;11325.530
817.892; 5942.679;  -11.124;11105.369
818.458; 5955.636;  -11.864;10843.928
819.024; 6332.594;  -10.634;10714.406
819.591; 6437.925;  -10.554;10469.165
820.157; 6435.864;  -13.334;10235.523
820.723; 6481.398;  -13.044;10847.563
821.289; 6555.916;   -9.664;11040.980
821.855; 6832.916;  -10.994;10357.100
822.421; 7152.197;  -11.784; 9978.918
822.987; 7312.599;  -12.554; 9754.177
823.553; 7302.763;  -12.554;10065.755
824.119; 6937.355;   -8.544;10036.294
824.685; 6200.071;  -12.144;10029.192
825.251; 5862.870;  -12.754;10199.230
825.816; 5527.191;  -11.354; 9820.189
826.382; 5186.372;  -11.004; 9297.248
826.948; 5140.144;  -11.004; 9381.347
827.513; 5326.163;  -12.474; 9450.726
828.079; 5463.355;  -13.084; 9472.444
828.645; 5660.396;  -10.813; 9292.643
829.210; 5592.829;  -11.593; 9065.341
829.776; 5715.351;  -12.633; 9132.620
830.341; 5991.136;  -10.473; 9092.878
830.906; 5847.621;   -8.763; 9078.557
831.472; 5138.857;  -13.453; 8534.535
832.037; 4109.977;  -12.173; 8677.874
832.602; 3817.806;  -14.093; 8628.692
833.167; 4220.114;  -13.593; 8879.031
833.733; 4874.303;  -10.793; 9189.790
834.298; 5276.721;  -14.783; 9052.608
834.863; 4951.316;  -11.023; 8895.087
835.428; 4758.358;  -11.113; 8824.266
835.993; 5111.930;   -9.983; 8845.385
836.558; 5356.715;  -13.003; 8888.563
837.123; 5251.482;  -10.733; 8966.582
837.688; 4860.896;   -9.683; 8617.860
838.253; 4659.045;  -12.253; 8590.699
838.817; 4828.704;  -11.643; 8443.797
839.382; 4966.969;  -11.953; 8799.356
839.947; 4960.833;  -11.443; 8810.595
840.511; 4855.990;  -10.843; 8796.394
841.076; 4901.676;  -13.533; 8347.231
841.641; 5049.720;  -11.743; 8224.330
842.205; 4788.835;  -10.013; 8223.349
842.770; 4486.033;  -11.023; 8622.107
843.334; 4495.221;  -14.273; 8410.386
843.898; 4799.813;  -11.323; 8337.465
844.463; 5223.487;  -10.263; 8506.283
845.027; 5381.431;  -10.353; 8280.962
845.591; 5290.788;  -12.163; 8231.141
846.156; 5078.744;  -12.263; 7969.179
846.720; 5111.344;  -11.553; 7768.278
847.284; 5103.135;  -12.393; 7630.957
847.848; 4438.829;  -12.623; 7472.395
848.412; 3740.357;  -11.863; 7437.394
848.976; 3564.195;  -10.203; 7674.592
849.540; 3656.184;  -10.603; 7836.011
850.104; 3789.501;  -12.423; 7913.669
850.668; 3875.151;  -14.613; 7694.508
851.232; 3761.153;  -12.873; 7756.887
851.796; 3682.209;  -14.192; 7926.545
852.359; 3733.369;  -13.652; 7827.844
852.923; 3695.208;  -11.402; 7641.163
853.487; 3595.159;  -12.022; 7342.501
854.050; 3509.180;  -15.202; 7042.820
854.614; 3486.027;  -14.592; 7151.338
855.177; 3401.196;  -12.572; 7105.077
855.741; 3416.460;   -9.932; 6989.675
856.304; 3576.379;  -12.192; 6596.634
856.868; 3657.530;  -13.462; 6356.272
857.431; 3675.880;  -11.542; 6468.571
857.995; 3684.496;  -12.062; 6373.210
858.558; 3396.710;  -11.142; 6324.448
859.121; 3077.348;  -11.742; 6408.327
859.684; 2902.631;  -10.332; 6347.886
860.247; 2910.683;  -11.962; 6321.264
860.810; 3024.157;  -12.332; 6301.903
861.374; 2990.014;  -10.292; 6607.881
861.937; 2882.563;  -12.062; 6408.200
862.500; 2915.255;  -11.702; 6572.639
863.062; 3008.419;  -13.852; 6387.297
863.625; 3056.626;  -12.972; 6190.836
864.188; 2962.805;  -10.292; 5807.254
864.751; 2884.754;  -12.382; 5682.413
865.314; 2764.379;  -13.232; 5547.492
865.876; 2609.393;  -12.772; 5500.150
866.439; 2452.564;  -11.952; 5415.909
867.002; 2431.604;   -9.332; 5501.567
867.564; 2658.944;  -11.712; 5413.946
868.127; 2805.723;  -12.012; 5160.325
868.689; 2558.720;  -11.882; 5133.183
869.252; 2256.284;  -11.572; 5252.382
869.814; 2153.133;  -10.692; 5297.141
870.377; 2223.048;  -12.392; 5390.919
870.939; 2298.797;  -10.582; 5599.898
871.501; 2334.431;  -12.782; 5248.336
872.063; 2369.186;  -15.612; 4854.235
872.626; 2388.909;  -13.922; 4817.074
873.188; 2273.805;  -13.832; 4987.732
873.750; 2129.990;  -10.962; 4868.651
874.312; 2127.953;  -11.022; 4779.330
874.874; 2129.261;  -13.152; 4866.348
875.436; 2069.542;  -13.401; 4718.887
875.998; 2013.068;   -8.891; 4660.005
876.560; 1990.592;  -12.591; 4462.964
877.122; 1981.649;  -14.531; 4145.042
877.683; 1920.690;  -10.781; 4056.481
878.245; 1841.459;  -14.281; 3950.740
878.807; 1833.019;  -10.311; 4058.958
879.369; 1795.484;  -13.201; 3954.677
879.930; 1800.226;  -12.061; 3941.495
880.492; 1822.161;   -9.181; 4067.014
881.053; 1821.866;  -12.051; 3859.633
881.615; 1767.318;  -11.501; 3776.071
882.176; 1650.555;  -12.221; 3734.750
882.738; 1507.871;   -8.931; 3678.489
883.299; 1397.546;  -13.571; 3405.407
883.860; 1410.291;  -12.331; 3351.106
884.422; 1376.938;  -10.201; 3394.044
884.983; 1243.142;  -12.521; 3166.443
885.544; 1138.552;  -12.291; 3189.802
886.105; 1112.841;  -12.991; 3160.360
886.666; 1116.525;  -12.901; 3093.059
887.227; 1089.269;  -12.061; 2941.957
887.788; 1039.737;  -11.641; 2974.836
888.349;  993.509;  -14.691; 2721.214
888.910;  957.117;   -9.681; 2696.493
889.471;  947.133;   -9.971; 2560.172
890.032;  928.675;  -13.151; 2558.190
890.593;  902.452;  -12.051; 2567.669
891.153;  874.405;  -12.841; 2460.307
891.714;  849.399;  -13.561; 2372.046
892.275;  823.639;  -12.401; 2309.505
892.835;  782.090;  -13.191; 2382.543
893.396;  737.253;  -12.551; 2295.502
893.956;  720.846;  -11.981; 2162.420
894.517;  719.057;  -12.221; 2125.439
895.077;  683.590;  -12.021; 2086.978
895.638;  619.408;  -10.891; 2126.316
896.198;  567.276;  -13.171; 1838.275
896.758;  525.137;  -11.891; 1892.813
897.319;  478.508;  -12.491; 1792.232
897.879;  450.237;  -12.401; 1762.751
898.439;  415.744;  -13.431; 1661.149
898.999;  394.798;  -11.340; 1781.468
899.559;  386.241;  -13.930; 1703.347
900.119;  370.410;  -13.730; 1537.525
900.679;  353.938;   -9.210; 1638.384
901.239;  339.014;  -10.860; 1527.902
901.799;  315.806;  -11.450; 1456.441
902.359;  292.343;  -13.800; 1357.140
902.919;  283.080;  -12.130; 1331.118
903.479;  280.572;  -12.650; 1317.257
904.038;  267.802;  -16.110; 1262.595
904.598;  249.411;  -13.690; 1152.034
905.158;  235.797;  -10.290; 1240.893
905.717;  226.081;  -10.670; 1233.691
906.277;  222.868;  -14.040; 1217.330
906.836;  222.434;  -13.510; 1222.408
907.396;  216.760;  -11.530; 1193.047
907.955;  205.744;  -13.190; 1182.526
908.515;  193.251;  -12.950; 1099.364
909.074;  183.955;  -12.390; 1092.863
909.633;  179.460;  -10.340; 1069.121
910.192;  177.264;  -11.170; 1196.460
910.752;  172.662;  -14.200; 1029.960
911.311;  168.561;  -13.810; 1009.780
911.870;  166.533;  -12.750;  971.460
912.429;  165.659;  -12.380; 1094.080
912.988;  163.377;  -11.930; 1081.060
913.547;  158.339;  -10.990;  940.380
914.106;  154.697;  -11.200;  999.420
914.665;  152.346;  -13.150;  984.020
915.224;  150.657;  -13.310; 1035.760
915.782;  148.225;  -13.340;  922.560
916.341;  147.938;  -10.710; 1049.840
916.900;  145.920;  -12.980;  925.260
917.458;  144.167;  -13.060;  884.220
918.017;  143.370;  -10.900;  942.600
918.576;  141.778;  -11.630;  904.440
919.134;  140.864;  -12.860;  837.980
919.693;  142.550;  -15.160;  893.060
920.251;  141.759;  -13.470;  876.500
920.809;  140.320;  -13.700;  839.580
921.368;  140.521;  -13.420;  885.360
921.926;  141.273;  -14.710;  842.940
922.484;  142.292;  -12.560;  903.360
923.042;  142.832;  -11.930;  880.340
923.601;  144.707;  -10.270;  998.680
924.159;  141.483;  -12.960;  935.560
924.717;  138.931;  -13.040;  841.080
925.275;  140.678;  -12.560;  903.240
925.833;  141.702;  -13.040;  779.320
926.391;  144.238;  -13.360;  938.380
926.949;  143.141;  -13.940;  857.680
927.506;  142.866;   -9.400;  903.500
928.064;  142.384;  -10.940;  877.580
928.622;  142.240;  -13.180;  880.100
929.180;  142.699;  -12.730;  814.180
929.737;  143.236;  -12.840;  808.540
930.295;  148.086;  -11.810;  928.480
930.853;  153.898;  -13.650;  849.100
931.410;  158.221;  -13.580;  821.120
931.968;  159.608;  -12.020;  940.660
932.525;  158.917;  -13.320;  909.380
933.082;  158.204;  -13.800;  811.440
933.640;  161.779;  -11.380;  925.900
934.197;  164.248;  -11.480;  886.360
934.754;  167.788;  -13.220;  897.780
935.312;  166.673;  -14.950;  863.340
935.869;  164.412;  -10.940; 1012.980
936.426;  159.485;  -12.100;  872.800
936.983;  160.489;  -12.930;  889.020
937.540;  160.783;  -14.250;  838.280
938.097;  166.683;  -12.600;  940.120
938.654;  171.695;  -11.260;  898.860
939.211;  175.425;  -13.020;  952.480
939.768;  178.334;  -15.760;  915.420
940.324;  182.290;  -13.920;  904.200
940.881;  180.083;  -11.620;  878.500
941.438;  177.035;   -9.870; 1021.200
941.995;  171.182;  -13.920;  992.560
942.551;  167.574;  -12.830;  875.620
943.108;  168.897;  -11.980;  937.920
943.664;  171.627;  -13.740;  869.340
944.221;  180.416;  -12.670; 1088.140
944.777;  178.541;  -13.250;  869.680
945.334;  174.607;  -13.000;  884.840
945.890;  174.477;  -13.020;  946.480
946.446;  174.299;  -13.880;  947.020
947.003;  175.900;  -12.660;  964.940
947.559;  177.588;   -8.730; 1063.040
948.115;  175.638;  -11.960; 1026.540
948.671;  171.071;  -12.360;  967.300
949.227;  166.222;  -12.700;  859.560
949.783;  163.647;  -13.450;  858.900
950.339;  163.222;  -10.620;  991.000
950.895;  159.412;  -14.770; 1023.840
951.451;  156.378;  -13.650;  925.280
952.007;  158.117;  -11.180;  998.540
952.563;  157.179;  -11.680;  937.780
953.118;  156.830;  -13.280;  904.940
953.674;  157.511;  -12.510;  935.780
954.230;  157.654;  -12.220;  949.640
954.785;  152.973;  -12.190;  936.640
955.341;  149.520;  -12.270;  998.160
955.897;  145.205;  -14.900;  834.660
956.452;  146.878;  -12.520;  953.840
957.008;  144.860;   -9.410; 1083.640
957.563;  141.838;  -11.280; 1009.540
958.118;  138.949;  -13.470;  877.700
958.674;  140.744;  -12.190;  946.780
959.229;  142.339;  -12.760; 1013.980
959.784;  148.397;  -15.710;  832.400
960.339;  153.763;  -12.540; 1001.280
960.894;  153.573;  -11.680;  963.760
961.449;  149.236;  -11.410;  859.960
962.004;  147.207;  -10.430; 1212.840
962.559;  139.901;  -14.040;  860.140
963.114;  135.206;  -14.270;  742.480
963.669;  136.059;  -11.320;  915.500
964.224;  136.759;  -14.620;  874.340
964.779;  134.759;  -14.150;  828.420
965.334;  134.322;  -10.850; 1017.860
965.888;  134.388;  -14.530;  875.360
966.443;  136.487;  -13.520;  972.380
966.998;  132.941;  -13.370;  819.460
967.552;  131.381;   -9.960;  908.380
968.107;  127.181;  -12.360;  868.300
968.661;  129.049;  -12.270;  922.440
969.216;  128.300;  -12.140;  856.280
969.770;  128.651;  -11.860;  917.200
970.324;  128.565;  -12.170;  923.140
970.879;  128.142;  -14.160;  947.180
971.433;  124.851;  -12.940;  952.720
971.987;  121.376;  -10.180;  895.340
972.541;  120.769;  -12.130;  917.100
973.095;  120.910;  -14.980; 1009.460
973.649;  119.393;  -14.480;  809.480
974.203;  123.464;  -13.530;  829.040
974.757;  124.998;  -12.060;  855.220
975.311;  121.518;  -13.240;  872.600
975.865;  118.270;  -12.550;  881.820
976.419;  115.308;  -13.180;  857.400
976.973;  114.459;  -14.100;  849.620
977.526;  112.087;  -13.330;  949.920
978.080;  106.329;  -15.390;  796.780
978.634;  101.694;  -11.670;  921.320
979.187;   90.897;  -10.640;  905.400
979.741;   85.049;  -13.330; 1018.380
980.294;   77.910;  -14.480;  789.160
980.848;   76.716;  -13.420;  717.220
981.401;   77.829;  -12.360;  816.540
981.955;   78.714;  -12.480;  844.300
982.508;   76.874;  -14.000;  746.340
983.061;   78.234;  -10.440;  915.260
983.615;   77.086;  -14.340;  798.800
984.168;   74.907;  -14.950;  770.080
984.721;   75.707;  -13.270;  880.760
985.274;   75.511;  -12.240;  867.500
985.827;   74.025;  -12.720;  834.220
986.380;   71.279;  -14.920;  721.340
986.933;   72.760;  -12.860;  864.800
987.486;   71.567;  -10.440;  861.920
988.039;   71.334;  -11.820;  863.100
988.591;   69.682;  -13.760;  893.260
989.144;   67.623;  -14.080;  737.260
989.697;   68.445;  -13.440;  758.740
990.250;   69.033;  -12.050;  858.100
990.802;   68.151;  -14.550;  755.860
991.355;   69.242;  -10.770;  974.880
991.907;   67.342;  -11.710;  864.320
992.460;   65.442;  -12.650;  753.760
993.012;   64.705;  -13.860;  749.540
993.565;   63.088;  -14.310;  711.360
994.117;   62.582;   -9.920;  950.780
994.669;   58.846;  -13.420;  701.320
995.221;   58.635;  -14.200;  791.920
995.774;   57.502;  -13.400;  787.580
996.326;   56.849;  -11.850;  740.220
996.878;   57.253;  -12.230;  838.420
997.430;   55.549;  -14.260;  699.860
997.982;   55.336;  -11.430;  750.140
998.534;   55.540;  -11.590;  739.060
999.086;   53.905;  -11.960;  738.220
999.638;   52.818;  -13.640;  661.380
1000.190;   52.885;  -13.660;  699.320
1000.741;   52.048;   -9.980;  742.700
1001.293;   51.066;  -11.860;  686.020
1001.845;   49.477;  -14.280;  676.640
1002.396;   50.807;  -12.270;  743.400
1002.948;   49.970;  -13.670;  737.400
1003.500;   48.545;  -12.010;  723.780
1004.051;   49.497;  -11.890;  907.580
1004.603;   48.167;  -11.220;  791.820
1005.154;   44.371;  -13.210;  608.980
1005.705;   44.218;  -11.850;  723.960
1006.257;   44.362;  -13.670;  707.220
1006.808;   43.037;  -12.060;  685.460
1007.359;   42.657;  -10.250;  763.240
1007.910;   41.186;  -13.440;  646.640
1008.461;   40.793;  -13.170;  732.940
1009.013;   39.274;  -14.590;  588.340
1009.564;   40.753;  -12.100;  793.520
1010.115;   39.001;  -14.000;  597.040
1010.665;   38.159;  -15.020;  602.160
1011.216;   38.916;  -12.560;  667.920
1011.767;   38.482;  -11.330;  697.920
1012.318;   38.343;  -11.450;  736.980
1012.869;   37.767;  -11.000;  679.000
1013.419;   36.838;  -11.760;  603.120
1013.970;   37.534;  -11.800;  666.640
1014.521;   36.577;  -14.750;  620.620
1015.071;   36.350;  -14.430;  670.380
1015.622;   36.206;  -14.170;  635.460
1016.172;   35.862;  -11.700;  596.820
1016.723;   34.717;  -13.230;  614.380
1017.273;   34.868;  -16.120;  604.160
1017.823;   35.261;  -13.360;  650.340
1018.374;   34.641;  -13.710;  611.760
1018.924;   34.924;  -11.050;  716.880
1019.474;   35.017;  -14.120;  718.880
1020.024;   33.196;  -12.990;  657.580
1020.574;   34.388;  -12.010;  726.160
1021.124;   34.305;  -12.080;  673.580
1021.674;   32.809;  -15.860;  559.120
1022.224;   34.214;  -11.710;  708.940
1022.774;   33.609;  -13.030;  668.820
1023.324;   33.781;  -11.000;  753.520
1023.874;   34.637;  -13.270;  875.760
1024.423;   31.928;  -14.570;  613.700
1024.973;   31.823;  -12.620;  610.760
1025.523;   30.922;  -12.630;  620.960
1026.072;   30.789;  -14.110;  606.420
1026.622;   31.244;  -15.390;  675.740
1027.172;   31.270;   -9.090;  715.660
1027.721;   30.504;  -12.250;  601.220
1028.270;   30.221;  -15.590;  663.400
1028.820;   30.705;  -13.840;  638.080
1029.369;   29.964;  -13.170;  612.700
1029.918;   29.899;  -14.080;  649.840
1030.468;   28.814;  -13.860;  564.780
1031.017;   29.968;  -12.970;  634.800
1031.566;   29.176;  -12.320;  608.900
1032.115;   29.291;  -13.140;  694.500
1032.664;   28.166;  -14.560;  596.480
1033.213;   29.148;  -11.620;  735.420
1033.762;   28.403;  -13.190;  635.620
1034.311;   28.456;  -13.460;  677.220
1034.860;   29.008;  -15.770;  691.000
1035.408;   28.596;  -13.100;  722.720
1035.957;   28.869;  -12.880;  719.540
1036.506;   26.389;  -13.640;  530.800
1037.055;   29.296;  -12.420;  844.320
1037.603;   28.439;  -13.740;  664.000
1038.152;   25.437;  -13.840;  534.760
1038.700;   26.323;  -10.770;  585.740
1039.249;   27.292;  -13.520;  681.220
1039.797;   26.529;  -13.060;  633.360
1040.345;   26.369;  -11.760;  705.420
1040.894;   26.077;  -10.790;  625.300
1041.442;   25.612;  -15.420;  632.200
1041.990;   24.482;  -14.550;  559.160
1042.538;   24.121;  -15.620;  536.180
1043.087;   24.252;  -14.940;  570.860
1043.635;   25.703;  -12.100;  670.500
1044.183;   24.373;  -13.200;  586.400
1044.731;   24.584;  -11.630;  576.000
1045.279;   23.932;  -14.200;  674.920
1045.827;   26.424;  -12.510;  892.400
1046.374;   22.692;  -14.960;  515.420
1046.922;   22.798;  -11.850;  590.580
1047.470;   23.441;  -13.770;  691.300
1048.018;   23.861;  -15.380;  647.960
1048.565;   24.879;  -14.010;  708.600
1049.113;   22.996;  -14.620;  557.000
1049.660;   23.660;  -14.940;  629.660
1050.208;   23.350;  -14.540;  675.640
1050.755;   22.421;  -13.710;  606.580
1051.303;   22.715;  -11.880;  686.820
1051.850;   22.582;  -12.160;  635.120
1052.397;   20.586;  -15.110;  473.960
1052.945;   21.123;  -14.770;  617.760
1053.492;   22.751;  -12.320;  741.840
1054.039;   23.073;  -13.290;  720.180
1054.586;   20.996;  -15.210;  557.240
1055.133;   21.946;  -12.920;  693.140
1055.680;   22.627;  -12.610;  646.620
1056.227;   20.856;  -12.620;  542.780
1056.774;   22.784;  -13.010;  794.980
1057.321;   20.411;  -16.180;  523.260
1057.868;   20.553;  -11.230;  651.320
1058.415;   20.652;  -10.890;  651.980
1058.961;   20.712;  -12.530;  678.940
1059.508;   20.363;  -14.120;  643.820
1060.055;   20.339;  -13.340;  581.780
1060.601;   20.805;  -12.920;  624.300
1061.148;   19.949;  -14.430;  616.820
1061.694;   20.251;  -14.140;  592.580
1062.241;   19.469;  -12.550;  596.320
1062.787;   19.623;  -13.370;  663.140
1063.334;   21.307;  -12.260;  808.560
1063.880;   20.126;  -10.800;  668.360
1064.426;   20.133;   -9.920;  706.820
1064.972;   18.172;  -12.970;  601.340
1065.518;   17.727;  -14.440;  566.640
1066.065;   19.597;  -12.680;  624.460
1066.611;   17.863;  -13.520;  598.800
1067.157;   19.021;  -11.100;  641.860
1067.703;   18.412;  -14.100;  668.480
1068.249;   17.760;  -13.750;  605.220
1068.794;   18.434;  -11.070;  626.880
1069.340;   16.978;  -13.210;  578.960
1069.886;   18.029;  -14.850;  590.700
1070.432;   16.252;  -14.580;  541.720
1070.977;   17.031;  -12.930;  601.080
1071.523;   17.044;  -11.970;  573.060
1072.068;   16.987;  -13.730;  582.000
1072.614;   17.103;  -14.550;  527.760
1073.160;   17.336;  -13.690;  687.040
1073.705;   16.076;  -14.780;  572.520
1074.250;   16.216;  -15.430;  559.900
1074.796;   17.790;  -11.620;  655.160
1075.341;   17.256;  -11.580;  664.100
1075.886;   16.977;  -13.190;  594.240
1076.431;   15.870;  -13.630;  649.880
1076.976;   16.405;  -11.670;  639.220
1077.521;   15.667;  -11.600;  583.080
1078.067;   14.750;  -13.920;  579.400
1078.612;   15.493;  -12.910;  661.620
1079.156;   15.358;  -15.340;  601.540
1079.701;   15.839;  -12.560;  693.260
1080.246;   16.475;  -12.490;  696.300
1080.791;   15.953;  -14.550;  625.020
1081.336;   15.274;  -15.210;  659.320
1081.880;   16.031;  -11.280;  649.680
1082.425;   14.502;  -12.830;  573.480
1082.970;   16.125;  -11.680;  717.040
1083.514;   14.577;  -15.500;  597.000
1084.059;   13.809;  -11.770;  586.720
1084.603;   13.242;  -13.480;  565.840
1085.147;   13.974;  -13.940;  645.220
1085.692;   15.247;  -13.170;  716.800
1086.236;   12.649;  -15.740;  503.140
1086.780;   15.142;  -10.750;  751.440
1087.325;   14.116;  -14.900;  654.620
1087.869;   13.571;  -15.160;  610.700
1088.413;   14.044;  -11.030;  705.040
1088.957;   12.197;  -15.210;  543.400
1089.501;   14.364;  -12.310;  766.640
1090.045;   14.262;  -12.790;  726.480
1090.589;   11.366;  -14.040;  569.920
1091.133;   13.457;  -12.800;  673.340
1091.676;   13.185;  -13.600;  591.940
1092.220;   12.406;  -12.960;  600.920
1092.764;   13.017;  -10.830;  706.960
1093.307;   12.401;  -12.390;  673.780
1093.851;   11.944;  -15.850;  556.540
1094.395;   12.799;  -12.980;  683.140
1094.938;   11.789;  -13.670;  632.520
1095.482;   11.856;  -12.740;  559.800
1096.025;   13.587;  -13.340;  710.880
1096.568;   13.623;  -10.500;  779.280
1097.112;    9.809;  -13.500;  508.180
1097.655;   11.882;  -13.060;  603.000
1098.198;   10.219;  -13.240;  600.180
1098.741;   10.760;  -15.490;  612.860
1099.285;   11.511;  -13.410;  657.300
1099.828;    9.082;  -15.640;  439.400
1100.371;   11.342;  -13.980;  608.160
1100.914;   11.259;  -13.990;  682.660
1101.457;   10.999;  -15.030;  679.900
1101.999;    9.708;  -12.480;  584.680
1102.542;   10.721;  -12.410;  641.440
1103.085;    9.707;  -14.730;  658.500
1103.628;   11.169;  -12.190;  762.060
1104.170;    9.580;  -12.360;  588.280
1104.713;   10.548;  -13.350;  646.700
1105.256;    8.894;  -14.930;  557.440
1105.798;    8.680;  -15.150;  499.980
1106.341;   10.562;  -13.230;  728.900
1106.883;    8.674;  -14.680;  521.340
1107.425;    9.614;  -14.810;  668.180
1107.968;    8.826;  -12.940;  612.380
1108.510;    9.704;  -10.550;  684.960
1109.052;    8.111;  -15.640;  612.620
1109.594;    7.911;  -14.440;  554.440
1110.136;    9.530;  -11.380;  643.220
1110.679;    7.569;  -13.090;  633.080
1111.221;    8.445;  -14.230;  604.460
1111.763;    7.881;  -14.260;  559.220
1112.304;    7.722;  -14.510;  547.140
1112.846;    8.334;  -14.700;  666.240
1113.388;   11.547;  -12.270;  942.180
1113.930;    8.146;  -13.340;  694.200
1114.472;    7.736;  -12.560;  606.540
1115.013;    7.004;  -14.280;  551.280
1115.555;    7.105;  -14.010;  587.100
1116.097;    6.945;  -14.730;  579.480
1116.638;    7.545;  -12.160;  684.600
1117.180;    7.987;  -14.320;  667.740
1117.721;    7.106;  -15.730;  568.580
1118.262;    8.346;  -13.480;  677.960
1118.804;    8.034;  -11.530;  637.340
1119.345;    6.640;  -13.540;  578.400
1119.886;    7.970;  -14.470;  704.040
1120.427;    6.834;  -13.030;  589.020
1120.969;    6.337;  -13.150;  597.920
1121.510;    6.069;  -13.940;  563.060
1122.051;    7.622;  -12.310;  723.580
1122.592;    6.096;  -13.870;  655.420
1123.133;    5.132;  -12.890;  547.940
1123.673;    7.493;  -13.300;  706.480
1124.214;    6.459;  -14.000;  612.460
1124.755;    6.887;  -13.210;  639.460
1125.296;    6.182;  -13.450;  627.320
1125.836;    6.856;  -12.610;  691.500
1126.377;    5.482;  -15.840;  599.660
1126.918;    6.337;  -11.830;  614.980
1127.458;    4.743;  -11.830;  622.220
1127.999;    6.653;  -11.490;  656.980
1128.539;    6.069;  -12.900;  694.240
1129.079;    4.808;  -14.910;  632.720
1129.620;    4.077;  -12.920;  558.100
1130.160;    3.917;  -14.640;  539.480
1130.700;    5.223;  -13.270;  640.840
1131.240;    5.482;  -14.110;  643.700
1131.781;    5.096;  -13.130;  619.680
1132.321;    4.434;  -15.220;  599.120
1132.861;    4.231;  -15.670;  564.200
1133.401;    3.715;  -13.970;  593.940
1133.941;    4.046;  -13.740;  626.280
1134.481;    3.993;  -13.200;  597.580
1135.020;    3.783;  -14.830;  609.160
1135.560;    4.347;  -14.590;  674.940
1136.100;    2.995;  -13.730;  501.160
1136.640;    3.105;  -15.240;  510.480
1137.179;    3.461;  -14.710;  537.960
1137.719;    3.677;  -14.090;  605.400
1138.258;    3.807;  -12.470;  587.360
1138.798;    4.113;  -12.580;  663.780
1139.337;    2.945;  -16.480;  482.840
1139.877;    4.329;  -13.970;  642.360
1140.416;    5.574;   -9.870;  878.060
1140.955;    2.363;  -14.860;  535.380
1141.494;    3.472;  -14.530;  669.280
1142.034;    2.712;  -13.940;  583.520
1142.573;    3.955;  -11.160;  646.280
1143.112;    2.443;  -15.050;  553.480
1143.651;    2.663;  -15.390;  536.480
1144.190;    3.197;  -12.990;  691.640
1144.729;    2.857;  -12.220;  607.420
1145.267;    2.909;  -14.020;  584.900
1145.806;    3.346;  -12.740;  637.040
1146.345;    2.414;  -14.810;  635.020
1146.884;    2.508;  -12.920;  622.500
1147.422;    1.297;  -13.930;  533.060
1147.961;    3.496;  -11.830;  708.460
1148.500;    2.764;  -12.710;  669.720
1149.038;    2.820;  -14.420;  632.500
1149.577;    2.776;  -13.920;  698.640
1150.115;    0.578;  -17.050;  452.280
1150.653;    2.540;  -14.890;  607.340
1151.192;    1.786;  -15.270;  552.920
1151.730;    1.876;  -13.160;  652.560
1152.268;    1.375;  -15.430;  589.520
1152.806;    1.812;  -15.880;  571.180
1153.344;   -0.067;  -13.240;  577.640
1153.882;    1.818;  -13.010;  600.060
1154.421;   -0.128;  -16.180;  470.620
1154.958;    0.973;  -13.880;  595.240
1155.496;    2.039;  -13.590;  645.280
1156.034;    2.098;  -11.910;  721.880
1156.572;    3.148;  -12.010;  667.060
1157.110;    0.218;  -16.250;  473.940
1157.647;    1.571;  -15.230;  676.960
1158.185;   -0.137;  -13.770;  564.320
1158.723;    0.287;  -15.300;  509.200
1159.260;    1.313;  -13.130;  701.700
1159.798;    1.270;  -11.300;  658.160
1160.335;    0.292;  -13.210;  631.820

