
Integration time [ms]:   3.882
Averaging Nr. [scans]: 1000
Smoothing Nr. [pixels]: 0
Data measured with spectrometer [name]: 7414430SP
Wave   ;Sample   ;Dark     ;Reference
[nm]   ;[counts] ;[counts] ;[counts] 

288.544;  122.450;   10.292;  793.890
289.143;  124.707;    4.564;  681.602
289.742;  127.107;    6.144;  828.814
290.341;  114.911;    4.396;  789.841
290.940;  105.548;    0.938;  730.702
291.538;  106.488;   -0.684;  881.108
292.137;  105.338;   -2.845;  792.581
292.736;  109.827;   -0.144;  975.101
293.335;  105.383;   -6.352;  735.086
293.934;  107.352;   -7.642;  781.677
294.532;  107.823;   -4.992; 1031.958
295.131;   93.531;   -5.478;  834.394
295.730;   93.164;   -6.549;  809.588
296.328;   91.497;   -9.558;  783.442
296.927;   92.052;   -8.118;  779.652
297.525;   94.159;   -6.908;  781.236
298.124;   84.544;   -9.195;  654.009
298.722;   88.129;   -8.198;  761.933
299.321;   86.261;   -8.817;  708.597
299.919;   84.857;   -7.716;  751.918
300.518;   81.029;  -10.745;  689.338
301.116;   82.593;   -9.647;  691.381
301.715;   82.770;  -10.828;  730.222
302.313;   81.250;   -6.087;  704.943
302.911;   76.416;   -6.824;  733.830
303.509;   83.137;   -8.807;  925.627
304.108;   80.613;   -8.198;  760.383
304.706;   79.256;   -6.218;  801.664
305.304;   74.759;   -7.185;  796.707
305.902;   80.886;   -8.568;  784.484
306.500;   76.249;   -7.737;  728.200
307.098;   75.079;   -6.026;  746.560
307.696;   72.581;   -7.176;  780.432
308.294;   74.340;   -8.656;  731.359
308.892;   75.781;   -6.838;  759.769
309.490;   71.645;   -2.596;  712.161
310.088;   70.162;   -4.485;  788.444
310.686;   75.082;   -3.907;  821.749
311.284;   71.166;   -2.806;  766.040
311.882;   68.031;   -2.845;  731.225
312.480;   65.266;   -3.274;  697.167
313.078;   67.164;   -3.645;  808.331
313.675;   68.404;   -4.997;  691.600
314.273;   63.648;   -0.894;  797.837
314.871;   62.922;   -2.854;  589.829
315.468;   60.256;   -3.644;  652.090
316.066;   64.566;   -3.947;  694.427
316.664;   57.407;   -1.824;  656.351
317.261;   61.816;    1.565;  910.128
317.859;   57.670;   -3.955;  768.735
318.456;   59.521;   -2.886;  830.096
319.054;   54.588;   -0.995;  787.828
319.651;   54.955;   -1.765;  759.928
320.249;   53.515;   -3.685;  810.188
320.846;   51.554;   -3.736;  714.286
321.443;   49.629;   -2.065;  832.135
322.041;   47.464;   -5.635;  812.315
322.638;   45.737;   -5.985;  701.456
323.235;   47.588;   -6.677;  665.683
323.833;   45.170;   -3.497;  740.354
324.430;   41.351;   -6.756;  615.900
325.027;   42.581;   -7.647;  876.855
325.624;   43.252;   -7.598;  644.532
326.221;   40.478;   -5.848;  689.717
326.818;   39.644;   -5.777;  818.332
327.415;   42.292;   -8.769;  748.828
328.012;   41.817;   -6.299;  690.585
328.609;   40.311;   -6.639;  731.389
329.206;   38.532;   -6.358;  778.621
329.803;   38.329;   -8.698;  737.841
330.400;   39.127;   -8.379;  704.260
330.997;   39.888;   -6.178;  817.147
331.594;   38.012;   -5.646;  788.185
332.191;   42.974;   -6.928;  728.722
332.787;   44.818;   -6.057;  844.463
333.384;   41.714;   -6.445;  763.093
333.981;   38.800;   -8.002;  815.687
334.578;   41.206;   -8.443;  708.378
335.174;   43.827;   -6.053;  731.469
335.771;   43.780;   -5.791;  836.456
336.367;   39.754;   -6.570;  710.631
336.964;   41.772;   -6.741;  793.266
337.561;   44.218;   -5.710;  731.112
338.157;   39.147;   -3.928;  911.916
338.754;   34.443;   -5.577;  796.589
339.350;   35.195;   -9.667;  722.493
339.946;   39.145;   -5.269;  773.135
340.543;   30.954;   -4.485;  846.136
341.139;   25.118;   -7.584;  720.836
341.735;   23.662;   -8.553;  772.593
342.332;   22.934;   -4.984;  691.472
342.928;   24.575;   -3.475;  795.394
343.524;   18.738;   -6.653;  761.684
344.120;   14.723;   -7.173;  738.562
344.716;   18.274;   -4.385;  723.717
345.313;   16.548;   -3.565;  795.342
345.909;   11.637;   -7.495;  627.336
346.505;   14.059;   -8.276;  740.247
347.101;   14.967;   -5.697;  827.864
347.697;   15.163;   -4.767;  785.398
348.293;    9.767;   -7.226;  627.244
348.889;   10.637;   -7.547;  745.914
349.485;   11.034;   -9.147;  688.205
350.081;   11.618;   -6.568;  772.592
350.676;    6.853;   -6.516;  691.606
351.272;   11.679;   -7.378;  809.530
351.868;   11.935;   -6.759;  780.497
352.464;    8.753;   -4.798;  723.932
353.059;    5.177;   -7.977;  646.017
353.655;    8.935;   -8.769;  777.063
354.251;    9.432;   -5.920;  759.845
354.846;    4.211;   -7.647;  740.646
355.442;    2.366;   -6.956;  753.071
356.038;    4.308;   -9.928;  751.708
356.633;    4.638;   -7.698;  728.594
357.229;    2.511;   -6.307;  724.757
357.824;    1.043;   -7.647;  703.600
358.420;   -0.004;  -10.047;  679.726
359.015;    0.604;   -7.458;  695.357
359.610;    1.708;   -5.748;  763.920
360.206;   -4.169;   -9.346;  603.240
360.801;   -1.516;  -11.268;  646.503
361.396;    1.053;   -8.789;  725.975
361.992;   -2.888;   -6.347;  668.220
362.587;   -5.523;   -6.476;  670.160
363.182;   -3.486;   -9.457;  689.631
363.777;   -2.461;   -7.147;  738.242
364.372;   -2.730;   -5.507;  737.314
364.967;   -6.501;   -6.386;  680.744
365.563;   -2.521;   -7.858;  815.567
366.158;   -4.336;   -8.517;  685.161
366.753;   -4.433;   -8.728;  649.263
367.348;   -5.548;   -7.677;  746.056
367.942;   -5.943;  -10.387;  697.298
368.537;   -6.277;   -7.187;  754.245
369.132;   -5.905;   -8.587;  703.428
369.727;  -10.212;   -8.606;  638.079
370.322;   -9.182;  -10.426;  580.186
370.917;   -8.510;   -5.776;  710.646
371.511;   -5.676;   -6.007;  861.834
372.106;   -9.897;   -6.686;  776.964
372.701;  -12.479;   -9.335;  585.988
373.296;   -6.800;   -6.777;  863.135
373.890;  -11.177;   -7.546;  647.840
374.485;  -13.702;   -8.755;  691.199
375.079;   -9.151;   -9.797;  738.685
375.674;   -7.654;   -6.327;  812.970
376.268;  -12.547;   -9.046;  691.759
376.863;  -18.083;   -7.993;  580.327
377.457;  -11.738;   -9.206;  662.490
378.052;  -13.181;   -5.345;  764.884
378.646;  -13.606;   -5.605;  741.167
379.240;  -14.749;   -6.825;  721.176
379.835;  -13.618;  -10.476;  636.978
380.429;  -15.241;   -8.676;  562.557
381.023;  -15.351;   -4.945;  779.205
381.617;  -17.594;   -8.094;  680.106
382.212;  -13.819;  -10.646;  685.303
382.806;  -13.277;   -8.136;  760.690
383.400;  -17.606;   -7.855;  672.281
383.994;  -18.350;   -8.125;  664.870
384.588;  -13.517;   -7.637;  697.701
385.182;  -12.090;   -7.458;  726.624
385.776;  -14.376;   -6.277;  706.875
386.370;  -16.549;   -7.485;  681.968
386.964;  -15.811;   -9.416;  684.155
387.558;  -14.079;   -8.518;  598.360
388.152;  -16.934;   -7.096;  681.959
388.745;  -15.483;   -7.656;  814.707
389.339;  -14.000;   -8.927;  747.642
389.933;  -12.884;   -9.538;  695.370
390.527;  -13.765;   -5.857;  859.029
391.120;  -20.704;   -9.455;  595.318
391.714;  -17.694;   -9.746;  711.633
392.308;  -13.957;   -7.857;  780.253
392.901;  -17.208;   -9.106;  642.460
393.495;  -19.114;  -10.365;  595.414
394.089;  -16.567;   -9.696;  760.452
394.682;  -17.571;   -7.016;  697.188
395.275;  -18.180;   -8.466;  719.927
395.869;  -19.402;   -8.985;  667.314
396.462;  -17.494;  -11.496;  616.609
397.056;  -13.720;   -7.838;  776.621
397.649;  -18.545;   -6.895;  731.575
398.242;  -15.320;   -5.017;  712.645
398.836;  -15.108;   -8.787;  766.408
399.429;  -15.617;   -8.967;  631.041
400.022;  -19.447;   -8.815;  665.902
400.615;  -16.463;   -6.276;  805.609
401.208;  -14.178;   -8.407;  691.451
401.802;  -15.937;   -7.296;  699.329
402.395;  -17.512;   -7.585;  683.502
402.988;  -19.036;   -8.015;  696.627
403.581;  -16.216;   -9.577;  646.878
404.174;  -12.797;   -7.588;  686.568
404.767;  -16.162;   -7.906;  638.583
405.360;  -18.331;   -7.875;  621.445
405.953;  -12.800;   -8.127;  759.034
406.545;  -11.976;   -7.198;  725.342
407.138;  -16.546;   -8.916;  618.350
407.731;  -15.110;   -9.767;  613.303
408.324;  -11.164;  -10.659;  660.554
408.917;  -12.300;   -8.068;  681.864
409.509;  -14.006;   -9.837;  740.396
410.102;  -15.912;   -8.146;  643.948
410.695;   -9.925;   -7.969;  665.758
411.287;   -9.972;   -8.579;  599.821
411.880;  -12.218;   -6.968;  585.421
412.472;  -15.266;   -9.487;  613.092
413.065;  -11.547;  -10.338;  629.408
413.657;   -9.874;   -9.169;  576.678
414.250;   -9.010;  -10.119;  646.681
414.842;  -10.837;   -9.938;  676.353
415.434;   -9.370;  -10.409;  570.463
416.027;   -4.293;   -9.591;  652.196
416.619;   -6.829;   -7.379;  713.400
417.211;   -7.460;   -9.159;  599.352
417.804;   -3.353;   -9.191;  628.499
418.396;   -7.821;   -8.159;  607.643
418.988;   -5.066;   -6.960;  659.238
419.580;   -9.110;  -11.389;  568.276
420.172;   -6.769;  -13.460;  536.196
420.764;   -1.848;  -10.701;  672.482
421.356;   -3.176;   -8.961;  636.898
421.948;   -4.208;   -9.770;  677.661
422.540;    0.991;   -8.832;  680.027
423.132;    0.407;   -8.153;  600.641
423.724;   -3.699;   -8.481;  561.267
424.316;   -1.174;   -9.261;  621.345
424.908;    2.874;   -9.643;  591.517
425.500;    3.395;   -8.663;  647.978
426.092;    3.617;   -8.503;  648.268
426.683;    1.976;  -10.522;  684.836
427.275;    5.899;  -11.734;  641.471
427.867;    7.220;  -10.264;  668.948
428.458;    7.835;   -7.644;  732.344
429.050;    6.110;   -7.853;  680.749
429.642;    8.581;   -8.904;  743.124
430.233;    8.448;  -10.795;  569.356
430.825;   10.463;   -7.665;  724.809
431.416;    8.170;   -8.843;  698.241
432.008;   11.721;   -9.885;  651.723
432.599;   12.836;   -9.966;  656.073
433.190;    9.996;   -9.164;  637.670
433.782;    8.155;   -8.584;  590.395
434.373;   17.485;   -8.296;  884.765
434.964;   14.400;   -9.896;  602.920
435.556;   12.205;   -8.255;  634.537
436.147;   15.427;   -8.075;  758.490
436.738;   14.931;   -9.716;  701.099
437.329;   20.330;   -7.318;  721.723
437.920;   12.723;   -6.694;  666.688
438.511;   14.027;   -9.644;  564.526
439.103;   19.598;   -9.427;  623.998
439.694;   22.286;  -10.748;  681.583
440.285;   22.964;   -7.997;  764.432
440.876;   21.705;  -10.046;  845.738
441.466;   20.077;  -13.467;  575.162
442.057;   26.441;   -9.329;  665.814
442.648;   24.894;   -7.707;  746.255
443.239;   23.086;   -9.017;  620.477
443.830;   28.049;  -10.279;  704.958
444.421;   30.300;  -12.630;  655.474
445.011;   27.028;   -8.697;  693.619
445.602;   25.806;   -7.787;  743.126
446.193;   28.299;  -13.329;  488.117
446.783;   32.952;   -9.171;  640.397
447.374;   28.568;   -7.457;  692.759
447.964;   28.650;   -9.277;  713.770
448.555;   37.078;   -9.041;  822.742
449.145;   33.067;   -8.969;  662.853
449.736;   34.421;   -6.809;  803.179
450.326;   34.902;   -7.229;  713.626
450.917;   39.338;  -11.391;  675.324
451.507;   38.774;   -9.501;  600.661
452.097;   38.749;   -8.460;  746.267
452.688;   39.878;  -10.080;  742.160
453.278;   40.454;  -12.861;  566.840
453.868;   44.913;   -8.372;  793.550
454.458;   42.511;   -8.131;  651.141
455.048;   42.956;   -8.520;  711.783
455.639;   44.158;  -13.632;  567.096
456.229;   48.386;  -10.143;  710.694
456.819;   49.819;   -9.163;  751.158
457.409;   49.622;   -8.652;  773.993
457.999;   52.649;   -9.933;  737.505
458.589;   53.757;  -10.363;  686.606
459.179;   53.165;  -10.633;  717.658
459.769;   50.999;  -12.442;  627.099
460.358;   56.371;   -9.844;  797.262
460.948;   55.781;   -9.924;  689.503
461.538;   57.460;  -10.484;  660.677
462.128;   55.745;  -10.703;  664.934
462.717;   61.695;  -11.486;  710.326
463.307;   64.927;  -10.767;  705.846
463.897;   60.821;   -8.814;  656.942
464.486;   60.061;   -8.182;  837.128
465.076;   65.141;   -9.985;  733.776
465.666;   67.924;  -10.447;  652.900
466.255;   65.847;   -7.754;  785.651
466.845;   65.435;  -10.884;  666.749
467.434;   68.043;  -12.525;  725.873
468.023;   69.442;  -11.456;  658.357
468.613;   66.644;   -9.173;  713.946
469.202;   70.897;   -9.306;  646.507
469.791;   74.890;   -8.917;  737.811
470.381;   77.221;   -9.657;  742.813
470.970;   77.394;   -9.947;  711.099
471.559;   76.778;   -9.256;  733.291
472.148;   79.876;  -13.397;  675.737
472.738;   82.497;   -9.928;  765.466
473.327;   81.740;  -10.897;  637.529
473.916;   80.752;   -8.526;  737.446
474.505;   86.069;  -11.078;  751.703
475.094;   88.597;   -9.559;  806.570
475.683;   88.549;   -8.838;  797.699
476.272;   89.355;  -10.198;  730.632
476.861;   92.813;  -11.489;  706.754
477.449;   99.510;  -10.721;  728.487
478.038;   93.328;   -9.818;  692.513
478.627;   94.090;   -9.887;  714.852
479.216;  101.462;  -10.030;  769.441
479.805;  103.325;   -9.401;  783.375
480.393;  103.370;   -5.739; 1008.945
480.982;  103.528;   -7.838;  874.501
481.571;  109.283;   -9.111;  858.333
482.159;  110.527;  -10.601;  705.386
482.748;  109.454;   -8.500;  821.385
483.336;  114.134;   -9.241;  858.209
483.925;  115.569;  -10.440;  774.373
484.513;  122.322;  -11.063;  758.962
485.102;  119.347;   -9.540;  810.965
485.690;  128.443;   -6.742; 1011.050
486.278;  130.628;   -8.442;  979.329
486.867;  130.522;  -10.472;  809.662
487.455;  133.249;   -8.811;  898.229
488.043;  135.285;  -10.721;  748.361
488.631;  144.827;  -10.393; 1005.079
489.220;  149.053;  -10.843;  908.626
489.808;  149.010;  -10.572;  741.415
490.396;  158.072;  -10.482;  914.645
490.984;  165.937;  -11.542;  830.161
491.572;  177.770;   -8.463;  940.315
492.160;  185.437;   -8.491;  919.081
492.748;  196.036;   -9.681;  884.341
493.336;  219.032;  -10.493; 1019.693
493.924;  253.712;   -9.354;  958.077
494.512;  295.147;   -9.132; 1066.638
495.100;  340.123;   -9.001; 1103.280
495.687;  397.059;  -11.924; 1206.373
496.275;  482.190;  -11.193; 1150.796
496.863;  600.663;   -9.241; 1281.171
497.451;  726.023;  -11.341; 1386.805
498.038;  831.047;  -11.364; 1556.729
498.626;  967.495;   -8.104; 1741.407
499.214; 1193.370;   -8.842; 2016.609
499.801; 1417.052;  -10.112; 2220.633
500.389; 1632.892;  -11.953; 2312.494
500.976; 1909.542;  -10.023; 2744.849
501.564; 2269.844;   -8.662; 3148.565
502.151; 2700.661;  -10.531; 3515.999
502.738; 3161.743;  -13.853; 3971.274
503.326; 3766.646;  -10.794; 4403.796
503.913; 4319.389;   -8.663; 5161.749
504.500; 4721.254;  -10.172; 5986.420
505.088; 5161.175;  -13.472; 6381.201
505.675; 6052.413;  -10.924; 6925.547
506.262; 6898.488;   -8.551; 7619.060
506.849; 7863.824;  -10.523; 8733.969
507.436; 8750.716;  -10.834; 9790.121
508.023; 9060.563;   -9.093; 9985.472
508.610; 9492.988;  -10.073;10434.618
509.197;10141.987;   -9.500;11198.435
509.784;11764.731;  -13.242;12391.194
510.371;12541.233;  -10.964;13603.713
510.958;12455.763;   -9.772;14426.586
511.545;13677.141;   -7.842;15243.775
512.132;13823.065;  -12.184;15945.876
512.719;13996.913;   -9.733;16340.369
513.305;16118.898;   -9.172;18011.766
513.892;17852.014;   -9.581;19754.971
514.479;19855.633;  -10.253;20967.805
515.066;22071.398;   -8.183;22299.793
515.652;22990.494;   -9.253;22908.660
516.239;23822.902;   -9.412;23798.875
516.825;25791.285;  -11.153;25567.275
517.412;25186.633;  -10.263;28154.959
517.998;25380.969;   -8.802;28344.111
518.585;25255.297;  -10.401;27134.219
519.171;25203.777;  -12.744;27268.576
519.758;27964.949;  -11.793;28964.129
520.344;30051.307;   -8.912;30664.494
520.930;29174.730;  -10.901;32550.605
521.516;30177.568;  -12.034;35422.895
522.103;31523.383;  -10.473;38280.004
522.689;33657.156;   -8.311;37835.117
523.275;36715.895;  -10.691;37288.613
523.861;36842.539;  -11.193;37281.395
524.447;37121.730;  -11.484;37846.949
525.033;36620.195;   -7.702;38321.949
525.619;36172.891;  -11.241;38579.285
526.205;37224.121;  -12.152;40622.875
526.791;36565.754;  -11.423;42258.836
527.377;34448.125;   -7.981;42966.902
527.963;35059.258;   -9.450;42018.949
528.549;38508.516;  -11.351;42476.828
529.135;39952.754;  -10.202;41854.852
529.721;38689.918;   -8.672;41237.711
530.306;37731.523;   -9.111;41259.445
530.892;39015.785;  -11.252;41506.047
531.478;41140.559;  -10.432;43559.613
532.063;43057.605;  -10.721;47695.563
532.649;43925.434;   -7.450;50808.324
533.235;43960.949;  -11.811;51787.500
533.820;44730.797;   -9.383;52145.035
534.406;44484.438;   -9.400;51133.488
534.991;43731.867;   -8.861;49996.805
535.576;41438.250;  -10.612;48882.852
536.162;39376.117;   -7.322;46942.285
536.747;40850.992;   -9.360;45711.746
537.333;43952.934;  -10.450;48510.180
537.918;46253.172;  -12.610;50439.891
538.503;47505.527;  -12.132;50863.711
539.088;44842.934;  -10.831;50906.922
539.673;42382.426;  -11.220;52621.965
540.259;44223.168;  -11.481;52368.094
540.844;46946.230;  -11.462;50879.109
541.429;48631.008;   -7.869;52077.777
542.014;49151.949;  -11.859;52716.695
542.599;48313.012;  -11.061;52363.281
543.184;47570.496;  -12.300;53187.137
543.769;46277.055;   -9.369;54697.605
544.354;46306.711;  -12.020;53913.914
544.938;43577.137;  -10.350;49680.164
545.523;41417.992;  -10.841;47386.277
546.108;43265.766;   -8.579;49151.949
546.693;45987.750;   -8.818;51384.637
547.278;47090.020;  -11.331;51853.254
547.862;43534.328;  -10.292;51173.750
548.447;39963.758;   -8.349;51691.395
549.031;41556.148;  -10.838;52456.703
549.616;46696.805;  -11.681;52714.516
550.201;49190.926;  -11.140;52414.598
550.785;48188.574;   -8.649;52355.059
551.370;48697.512;  -11.889;54589.453
551.954;47781.043;  -11.239;58267.348
552.538;48051.172;   -8.850;59062.176
553.123;48467.777;  -10.829;58115.285
553.707;48346.770;   -8.887;56556.285
554.291;47592.684;  -10.430;56201.668
554.876;46101.352;   -9.799;55335.762
555.460;47518.609;  -10.018;54155.703
556.044;48026.926;   -7.307;53721.484
556.628;44857.828;  -12.229;53731.016
557.212;42834.484;   -9.820;54312.531
557.796;42559.055;   -9.109;53797.773
558.380;44211.797;   -9.707;56145.984
558.964;43280.977;  -10.980;57277.930
559.548;44139.332;  -12.010;56459.641
560.132;47889.645;   -7.928;54434.543
560.716;49492.211;  -10.247;54800.617
561.300;49102.785;  -11.250;57606.945
561.884;49539.762;  -10.568;58972.445
562.467;47647.719;   -9.727;57327.570
563.051;46932.645;  -11.847;54962.434
563.635;46170.605;  -10.747;52594.473
564.219;42975.371;  -13.108;50610.410
564.802;40464.469;  -11.417;49551.180
565.386;41577.871;  -10.457;48370.953
565.969;42678.957;   -8.959;48178.871
566.553;42092.234;  -10.328;49957.305
567.136;41557.496;  -10.257;50369.594
567.720;41573.449;  -10.186;49492.004
568.303;41949.520;  -10.027;50616.352
568.887;43013.234;  -10.397;50727.148
569.470;41645.094;   -8.185;51698.379
570.053;40792.219;  -11.596;52122.078
570.637;40034.105;  -11.378;52536.438
571.220;38792.191;   -9.138;51186.098
571.803;37489.492;   -7.675;51032.762
572.386;36296.594;   -8.976;49609.887
572.969;34482.977;  -12.477;48285.926
573.552;35120.289;   -9.767;47624.285
574.135;34837.391;   -8.175;45498.641
574.718;31117.912;  -11.096;41970.434
575.301;29718.166;  -11.966;41447.137
575.884;28318.422;  -12.836;40923.836
576.467;33443.992;   -9.116;45267.723
577.050;34624.988;  -10.536;48175.543
577.633;35406.250;  -11.027;47729.328
578.216;36703.816;   -9.946;47579.793
578.799;37812.660;   -9.645;47820.996
579.381;38710.129;   -9.446;48115.551
579.964;39629.145;  -12.217;47333.766
580.547;39952.578;  -10.586;46668.969
581.129;40057.691;   -8.374;44466.141
581.712;37940.867;  -10.434;44164.922
582.294;35922.535;  -10.896;46477.855
582.877;36219.930;   -8.906;48244.254
583.459;36560.109;   -9.994;47437.895
584.042;36972.250;  -10.084;46943.219
584.624;37036.316;  -13.534;46792.227
585.206;35787.945;  -12.716;46557.250
585.789;36543.000;  -11.614;45793.773
586.371;34187.770;  -10.203;43836.391
586.953;31320.670;  -10.314;42972.492
587.536;31096.918;   -9.776;42487.211
588.118;32390.959;   -9.821;42086.414
588.700;33871.691;  -10.073;43389.930
589.282;32841.504;  -12.395;43646.039
589.864;33163.121;  -11.514;43438.109
590.446;32864.230;  -10.803;43151.926
591.028;31314.939;  -11.043;42781.867
591.610;30567.135;  -13.244;42839.098
592.192;29219.367;  -11.095;42820.402
592.774;26950.027;  -10.823;40724.277
593.356;26620.701;  -11.052;39874.789
593.937;29647.947;  -11.664;39980.648
594.519;34808.598;  -10.454;42069.633
595.101;38674.875;  -10.322;42976.031
595.683;37000.039;  -10.042;44084.441
596.264;32906.684;  -14.334;43478.797
596.846;33916.434;  -10.863;43803.672
597.427;33258.293;   -9.901;42986.934
598.009;32038.801;  -10.911;42832.219
598.591;33154.441;  -10.483;42580.086
599.172;34410.504;   -9.663;43061.805
599.753;35056.371;  -10.631;41691.469
600.335;35301.207;   -9.371;40692.520
600.916;33314.344;  -13.992;39982.422
601.498;33113.934;   -8.352;40318.617
602.079;33452.934;   -8.411;40670.609
602.660;32619.344;  -10.841;41450.898
603.241;32606.760;  -12.963;41137.738
603.823;33206.664;  -11.523;38868.797
604.404;33269.379;  -11.881;38182.785
604.985;33960.195;  -11.721;38078.047
605.566;32522.889;   -9.293;38056.633
606.147;31159.092;  -10.940;37020.418
606.728;32798.934;  -11.840;37883.359
607.309;33623.473;  -11.781;38748.273
607.890;33991.965;  -11.262;38850.230
608.471;33056.559;  -10.111;37457.918
609.051;32931.277;   -7.709;36066.457
609.632;30110.107;  -12.409;35991.074
610.213;30348.016;  -10.811;37402.641
610.794;31932.420;  -11.630;38383.363
611.374;35402.988;   -8.030;40562.387
611.955;34450.020;  -10.809;38533.727
612.536;33388.191;  -10.531;36951.789
613.116;33056.281;  -12.820;37197.891
613.697;34590.512;  -11.419;38411.125
614.277;34795.336;   -9.768;38673.938
614.858;31586.738;  -10.251;37075.863
615.438;28158.021;  -11.981;35092.906
616.019;26130.809;   -8.978;33666.301
616.599;27965.342;  -12.219;34189.023
617.179;30497.322;  -14.170;36952.047
617.760;31579.430;   -9.211;39582.574
618.340;31583.955;   -9.018;38943.977
618.920;31670.465;   -9.249;37594.156
619.500;31697.729;  -12.728;37866.938
620.080;32823.680;  -12.939;37869.043
620.660;34162.973;  -11.586;36868.617
621.241;33432.934;  -11.538;36352.309
621.821;31896.029;  -11.398;35459.520
622.401;30337.430;  -10.179;35207.414
622.980;30653.180;  -11.587;35980.422
623.560;31732.508;  -12.888;37351.328
624.140;29727.979;  -13.149;34388.582
624.720;25461.406;   -9.928;32368.764
625.300;25476.795;  -10.869;32638.629
625.880;27977.412;   -8.617;34599.035
626.459;29483.488;  -12.138;36831.738
627.039;32487.914;  -12.267;38299.098
627.619;35235.391;   -7.476;38289.574
628.198;35865.488;  -11.347;37220.695
628.778;32976.215;  -11.678;37632.563
629.357;30818.943;  -12.438;38003.012
629.937;30664.344;   -9.576;38402.039
630.516;30562.771;  -11.096;37868.801
631.096;31429.207;  -11.828;35760.410
631.675;32522.723;  -11.565;35225.219
632.254;33403.180;  -11.845;35130.289
632.834;34815.031;  -11.545;35794.570
633.413;34091.395;  -10.887;35788.922
633.992;34682.598;  -10.175;34532.863
634.571;34884.160;   -9.704;33590.113
635.151;32818.582;  -10.815;34943.863
635.730;31541.637;  -11.617;35352.523
636.309;31875.945;  -10.836;35366.605
636.888;32553.154;   -9.755;36165.637
637.467;33028.523;  -11.684;37515.902
638.046;33115.309;  -11.987;39288.695
638.625;32594.475;  -10.455;38279.699
639.204;32538.033;  -11.234;37741.598
639.782;33309.996;  -12.023;38364.551
640.361;31307.566;  -11.506;36740.621
640.940;27723.568;  -12.316;34950.082
641.519;25726.002;  -11.616;34137.398
642.097;29096.271;   -9.266;35654.258
642.676;32560.486;  -12.936;35637.957
643.255;32765.027;   -9.966;36567.074
643.833;32505.572;   -8.916;37809.434
644.412;30192.082;  -10.936;37337.293
644.990;29936.002;  -12.176;37018.531
645.569;31284.979;  -12.246;36518.469
646.147;35029.039;  -12.107;36186.430
646.726;37581.750;  -12.937;36267.688
647.304;34400.738;  -12.547;36647.625
647.882;33747.805;  -12.597;39286.742
648.461;32984.828;   -9.427;39157.703
649.039;33092.535;   -8.937;35412.883
649.617;33496.754;  -11.067;34744.918
650.195;31959.158;  -10.657;35403.098
650.773;29499.756;  -10.097;35053.797
651.352;29438.697;  -11.887;33756.816
651.930;29017.293;  -13.557;31868.773
652.508;28608.021;  -11.767;33121.551
653.086;30457.943;  -10.777;33564.793
653.663;33311.035;  -12.067;34054.668
654.241;36908.352;  -14.918;35693.309
654.819;36354.766;  -11.788;36422.906
655.397;34353.715;  -11.268;38213.484
655.975;33017.984;  -11.738;39507.625
656.553;31583.225;  -11.018;39498.223
657.130;30183.256;  -12.848;40395.480
657.708;29098.213;  -10.098;39242.020
658.286;30038.021;  -11.678;38920.020
658.863;31756.682;  -11.498;40202.898
659.441;34186.578;  -11.008;39677.938
660.018;35773.977;  -11.048;40413.355
660.596;36779.184;  -12.058;39931.414
661.173;37502.828;  -14.158;39604.531
661.750;37030.133;  -12.298;39700.070
662.328;36680.289;  -10.699;39292.809
662.905;36223.090;  -12.119;38235.648
663.482;32048.887;  -11.829;36212.305
664.060;28495.076;  -11.009;35944.945
664.637;32004.916;  -10.369;35170.785
665.214;34151.621;  -10.459;34197.523
665.791;32696.971;  -12.599;34549.520
666.368;29831.092;  -12.919;35118.578
666.945;28554.275;  -10.699;36019.418
667.522;30160.662;  -11.359;36048.438
668.099;30704.738;  -13.529;36243.914
668.676;30101.199;  -10.229;35958.875
669.253;29904.199;   -9.279;37384.730
669.830;29428.418;  -11.370;36779.629
670.407;29207.508;  -10.950;35231.289
670.984;29996.053;  -12.850;35544.270
671.560;29328.285;   -8.440;35466.867
672.137;30636.520;  -13.520;34280.863
672.714;31640.697;  -13.620;34632.863
673.290;31588.113;  -10.450;35135.422
673.867;30851.395;  -10.960;36114.480
674.443;31664.475;  -13.300;36152.859
675.020;29505.283;  -12.370;35327.238
675.596;28539.063;  -11.250;35795.176
676.173;28612.797;  -11.080;35430.355
676.749;28413.098;  -13.220;33549.516
677.326;29792.770;  -13.000;32210.012
677.902;29705.049;  -12.701;32068.871
678.478;28147.930;  -12.801;32583.891
679.054;28736.090;   -8.601;32088.928
679.631;30089.443;  -12.631;30978.848
680.207;30981.074;   -9.451;33160.887
680.783;30271.297;  -11.701;35570.363
681.359;30539.988;  -12.701;36125.184
681.935;32151.965;  -13.271;35240.922
682.511;33590.898;  -10.791;34429.961
683.087;31657.551;  -10.791;34463.680
683.663;28732.016;   -8.121;34648.898
684.239;27265.938;  -13.261;34546.457
684.815;28645.820;  -10.581;35586.375
685.390;29854.840;   -9.961;35821.895
685.966;29051.936;  -11.182;35085.871
686.542;28569.475;  -13.512;34198.230
687.118;26790.195;  -11.472;32847.707
687.693;26115.385;  -10.152;32794.027
688.269;26078.258;  -14.442;33072.367
688.844;24728.564;  -11.852;33141.664
689.420;23733.314;  -13.942;33965.742
689.995;25393.676;   -9.702;34655.523
690.571;27291.186;  -11.312;33576.742
691.146;27253.242;  -14.332;32657.219
691.722;27065.406;  -11.192;32526.979
692.297;27748.480;  -10.962;33014.617
692.872;29265.961;  -11.082;34012.254
693.448;30438.176;  -14.732;34237.434
694.023;29720.156;  -12.363;34142.672
694.598;27714.828;  -12.393;34132.031
695.173;28764.381;  -11.023;34205.250
695.748;29877.910;  -12.743;32882.488
696.323;28845.059;  -11.103;32864.906
696.898;28074.520;   -8.123;33170.004
697.473;27924.385;  -12.603;32432.984
698.048;28508.217;  -12.553;31649.303
698.623;29600.467;  -12.573;30778.141
699.198;29085.125;  -12.743;31140.119
699.773;28684.801;  -12.843;31764.299
700.348;28885.762;  -16.683;31780.816
700.922;29890.295;  -11.403;32046.375
701.497;31057.875;  -11.253;32603.574
702.072;30072.926;  -10.044;34799.871
702.646;29394.127;  -13.054;35793.172
703.221;30217.551;  -11.414;35201.590
703.795;29111.527;  -10.644;34764.527
704.370;27133.785;  -13.484;34307.367
704.944;26145.242;  -12.144;33509.887
705.519;25763.564;  -12.024;31388.584
706.093;27624.039;  -11.234;31340.104
706.668;28263.504;   -9.874;32630.281
707.242;27334.324;  -12.404;32728.779
707.816;26056.887;  -10.644;32947.238
708.390;25720.010;  -11.174;33277.855
708.965;25889.965;  -10.324;33834.336
709.539;26917.775;  -12.014;33709.273
710.113;26799.074;  -12.295;33044.313
710.687;28336.730;  -10.965;31953.992
711.261;29824.971;  -13.685;30505.949
711.835;27741.621;  -15.335;30262.369
712.409;26487.781;  -13.785;31254.447
712.983;26448.301;  -10.525;32754.986
713.557;24746.193;  -13.175;34018.824
714.131;25056.725;  -13.245;34579.625
714.704;27969.945;  -13.175;33890.262
715.278;29859.707;  -11.545;33531.102
715.852;28537.926;  -10.975;33601.660
716.425;27597.367;  -10.075;33515.117
716.999;28803.543;  -12.185;33185.555
717.573;30933.008;   -9.685;33905.996
718.146;30865.955;  -10.516;35199.293
718.720;29560.064;  -12.106;35060.551
719.293;28355.854;  -12.386;34973.230
719.867;28795.648;  -12.456;36394.449
720.440;28585.984;  -10.686;36663.008
721.013;28403.850;  -12.596;35102.426
721.587;30066.371;  -13.956;33985.266
722.160;32117.264;   -9.806;33524.965
722.733;32666.771;  -11.676;32987.043
723.306;32078.545;  -14.276;33066.301
723.880;30210.994;  -12.126;33399.500
724.453;27807.439;  -10.156;33468.297
725.026;27591.277;  -12.956;33816.637
725.599;27652.109;  -11.676;32797.996
726.172;28106.672;  -12.337;33187.434
726.745;28395.742;  -11.277;35136.613
727.318;28632.947;  -11.927;35751.730
727.891;27708.646;  -13.607;35890.430
728.463;25440.672;  -11.327;34822.090
729.036;25441.809;  -11.917;32895.086
729.609;26570.436;  -12.697;31823.225
730.182;26891.096;  -11.787;31445.283
730.754;26882.049;  -12.957;32373.223
731.327;27364.678;  -11.017;33676.820
731.900;27372.064;  -12.797;33417.000
732.472;26442.357;  -10.677;31978.498
733.045;26190.256;  -12.797;30368.777
733.617;26437.916;  -13.908;30574.215
734.190;25377.904;  -12.258;31280.975
734.762;25750.932;  -13.438;31674.412
735.334;27021.930;  -11.758;31247.291
735.907;29501.971;  -11.158;29876.211
736.479;31921.656;  -11.258;29808.488
737.051;31670.906;  -10.918;30233.547
737.623;30195.781;  -11.038;31469.086
738.195;31660.344;  -12.188;31784.225
738.768;29218.602;  -11.378;32120.523
739.340;23895.701;  -12.598;32094.342
739.912;22786.951;  -11.568;31312.680
740.484;24319.518;   -9.348;31946.238
741.056;26410.250;  -12.628;32984.059
741.628;27761.156;  -13.349;33897.715
742.199;27085.250;  -11.309;33213.016
742.771;27990.016;  -12.699;31369.113
743.343;28959.793;  -11.919;31865.473
743.915;28773.236;  -11.679;32388.631
744.487;27126.867;  -12.249;31079.568
745.058;24568.646;  -11.119;30570.107
745.630;23195.461;   -9.439;29970.127
746.201;22680.189;  -11.949;29186.766
746.773;22694.416;  -12.639;28805.723
747.344;23927.148;  -11.039;29591.223
747.916;25713.100;  -12.549;31412.201
748.487;24511.260;  -12.659;32194.898
749.059;23316.994;  -13.059;32533.719
749.630;22572.326;  -12.080;32158.518
750.201;21308.262;  -13.100;30855.395
750.773;20648.367;  -15.310;28622.555
751.344;20112.572;  -12.240;28405.732
751.915;20257.311;  -11.960;28461.551
752.486;19729.295;  -13.200;27842.850
753.057;19055.193;  -15.230;27845.008
753.628;20645.209;  -13.130;27728.107
754.199;22880.961;  -12.720;27381.086
754.770;22688.506;  -10.680;25882.203
755.341;21234.725;  -11.010;25886.184
755.912;20804.449;  -12.990;26050.861
756.483;19908.004;  -11.110;26798.779
757.054;19616.922;  -12.190;27048.238
757.625;19504.379;  -13.981;26294.838
758.195;19725.131;  -11.041;26142.076
758.766;20604.400;  -11.861;26392.234
759.337;20838.605;  -11.461;26334.594
759.907;20243.781;  -15.001;27579.652
760.478;19140.479;   -9.681;28352.770
761.048;18380.490;  -12.421;27325.088
761.619;19018.725;  -11.761;26460.428
762.189;19196.242;  -12.391;26029.826
762.760;18887.008;  -10.201;26430.145
763.330;19929.262;  -10.811;26670.902
763.900;20483.811;  -10.261;26603.021
764.471;19216.758;  -13.061;25542.740
765.041;17736.721;  -11.051;24358.459
765.611;17784.922;  -11.032;23991.297
766.181;17886.471;  -10.532;24470.236
766.751;18411.055;  -13.502;24845.975
767.321;19791.752;  -11.392;24533.633
767.891;21737.877;  -11.522;24916.492
768.461;22555.963;  -13.672;24776.771
769.031;19704.295;  -14.652;24757.988
769.601;17082.010;  -10.182;24181.088
770.171;15906.068;  -11.752;23670.387
770.741;15065.787;  -12.272;22960.045
771.311;15223.831;  -13.112;22917.523
771.880;16361.521;  -14.122;23562.941
772.450;16953.375;  -11.782;24216.500
773.020;16668.193;  -12.642;24140.398
773.589;15509.126;  -13.043;24414.857
774.159;14973.933;  -11.783;23858.717
774.729;15933.716;  -13.473;22942.135
775.298;16519.773;  -14.523;22324.033
775.867;16090.572;  -12.013;21140.313
776.437;15426.849;  -12.113;20838.092
777.006;15145.285;  -13.543;20599.510
777.576;15711.250;  -12.523;20508.809
778.145;15842.204;  -12.173;20732.947
778.714;15171.410;  -12.153;21062.465
779.283;14454.023;  -11.833;20949.664
779.853;14485.153;  -13.483;20508.623
780.422;14456.574;  -12.933;20649.082
780.991;14108.675;  -13.173;21527.520
781.560;14008.089;  -10.224;22632.658
782.129;14325.111;  -12.684;23048.277
782.698;14215.673;  -11.284;23438.555
783.267;14257.554;  -11.684;23267.734
783.836;14110.015;  -10.974;22415.133
784.404;13549.064;  -13.534;20443.152
784.973;12745.287;  -16.734;19699.150
785.542;11711.483;  -12.594;19763.828
786.111;11734.161;  -11.644;20341.408
786.679;12809.998;  -11.384;20207.967
787.248;13056.714;  -12.014;19516.465
787.817;11988.853;  -12.804;18900.363
788.385;10858.332;  -11.994;17879.121
788.954;10942.607;  -12.564;17658.301
789.522;11513.387;  -12.225;17788.879
790.090;11438.509;  -13.775;18118.277
790.659;11488.931;  -12.485;18338.736
791.227;12102.403;  -12.295;18508.615
791.795;12596.877;  -13.415;17898.254
792.364;12856.448;  -12.995;17295.133
792.932;12326.354;   -8.365;16822.051
793.500;11334.607;  -11.925;17040.148
794.068;11585.990;  -13.245;17179.787
794.636;12003.261;  -13.815;16664.246
795.204;11911.126;  -13.375;16524.545
795.772;11803.298;  -12.125;17274.564
796.340;11088.673;  -13.855;17891.002
796.908; 9684.158;  -13.456;17648.561
797.476; 9198.312;  -13.116;17064.080
798.044; 9475.884;  -13.226;16672.777
798.612; 9618.554;  -11.236;17023.996
799.180; 9436.635;  -10.476;16561.615
799.747; 9226.701;  -11.746;15962.773
800.315; 8977.505;  -12.366;15296.992
800.883; 8365.098;  -14.616;14801.771
801.450; 8426.389;  -11.996;14534.430
802.018; 9217.500;  -11.206;14173.248
802.585; 9560.642;  -12.466;14029.547
803.153; 8987.575;  -12.846;13836.846
803.720; 8525.275;  -12.136;13567.324
804.287; 8707.623;  -10.966;13360.622
804.855; 8673.579;   -9.797;13681.981
805.422; 7877.083;  -13.037;13536.560
805.989; 7384.272;  -12.697;13355.958
806.556; 7787.726;  -11.737;13747.896
807.124; 8397.191;  -11.997;13987.376
807.691; 8013.170;  -13.997;14038.674
808.258; 7515.794;  -10.927;14120.152
808.825; 7685.437;  -13.727;13860.111
809.392; 7617.809;  -11.847;13268.790
809.959; 7657.479;  -14.217;12680.389
810.526; 7716.063;   -8.277;12427.308
811.093; 8061.470;   -9.647;12030.105
811.659; 8088.733;  -10.987;11653.664
812.226; 7341.533;  -13.447;11637.183
812.793; 6845.842;  -14.418;11611.521
813.360; 7049.643;  -13.908;11885.181
813.926; 7594.330;  -12.918;12770.539
814.493; 7710.518;  -14.888;12677.638
815.060; 7264.199;  -12.758;11974.336
815.626; 6995.143;  -13.478;11594.715
816.193; 6955.965;  -13.898;11579.474
816.759; 7104.297;  -13.588;11666.972
817.325; 7106.027;  -12.018;11325.530
817.892; 6883.241;  -14.068;11105.369
818.458; 7052.529;  -13.458;10843.928
819.024; 6883.677;  -11.968;10714.406
819.591; 6641.728;  -11.028;10469.165
820.157; 6735.562;  -12.088;10235.523
820.723; 6788.390;  -12.599;10847.563
821.289; 6566.366;  -10.419;11040.980
821.855; 6479.934;  -10.939;10357.100
822.421; 6525.606;  -12.539; 9978.918
822.987; 6522.420;  -13.259; 9754.177
823.553; 6373.792;  -15.369;10065.755
824.119; 6386.378;  -10.779;10036.294
824.685; 6367.095;   -9.999;10029.192
825.251; 6128.280;  -11.819;10199.230
825.816; 6069.371;  -13.369; 9820.189
826.382; 5890.831;  -12.679; 9297.248
826.948; 5496.385;  -11.199; 9381.347
827.513; 5415.637;  -11.179; 9450.726
828.079; 5524.066;  -13.489; 9472.444
828.645; 5678.100;  -12.500; 9292.643
829.210; 5740.217;  -15.120; 9065.341
829.776; 5755.500;  -12.590; 9132.620
830.341; 5954.993;  -11.540; 9092.878
830.906; 6396.071;  -12.400; 9078.557
831.472; 6266.787;  -12.720; 8534.535
832.037; 5401.800;  -11.490; 8677.874
832.602; 4770.297;  -14.380; 8628.692
833.167; 4695.720;  -12.780; 8879.031
833.733; 5123.918;  -11.100; 9189.790
834.298; 5474.371;  -12.080; 9052.608
834.863; 5257.387;  -13.910; 8895.087
835.428; 4856.854;  -13.470; 8824.266
835.993; 4695.393;  -11.760; 8845.385
836.558; 4910.363;  -12.731; 8888.563
837.123; 4985.571;  -12.431; 8966.582
837.688; 4770.919;  -11.241; 8617.860
838.253; 4661.708;  -13.681; 8590.699
838.817; 4852.863;  -12.531; 8443.797
839.382; 4972.137;  -12.671; 8799.356
839.947; 5033.687;  -11.541; 8810.595
840.511; 5173.550;  -12.021; 8796.394
841.076; 5258.029;  -13.071; 8347.231
841.641; 5517.775;  -11.411; 8224.330
842.205; 5787.159;  -13.671; 8223.349
842.770; 5624.238;  -11.291; 8622.107
843.334; 5287.929;  -12.951; 8410.386
843.898; 5008.683;  -11.221; 8337.465
844.463; 5037.450;  -11.322; 8506.283
845.027; 4928.191;  -11.412; 8280.962
845.591; 4662.302;  -11.512; 8231.141
846.156; 4540.017;  -14.042; 7969.179
846.720; 4552.994;  -12.152; 7768.278
847.284; 4384.410;  -10.922; 7630.957
847.848; 4195.549;  -10.962; 7472.395
848.412; 3959.232;  -14.612; 7437.394
848.976; 4021.219;  -11.492; 7674.592
849.540; 4355.487;   -9.172; 7836.011
850.104; 4497.775;  -11.232; 7913.669
850.668; 4347.860;  -15.182; 7694.508
851.232; 4209.879;  -15.332; 7756.887
851.796; 4135.920;  -13.703; 7926.545
852.359; 4167.971;  -11.113; 7827.844
852.923; 4238.990;  -11.843; 7641.163
853.487; 4212.190;  -11.173; 7342.501
854.050; 4089.023;  -13.443; 7042.820
854.614; 4033.222;  -13.823; 7151.338
855.177; 3946.371;  -16.393; 7105.077
855.741; 3881.187;  -11.693; 6989.675
856.304; 3832.369;  -10.843; 6596.634
856.868; 3673.843;  -13.783; 6356.272
857.431; 3386.885;  -11.953; 6468.571
857.995; 3111.483;  -13.683; 6373.210
858.558; 3088.384;  -11.433; 6324.448
859.121; 3131.273;  -12.493; 6408.327
859.684; 2957.329;  -12.384; 6347.886
860.247; 2631.521;  -14.774; 6321.264
860.810; 2442.180;  -13.154; 6301.903
861.374; 2461.174;  -11.264; 6607.881
861.937; 2504.653;  -15.424; 6408.200
862.500; 2466.477;  -12.854; 6572.639
863.062; 2464.612;  -12.344; 6387.297
863.625; 2507.880;  -13.314; 6190.836
864.188; 2601.063;  -14.724; 5807.254
864.751; 2809.156;  -13.464; 5682.413
865.314; 3135.455;  -11.684; 5547.492
865.876; 3295.495;  -11.104; 5500.150
866.439; 3232.590;  -12.344; 5415.909
867.002; 3037.091;  -13.494; 5501.567
867.564; 2809.047;  -10.935; 5413.946
868.127; 2697.555;  -12.665; 5160.325
868.689; 2674.260;  -14.515; 5133.183
869.252; 2734.181;  -13.425; 5252.382
869.814; 2916.769;  -11.595; 5297.141
870.377; 2957.283;  -12.175; 5390.919
870.939; 2811.098;  -10.265; 5599.898
871.501; 2669.783;  -12.375; 5248.336
872.063; 2570.917;  -14.355; 4854.235
872.626; 2492.652;  -14.435; 4817.074
873.188; 2428.457;  -12.415; 4987.732
873.750; 2453.269;  -14.555; 4868.651
874.312; 2375.437;  -11.185; 4779.330
874.874; 2208.367;  -12.715; 4866.348
875.436; 2146.993;  -13.196; 4718.887
875.998; 2111.501;  -11.426; 4660.005
876.560; 2031.118;   -9.786; 4462.964
877.122; 2008.213;  -12.796; 4145.042
877.683; 2016.321;  -13.226; 4056.481
878.245; 1980.240;  -12.036; 3950.740
878.807; 1950.839;  -11.536; 4058.958
879.369; 1940.796;  -10.806; 3954.677
879.930; 1839.943;  -13.946; 3941.495
880.492; 1694.349;  -11.876; 4067.014
881.053; 1677.287;  -13.216; 3859.633
881.615; 1746.017;  -12.226; 3776.071
882.176; 1752.682;  -12.946; 3734.750
882.738; 1676.902;  -10.736; 3678.489
883.299; 1608.681;  -12.057; 3405.407
883.860; 1580.399;  -12.677; 3351.106
884.422; 1538.543;  -14.097; 3394.044
884.983; 1427.399;  -13.667; 3166.443
885.544; 1277.556;  -10.717; 3189.802
886.105; 1189.185;  -14.357; 3160.360
886.666; 1185.208;  -14.287; 3093.059
887.227; 1194.282;  -14.297; 2941.957
887.788; 1176.394;  -13.137; 2974.836
888.349; 1084.487;  -14.637; 2721.214
888.910; 1007.687;  -12.247; 2696.493
889.471; 1001.211;  -10.577; 2560.172
890.032;  989.975;  -12.937; 2558.190
890.593;  926.990;  -12.487; 2567.669
891.153;  862.981;  -11.898; 2460.307
891.714;  868.845;  -14.278; 2372.046
892.275;  869.738;  -13.308; 2309.505
892.835;  800.190;  -12.058; 2382.543
893.396;  719.905;  -15.268; 2295.502
893.956;  665.555;  -13.278; 2162.420
894.517;  634.449;  -11.968; 2125.439
895.077;  623.465;  -12.798; 2086.978
895.638;  593.623;  -11.908; 2126.316
896.198;  561.249;  -13.288; 1838.275
896.758;  534.468;  -12.198; 1892.813
897.319;  503.940;  -13.048; 1792.232
897.879;  454.777;  -13.718; 1762.751
898.439;  413.485;  -14.138; 1661.149
898.999;  404.055;  -13.659; 1781.468
899.559;  389.453;  -14.699; 1703.347
900.119;  366.077;  -14.339; 1537.525
900.679;  343.176;  -11.789; 1638.384
901.239;  318.135;  -13.629; 1527.902
901.799;  299.616;  -13.679; 1456.441
902.359;  284.841;  -13.679; 1357.140
902.919;  272.749;  -14.159; 1331.118
903.479;  261.277;  -13.419; 1317.257
904.038;  247.609;  -14.899; 1262.595
904.598;  234.616;  -14.339; 1152.034
905.158;  229.582;  -13.959; 1240.893
905.717;  225.452;  -12.749; 1233.691
906.277;  215.059;  -11.889; 1217.330
906.836;  206.460;  -12.870; 1222.408
907.396;  203.996;  -11.790; 1193.047
907.955;  200.655;  -13.750; 1182.526
908.515;  193.448;  -14.760; 1099.364
909.074;  186.586;  -12.540; 1092.863
909.633;  180.573;  -12.120; 1069.121
910.192;  178.836;  -12.550; 1196.460
910.752;  176.357;  -12.760; 1029.960
911.311;  173.213;  -14.750; 1009.780
911.870;  168.623;  -13.860;  971.460
912.429;  165.583;  -13.480; 1094.080
912.988;  161.300;  -12.370; 1081.060
913.547;  155.733;  -14.670;  940.380
914.106;  153.682;  -12.800;  999.420
914.665;  151.462;  -11.370;  984.020
915.224;  150.047;  -11.430; 1035.760
915.782;  149.582;  -12.260;  922.560
916.341;  149.883;  -12.540; 1049.840
916.900;  146.106;  -12.540;  925.260
917.458;  145.944;  -13.480;  884.220
918.017;  145.168;  -12.470;  942.600
918.576;  144.515;  -13.450;  904.440
919.134;  142.402;  -12.890;  837.980
919.693;  141.284;  -15.480;  893.060
920.251;  138.877;  -14.420;  876.500
920.809;  138.577;  -12.170;  839.580
921.368;  137.861;  -13.650;  885.360
921.926;  136.423;  -12.750;  842.940
922.484;  137.279;  -14.150;  903.360
923.042;  138.147;  -15.100;  880.340
923.601;  141.987;  -10.990;  998.680
924.159;  143.055;  -12.470;  935.560
924.717;  141.868;  -15.640;  841.080
925.275;  143.071;  -12.380;  903.240
925.833;  143.166;  -12.710;  779.320
926.391;  145.423;  -11.200;  938.380
926.949;  146.196;  -16.000;  857.680
927.506;  148.838;  -12.260;  903.500
928.064;  149.234;  -11.300;  877.580
928.622;  149.447;  -13.750;  880.100
929.180;  147.925;  -15.290;  814.180
929.737;  147.444;  -14.500;  808.540
930.295;  149.607;  -10.630;  928.480
930.853;  151.629;  -14.590;  849.100
931.410;  154.686;  -14.450;  821.120
931.968;  156.816;  -14.390;  940.660
932.525;  156.278;  -13.050;  909.380
933.082;  155.523;  -15.620;  811.440
933.640;  159.555;  -15.650;  925.900
934.197;  163.682;  -13.610;  886.360
934.754;  167.574;  -13.320;  897.780
935.312;  172.916;  -13.370;  863.340
935.869;  173.762;  -12.780; 1012.980
936.426;  172.690;  -14.480;  872.800
936.983;  174.153;  -13.180;  889.020
937.540;  175.308;  -15.710;  838.280
938.097;  175.257;  -14.980;  940.120
938.654;  176.495;  -13.060;  898.860
939.211;  178.733;  -12.760;  952.480
939.768;  176.858;  -16.230;  915.420
940.324;  176.405;  -10.940;  904.200
940.881;  176.017;  -12.570;  878.500
941.438;  175.433;  -13.650; 1021.200
941.995;  175.806;  -13.300;  992.560
942.551;  177.664;  -15.800;  875.620
943.108;  176.838;  -14.180;  937.920
943.664;  176.790;  -13.890;  869.340
944.221;  181.341;  -12.640; 1088.140
944.777;  179.307;  -14.700;  869.680
945.334;  178.265;  -13.010;  884.840
945.890;  179.317;  -13.480;  946.480
946.446;  178.658;  -14.920;  947.020
947.003;  177.031;  -13.860;  964.940
947.559;  176.095;  -12.000; 1063.040
948.115;  176.562;  -10.510; 1026.540
948.671;  176.552;  -12.760;  967.300
949.227;  172.145;  -15.390;  859.560
949.783;  167.148;  -15.570;  858.900
950.339;  166.113;  -12.800;  991.000
950.895;  166.634;  -13.780; 1023.840
951.451;  166.119;  -13.810;  925.280
952.007;  167.905;  -12.390;  998.540
952.563;  165.872;  -11.980;  937.780
953.118;  166.194;  -14.070;  904.940
953.674;  168.161;  -14.140;  935.780
954.230;  171.567;  -12.680;  949.640
954.785;  173.251;  -12.770;  936.640
955.341;  169.873;  -11.450;  998.160
955.897;  161.290;  -15.350;  834.660
956.452;  156.409;  -14.200;  953.840
957.008;  152.607;  -10.820; 1083.640
957.563;  151.623;  -13.200; 1009.540
958.118;  151.710;  -14.460;  877.700
958.674;  153.189;  -13.840;  946.780
959.229;  152.406;  -10.670; 1013.980
959.784;  152.434;  -17.040;  832.400
960.339;  156.006;  -12.970; 1001.280
960.894;  160.577;  -12.700;  963.760
961.449;  165.914;  -13.790;  859.960
962.004;  171.968;  -11.760; 1212.840
962.559;  168.693;  -14.840;  860.140
963.114;  162.851;  -14.530;  742.480
963.669;  159.115;  -12.780;  915.500
964.224;  153.694;  -14.330;  874.340
964.779;  146.902;  -14.380;  828.420
965.334;  139.751;  -12.460; 1017.860
965.888;  129.812;  -13.490;  875.360
966.443;  124.309;  -14.140;  972.380
966.998;  114.281;  -16.240;  819.460
967.552;  107.288;  -12.730;  908.380
968.107;  100.461;  -14.510;  868.300
968.661;   98.756;  -11.850;  922.440
969.216;   97.410;  -14.370;  856.280
969.770;   99.139;  -13.010;  917.200
970.324;  102.719;  -12.460;  923.140
970.879;  108.476;  -11.580;  947.180
971.433;  112.207;  -13.130;  952.720
971.987;  111.912;  -12.360;  895.340
972.541;  108.859;  -14.330;  917.100
973.095;  107.737;  -13.310; 1009.460
973.649;  103.940;  -15.830;  809.480
974.203;  104.436;  -15.830;  829.040
974.757;  107.714;  -13.480;  855.220
975.311;  110.997;  -13.720;  872.600
975.865;  112.727;  -15.780;  881.820
976.419;  111.391;  -14.290;  857.400
976.973;  107.715;  -13.210;  849.620
977.526;  107.070;  -12.300;  949.920
978.080;  102.656;  -14.840;  796.780
978.634;  101.279;  -13.100;  921.320
979.187;   98.136;  -12.300;  905.400
979.741;   98.444;  -12.020; 1018.380
980.294;   95.626;  -14.590;  789.160
980.848;   93.831;  -14.390;  717.220
981.401;   95.182;  -14.280;  816.540
981.955;   94.452;  -11.920;  844.300
982.508;   91.543;  -15.790;  746.340
983.061;   91.484;  -12.070;  915.260
983.615;   88.294;  -13.260;  798.800
984.168;   86.121;  -15.540;  770.080
984.721;   85.389;  -13.230;  880.760
985.274;   82.938;  -11.820;  867.500
985.827;   81.334;  -13.510;  834.220
986.380;   80.097;  -14.840;  721.340
986.933;   80.585;  -13.970;  864.800
987.486;   79.505;  -12.450;  861.920
988.039;   77.347;  -11.170;  863.100
988.591;   75.845;  -13.070;  893.260
989.144;   72.148;  -15.530;  737.260
989.697;   72.229;  -14.300;  758.740
990.250;   70.925;  -13.310;  858.100
990.802;   69.054;  -14.490;  755.860
991.355;   69.516;  -12.980;  974.880
991.907;   67.725;  -13.715;  864.320
992.460;   65.933;  -14.450;  753.760
993.012;   63.363;  -12.590;  749.540
993.565;   62.554;  -15.180;  711.360
994.117;   63.558;  -11.630;  950.780
994.669;   60.058;  -13.760;  701.320
995.221;   60.134;  -12.710;  791.920
995.774;   59.602;  -14.620;  787.580
996.326;   59.032;  -13.150;  740.220
996.878;   59.221;  -12.880;  838.420
997.430;   56.788;  -14.580;  699.860
997.982;   56.173;  -14.030;  750.140
998.534;   56.612;  -12.190;  739.060
999.086;   54.825;  -12.990;  738.220
999.638;   53.679;  -13.180;  661.380
1000.190;   52.642;  -14.970;  699.320
1000.741;   51.374;  -12.200;  742.700
1001.293;   51.455;  -13.400;  686.020
1001.845;   50.396;  -14.490;  676.640
1002.396;   51.044;  -15.280;  743.400
1002.948;   50.836;  -12.380;  737.400
1003.500;   50.265;  -13.260;  723.780
1004.051;   52.209;  -13.730;  907.580
1004.603;   50.633;  -12.300;  791.820
1005.154;   46.169;  -15.330;  608.980
1005.705;   44.060;  -12.800;  723.960
1006.257;   43.281;  -13.900;  707.220
1006.808;   43.039;  -14.430;  685.460
1007.359;   42.938;  -12.010;  763.240
1007.910;   40.738;  -12.690;  646.640
1008.461;   40.972;  -13.610;  732.940
1009.013;   39.609;  -14.990;  588.340
1009.564;   40.808;  -11.860;  793.520
1010.115;   38.557;  -12.640;  597.040
1010.665;   38.395;  -14.570;  602.160
1011.216;   38.533;  -15.190;  667.920
1011.767;   38.966;  -13.470;  697.920
1012.318;   39.212;  -13.760;  736.980
1012.869;   37.561;  -15.950;  679.000
1013.419;   37.144;  -15.880;  603.120
1013.970;   37.050;  -14.540;  666.640
1014.521;   36.200;  -13.220;  620.620
1015.071;   36.863;  -15.020;  670.380
1015.622;   36.273;  -17.510;  635.460
1016.172;   35.769;  -14.130;  596.820
1016.723;   34.729;  -14.220;  614.380
1017.273;   34.854;  -15.370;  604.160
1017.823;   34.929;  -15.290;  650.340
1018.374;   34.594;  -13.420;  611.760
1018.924;   34.150;  -11.740;  716.880
1019.474;   35.330;  -12.250;  718.880
1020.024;   33.617;  -15.850;  657.580
1020.574;   34.147;  -13.280;  726.160
1021.124;   34.817;  -13.560;  673.580
1021.674;   32.416;  -13.790;  559.120
1022.224;   34.021;  -14.610;  708.940
1022.774;   33.528;  -13.100;  668.820
1023.324;   33.231;  -11.470;  753.520
1023.874;   34.895;  -11.990;  875.760
1024.423;   32.177;  -14.550;  613.700
1024.973;   32.002;  -14.440;  610.760
1025.523;   31.200;  -13.250;  620.960
1026.072;   30.756;  -15.200;  606.420
1026.622;   31.099;  -14.590;  675.740
1027.172;   31.499;  -11.080;  715.660
1027.721;   30.667;  -14.010;  601.220
1028.270;   31.109;  -13.690;  663.400
1028.820;   30.204;  -15.380;  638.080
1029.369;   30.375;  -14.980;  612.700
1029.918;   29.968;  -13.100;  649.840
1030.468;   29.417;  -13.680;  564.780
1031.017;   30.220;  -13.770;  634.800
1031.566;   28.789;  -14.100;  608.900
1032.115;   29.783;  -11.770;  694.500
1032.664;   28.639;  -14.940;  596.480
1033.213;   29.783;  -13.370;  735.420
1033.762;   28.349;  -13.660;  635.620
1034.311;   28.302;  -13.650;  677.220
1034.860;   28.899;  -13.820;  691.000
1035.408;   28.453;  -12.860;  722.720
1035.957;   29.050;  -13.060;  719.540
1036.506;   25.365;  -14.510;  530.800
1037.055;   29.937;  -13.470;  844.320
1037.603;   27.477;  -14.800;  664.000
1038.152;   25.721;  -14.190;  534.760
1038.700;   26.325;  -11.810;  585.740
1039.249;   27.003;  -12.850;  681.220
1039.797;   26.605;  -14.610;  633.360
1040.345;   26.846;  -15.220;  705.420
1040.894;   25.977;  -13.480;  625.300
1041.442;   25.600;  -13.310;  632.200
1041.990;   24.521;  -14.510;  559.160
1042.538;   23.753;  -15.700;  536.180
1043.087;   24.559;  -13.910;  570.860
1043.635;   26.099;  -13.620;  670.500
1044.183;   24.646;  -14.230;  586.400
1044.731;   24.873;  -13.730;  576.000
1045.279;   24.098;  -13.970;  674.920
1045.827;   27.076;  -10.750;  892.400
1046.374;   23.163;  -15.230;  515.420
1046.922;   23.032;  -15.390;  590.580
1047.470;   24.006;  -12.320;  691.300
1048.018;   23.510;  -13.230;  647.960
1048.565;   24.706;  -13.390;  708.600
1049.113;   23.168;  -15.030;  557.000
1049.660;   22.491;  -12.540;  629.660
1050.208;   23.776;  -15.040;  675.640
1050.755;   22.666;  -14.680;  606.580
1051.303;   23.374;  -13.610;  686.820
1051.850;   22.268;  -14.340;  635.120
1052.397;   20.357;  -16.330;  473.960
1052.945;   21.750;  -15.710;  617.760
1053.492;   22.951;  -12.320;  741.840
1054.039;   22.841;  -13.730;  720.180
1054.586;   21.524;  -16.140;  557.240
1055.133;   22.181;  -14.020;  693.140
1055.680;   22.528;  -13.430;  646.620
1056.227;   20.211;  -14.570;  542.780
1056.774;   23.196;  -14.400;  794.980
1057.321;   20.841;  -14.230;  523.260
1057.868;   20.894;  -14.220;  651.320
1058.415;   20.886;  -14.060;  651.980
1058.961;   21.670;  -14.640;  678.940
1059.508;   20.202;  -13.970;  643.820
1060.055;   20.101;  -15.100;  581.780
1060.601;   20.950;  -12.180;  624.300
1061.148;   19.812;  -15.010;  616.820
1061.694;   19.069;  -14.750;  592.580
1062.241;   19.610;  -14.130;  596.320
1062.787;   20.444;  -14.770;  663.140
1063.334;   21.305;  -13.130;  808.560
1063.880;   19.954;  -14.420;  668.360
1064.426;   19.733;  -13.130;  706.820
1064.972;   17.630;  -13.960;  601.340
1065.518;   17.487;  -13.680;  566.640
1066.065;   18.528;  -15.720;  624.460
1066.611;   17.682;  -13.970;  598.800
1067.157;   18.020;  -13.920;  641.860
1067.703;   18.971;  -14.760;  668.480
1068.249;   17.931;  -14.490;  605.220
1068.794;   18.061;  -14.740;  626.880
1069.340;   17.177;  -13.220;  578.960
1069.886;   17.373;  -14.930;  590.700
1070.432;   16.672;  -14.700;  541.720
1070.977;   16.303;  -14.470;  601.080
1071.523;   16.672;  -14.330;  573.060
1072.068;   17.545;  -14.960;  582.000
1072.614;   16.782;  -16.220;  527.760
1073.160;   17.186;  -11.280;  687.040
1073.705;   16.180;  -15.990;  572.520
1074.250;   16.550;  -16.550;  559.900
1074.796;   17.590;  -14.600;  655.160
1075.341;   17.704;  -13.440;  664.100
1075.886;   16.346;  -14.450;  594.240
1076.431;   17.071;  -13.160;  649.880
1076.976;   16.147;  -14.710;  639.220
1077.521;   15.447;  -14.000;  583.080
1078.067;   14.685;  -14.470;  579.400
1078.612;   15.256;  -14.530;  661.620
1079.156;   15.675;  -15.660;  601.540
1079.701;   15.467;  -16.120;  693.260
1080.246;   15.969;  -12.960;  696.300
1080.791;   15.281;  -13.700;  625.020
1081.336;   15.988;  -15.540;  659.320
1081.880;   15.360;  -14.640;  649.680
1082.425;   14.457;  -14.220;  573.480
1082.970;   16.522;  -11.890;  717.040
1083.514;   14.893;  -13.820;  597.000
1084.059;   13.855;  -14.280;  586.720
1084.603;   13.433;  -12.890;  565.840
1085.147;   14.774;  -13.590;  645.220
1085.692;   14.823;  -14.050;  716.800
1086.236;   12.450;  -14.990;  503.140
1086.780;   14.802;  -12.640;  751.440
1087.325;   14.524;  -15.550;  654.620
1087.869;   13.680;  -14.980;  610.700
1088.413;   14.315;  -13.440;  705.040
1088.957;   12.269;  -12.170;  543.400
1089.501;   14.779;  -12.730;  766.640
1090.045;   14.046;  -14.650;  726.480
1090.589;   11.959;  -14.500;  569.920
1091.133;   12.870;  -12.320;  673.340
1091.676;   12.418;  -16.130;  591.940
1092.220;   11.679;  -13.930;  600.920
1092.764;   13.962;  -12.820;  706.960
1093.307;   12.197;  -11.700;  673.780
1093.851;   11.487;  -15.600;  556.540
1094.395;   12.776;  -13.920;  683.140
1094.938;   12.392;  -16.090;  632.520
1095.482;   11.517;  -13.820;  559.800
1096.025;   13.692;  -12.720;  710.880
1096.568;   13.737;  -12.100;  779.280
1097.112;    9.849;  -15.450;  508.180
1097.655;   11.588;  -14.310;  603.000
1098.198;   11.079;  -14.740;  600.180
1098.741;   10.936;  -15.550;  612.860
1099.285;   11.445;  -12.600;  657.300
1099.828;    9.230;  -15.050;  439.400
1100.371;   11.129;  -14.800;  608.160
1100.914;   10.849;  -16.480;  682.660
1101.457;   10.531;  -12.990;  679.900
1101.999;    9.127;  -14.110;  584.680
1102.542;   11.276;  -11.450;  641.440
1103.085;   10.781;  -13.350;  658.500
1103.628;   11.930;  -13.200;  762.060
1104.170;    8.932;  -12.310;  588.280
1104.713;   10.336;  -14.320;  646.700
1105.256;    9.391;  -16.110;  557.440
1105.798;    8.602;  -15.910;  499.980
1106.341;   10.896;  -12.200;  728.900
1106.883;    8.581;  -14.910;  521.340
1107.425;   10.186;  -14.960;  668.180
1107.968;    9.560;  -13.440;  612.380
1108.510;   10.433;  -14.010;  684.960
1109.052;    8.400;  -15.430;  612.620
1109.594;    8.702;  -15.290;  554.440
1110.136;    8.574;  -13.360;  643.220
1110.679;    8.357;  -13.820;  633.080
1111.221;    9.265;  -13.690;  604.460
1111.763;    8.291;  -14.890;  559.220
1112.304;    7.889;  -14.550;  547.140
1112.846;    8.656;  -12.760;  666.240
1113.388;   12.875;  -10.780;  942.180
1113.930;    9.160;  -12.690;  694.200
1114.472;    8.143;  -15.730;  606.540
1115.013;    7.226;  -14.620;  551.280
1115.555;    7.011;  -14.950;  587.100
1116.097;    7.006;  -16.460;  579.480
1116.638;    7.855;  -13.730;  684.600
1117.180;    8.121;  -13.810;  667.740
1117.721;    7.214;  -13.280;  568.580
1118.262;    8.498;  -15.080;  677.960
1118.804;    8.416;  -14.040;  637.340
1119.345;    6.556;  -15.430;  578.400
1119.886;    8.268;  -15.240;  704.040
1120.427;    6.576;  -15.820;  589.020
1120.969;    7.016;  -14.550;  597.920
1121.510;    5.624;  -14.030;  563.060
1122.051;    8.125;  -11.990;  723.580
1122.592;    6.407;  -16.490;  655.420
1123.133;    5.157;  -15.580;  547.940
1123.673;    6.693;  -12.850;  706.480
1124.214;    6.460;  -13.630;  612.460
1124.755;    7.469;  -14.830;  639.460
1125.296;    6.594;  -13.110;  627.320
1125.836;    7.939;  -11.320;  691.500
1126.377;    5.535;  -14.330;  599.660
1126.918;    7.019;  -12.800;  614.980
1127.458;    5.611;  -13.580;  622.220
1127.999;    6.103;  -10.330;  656.980
1128.539;    6.039;  -13.390;  694.240
1129.079;    5.256;  -16.420;  632.720
1129.620;    5.302;  -15.700;  558.100
1130.160;    4.063;  -14.790;  539.480
1130.700;    5.471;  -12.910;  640.840
1131.240;    5.504;  -15.610;  643.700
1131.781;    5.028;  -12.920;  619.680
1132.321;    4.758;  -15.300;  599.120
1132.861;    4.636;  -14.760;  564.200
1133.401;    4.086;  -15.470;  593.940
1133.941;    5.125;  -13.710;  626.280
1134.481;    3.879;  -11.820;  597.580
1135.020;    4.361;  -14.810;  609.160
1135.560;    4.500;  -13.660;  674.940
1136.100;    3.017;  -13.940;  501.160
1136.640;    3.454;  -15.410;  510.480
1137.179;    3.101;  -16.920;  537.960
1137.719;    4.095;  -16.430;  605.400
1138.258;    4.796;  -16.300;  587.360
1138.798;    4.259;  -13.710;  663.780
1139.337;    3.012;  -13.840;  482.840
1139.877;    4.954;  -16.140;  642.360
1140.416;    6.100;  -11.410;  878.060
1140.955;    2.515;  -12.820;  535.380
1141.494;    4.099;  -12.310;  669.280
1142.034;    2.960;  -16.280;  583.520
1142.573;    3.565;  -13.090;  646.280
1143.112;    2.604;  -13.770;  553.480
1143.651;    2.491;  -15.830;  536.480
1144.190;    4.317;  -15.010;  691.640
1144.729;    2.944;  -13.650;  607.420
1145.267;    2.378;  -13.670;  584.900
1145.806;    3.563;  -13.630;  637.040
1146.345;    3.217;  -14.160;  635.020
1146.884;    2.467;  -11.180;  622.500
1147.422;    1.173;  -15.890;  533.060
1147.961;    4.406;  -12.760;  708.460
1148.500;    3.275;  -15.220;  669.720
1149.038;    3.417;  -13.720;  632.500
1149.577;    3.108;  -13.250;  698.640
1150.115;    0.202;  -16.790;  452.280
1150.653;    2.420;  -15.810;  607.340
1151.192;    2.519;  -14.730;  552.920
1151.730;    1.628;  -13.660;  652.560
1152.268;    1.841;  -15.120;  589.520
1152.806;    1.307;  -15.580;  571.180
1153.344;    0.385;  -16.210;  577.640
1153.882;    1.816;  -12.810;  600.060
1154.421;    0.212;  -14.150;  470.620
1154.958;    0.737;  -15.360;  595.240
1155.496;    2.305;  -14.710;  645.280
1156.034;    1.022;  -13.640;  721.880
1156.572;    2.452;  -13.740;  667.060
1157.110;    0.617;  -16.960;  473.940
1157.647;    1.854;  -11.940;  676.960
1158.185;    0.121;  -14.090;  564.320
1158.723;   -0.597;  -13.610;  509.200
1159.260;    1.806;  -14.760;  701.700
1159.798;    1.183;  -13.700;  658.160
1160.335;    0.584;  -13.820;  631.820

