gmr_left
Integration time [ms]: 3468.598
Averaging Nr. [scans]: 10
Smoothing Nr. [pixels]: 0
Data measured with spectrometer [name]: 7414430SP
Wave   ;Sample   ;Dark     ;Reference
[nm]   ;[counts] ;[counts] ;[counts] 

288.544; 5121.286; 4983.385;    6.613
289.143; 4217.111; 4054.288;   14.216
289.742; 5489.142; 5296.867;   11.816
290.341; 5225.718; 5071.188;   -4.936
290.940; 4779.346; 4633.392;    0.852
291.538; 6024.581; 5870.872;    1.792
292.137; 5326.421; 5171.827;    6.262
292.736; 6935.218; 6773.389;    8.164
293.335; 4925.198; 4733.773;   -6.418
293.934; 5298.499; 5105.711;   -2.904
294.532; 7474.815; 7282.726;   -5.162
295.131; 5916.854; 5726.518;  -10.283
295.730; 5707.603; 5546.961;  -16.141
296.328; 5519.089; 5353.235;  -14.740
296.927; 5494.920; 5314.389;   -8.768
297.525; 5458.803; 5271.474;  -15.255
298.124; 4458.755; 4280.530;  -22.063
298.722; 5324.627; 5165.127;  -14.796
299.321; 4929.779; 4751.758;  -10.466
299.919; 5239.259; 5105.331;  -10.979
300.518; 4812.456; 4674.793;  -12.077
301.116; 4814.176; 4680.521;  -13.509
301.715; 5101.138; 4971.916;  -11.939
302.313; 4955.210; 4778.250;  -15.424
302.911; 5281.401; 5092.749;  -19.833
303.509; 6869.007; 6712.962;   -3.567
304.108; 5406.769; 5252.457;   -9.553
304.706; 5792.427; 5641.515;   -8.582
305.304; 5877.473; 5735.520;  -12.348
305.902; 5599.986; 5445.572;  -14.411
306.500; 5221.993; 5061.710;   -7.194
307.098; 5410.700; 5250.898;   -9.322
307.696; 5753.021; 5572.651;  -19.192
308.294; 5290.976; 5156.146;   -9.736
308.892; 5534.189; 5383.022;  -15.482
309.490; 5119.173; 4946.583;  -14.107
310.088; 5850.242; 5709.054;  -15.862
310.686; 6017.238; 5862.354;  -10.781
311.284; 5670.214; 5498.425;  -14.878
311.882; 5218.966; 5091.407;   -9.948
312.480; 5089.435; 4933.328;  -15.503
313.078; 6071.211; 5942.025;  -17.262
313.675; 5029.093; 4875.110;   -3.694
314.273; 6002.394; 5857.348;  -18.246
314.871; 4162.111; 4039.000;  -15.190
315.468; 4748.601; 4617.749;  -12.633
316.066; 5071.704; 4944.624;   -5.765
316.664; 4803.073; 4640.783;  -14.317
317.261; 6932.031; 6802.427;   -8.677
317.859; 5888.556; 5734.268;  -11.804
318.456; 6371.311; 6212.525;   -3.107
319.054; 5962.704; 5840.912;   -3.062
319.651; 5699.790; 5547.735;   -6.706
320.249; 6228.190; 6109.685;   -5.206
320.846; 5362.928; 5266.352;   -4.679
321.443; 6467.835; 6334.103;   -7.920
322.041; 6322.507; 6195.737;  -14.105
322.638; 5385.424; 5261.052;   -6.263
323.235; 4988.310; 4863.250;   -7.424
323.833; 5682.272; 5567.545;  -14.765
324.430; 4552.707; 4435.237;  -10.550
325.027; 6833.196; 6712.098;   -9.951
325.624; 4775.207; 4616.812;   -3.712
326.221; 5122.083; 4968.497;   -9.368
326.818; 6270.958; 6091.093;   -5.637
327.415; 5492.720; 5355.476;   -6.699
328.012; 5041.641; 4863.679;   -5.713
328.609; 5313.792; 5162.610;   -9.983
329.206; 5815.113; 5645.363;   -7.154
329.803; 5398.420; 5211.901;   -1.682
330.400; 5076.234; 4900.641;   -2.741
330.997; 5983.600; 5817.924;   -4.339
331.594; 5824.476; 5646.983;  -10.278
332.191; 5148.745; 4995.754;   -6.967
332.787; 6158.624; 5969.677;   -0.480
333.384; 5442.808; 5257.662;  -10.333
333.981; 5929.429; 5771.552;  -19.900
334.578; 4974.139; 4783.916;  -19.816
335.174; 5154.122; 4998.339;  -15.844
335.771; 6071.743; 5919.491;  -12.670
336.367; 5084.392; 4916.472;  -21.124
336.964; 5813.033; 5640.552;  -18.226
337.561; 5277.467; 5090.344;  -13.311
338.157; 6850.872; 6657.257;  -19.006
338.754; 5834.982; 5671.309;  -19.418
339.350; 5214.072; 5050.082;  -29.433
339.946; 5552.051; 5393.192;  -16.622
340.543; 6291.604; 6090.361;  -16.744
341.139; 5260.849; 5095.704;  -21.841
341.735; 5798.883; 5610.534;  -25.012
342.332; 5055.270; 4912.607;  -19.156
342.928; 5936.745; 5749.129;  -20.443
343.524; 5724.532; 5588.802;  -14.397
344.120; 5527.990; 5379.784;  -20.654
344.716; 5282.228; 5094.014;   -5.730
345.313; 5978.090; 5839.472;  -10.929
345.909; 4520.052; 4381.842;  -19.843
346.505; 5521.131; 5364.214;  -19.645
347.101; 6228.469; 6056.932;   -9.618
347.697; 5910.527; 5751.302;  -10.305
348.293; 4516.010; 4347.975;  -23.189
348.889; 5583.844; 5446.116;  -18.418
349.485; 5037.637; 4872.965;  -10.476
350.081; 5797.841; 5670.291;  -17.320
350.676; 5137.765; 5000.419;  -21.088
351.272; 6105.237; 5950.016;  -12.821
351.868; 5778.492; 5612.910;  -13.165
352.464; 5335.126; 5204.664;  -12.464
353.059; 4732.510; 4613.287;  -22.547
353.655; 5888.585; 5722.059;   -9.379
354.251; 5673.112; 5519.300;   -8.266
354.846; 5561.396; 5425.623;  -17.705
355.442; 5603.486; 5447.184;   -9.317
356.038; 5612.537; 5455.090;  -11.049
356.633; 5405.917; 5254.163;  -10.006
357.229; 5388.003; 5228.999;  -13.120
357.824; 5258.965; 5095.231;  -15.647
358.420; 5014.145; 4871.454;  -19.204
359.015; 5094.937; 4953.653;  -12.263
359.610; 5762.061; 5623.981;  -16.421
360.206; 4396.221; 4244.451;  -20.074
360.801; 4729.682; 4567.671;  -13.277
361.396; 5423.451; 5273.642;   -5.822
361.992; 4944.865; 4822.082;  -11.247
362.587; 4989.627; 4866.389;  -21.502
363.182; 5155.872; 5012.657;   -7.461
363.777; 5611.665; 5452.306;   -8.719
364.372; 5551.337; 5417.878;  -14.590
364.967; 5131.824; 4998.401;  -15.145
365.563; 6192.472; 6062.795;   -7.192
366.158; 5083.699; 4955.311;   -5.662
366.753; 4804.733; 4656.940;   -8.378
367.348; 5693.792; 5508.222;  -14.990
367.942; 5206.727; 5090.001;   -6.005
368.537; 5705.493; 5566.585;  -11.504
369.132; 5313.692; 5163.560;  -10.576
369.727; 4743.969; 4572.582;  -12.573
370.322; 4353.158; 4212.081;  -11.560
370.917; 5408.165; 5272.619;  -10.388
371.511; 6704.979; 6595.170;   -9.161
372.106; 6039.224; 5869.301;  -10.245
372.701; 4382.510; 4245.487;  -10.158
373.296; 6643.496; 6521.885;   -4.719
373.890; 4919.627; 4797.689;  -11.802
374.485; 5325.625; 5206.901;  -13.500
375.079; 5704.486; 5582.247;   -6.276
375.674; 6312.441; 6178.866;   -0.447
376.268; 5260.503; 5119.886;   -6.916
376.863; 4445.063; 4325.718;  -14.483
377.457; 5079.055; 4959.743;   -6.903
378.052; 5939.572; 5812.932;   -9.844
378.646; 5814.145; 5688.691;  -12.601
379.240; 5602.645; 5483.954;  -14.715
379.835; 4907.931; 4791.252;  -12.331
380.429; 4283.114; 4139.587;   -9.074
381.023; 6113.345; 6023.366;   -1.729
381.617; 5317.917; 5193.600;  -13.714
382.212; 5335.251; 5199.617;   -7.060
382.806; 5972.255; 5856.393;   -2.303
383.400; 5296.707; 5194.861;   -0.815
383.994; 5236.707; 5127.624;   -4.429
384.588; 5528.796; 5394.073;   -6.261
385.182; 5769.065; 5638.881;    0.008
385.776; 5647.703; 5545.624;   -3.247
386.370; 5393.903; 5300.699;   -1.030
386.964; 5423.651; 5324.055;   -1.346
387.558; 4701.410; 4587.712;   -2.020
388.152; 5444.362; 5338.543;   -5.345
388.745; 6570.489; 6478.322;   -2.774
389.339; 5876.906; 5769.749;    3.510
389.933; 5419.686; 5325.146;    5.280
390.527; 6996.124; 6889.151;    2.610
391.120; 4778.400; 4663.248;   -7.914
391.714; 5658.510; 5553.737;   -1.903
392.308; 6330.506; 6199.287;    6.023
392.901; 5185.579; 5082.758;   -4.103
393.495; 4798.990; 4713.759;    3.284
394.089; 6283.493; 6189.122;    8.655
394.682; 5665.621; 5610.813;    2.312
395.275; 5880.296; 5792.710;   -7.402
395.869; 5435.055; 5370.055;   -1.072
396.462; 4987.638; 4932.678;    6.454
397.056; 6282.434; 6202.715;    8.494
397.649; 6051.514; 5922.913;    1.599
398.242; 5876.427; 5768.239;    3.153
398.836; 6292.851; 6167.017;   11.395
399.429; 5078.382; 5014.096;   14.695
400.022; 5475.324; 5395.776;    3.627
400.615; 6707.279; 6618.121;    8.383
401.208; 5595.658; 5498.181;   13.295
401.802; 5778.472; 5681.382;    6.211
402.395; 5644.724; 5596.026;    7.227
402.988; 5713.793; 5664.872;    2.700
403.581; 5190.517; 5136.675;   11.225
404.174; 5532.596; 5480.048;   18.922
404.767; 5151.893; 5071.610;   14.169
405.360; 5110.638; 5064.078;    8.999
405.953; 6242.331; 6154.089;   13.138
406.545; 5980.451; 5915.479;   13.937
407.138; 5045.862; 4989.331;   10.869
407.731; 5028.145; 4971.279;   12.768
408.324; 5400.561; 5308.193;   22.921
408.917; 5649.065; 5555.781;   15.308
409.509; 6127.334; 6066.265;   12.239
410.102; 5370.462; 5291.206;   13.741
410.695; 5448.016; 5394.863;   20.249
411.287; 4917.037; 4872.253;   21.793
411.880; 4789.244; 4750.541;   22.965
412.472; 5037.737; 4994.453;   15.082
413.065; 5241.344; 5211.779;   23.423
413.657; 4732.109; 4700.924;   21.077
414.250; 5302.323; 5250.026;   12.349
414.842; 5570.258; 5521.505;   20.423
415.434; 4751.113; 4676.125;   19.906
416.027; 5315.608; 5250.987;   26.574
416.619; 5896.458; 5860.780;   15.705
417.211; 4902.864; 4856.906;   17.791
417.804; 5131.174; 5078.208;   30.244
418.396; 5010.271; 4972.632;   24.177
418.988; 5441.154; 5394.105;   24.904
419.580; 4672.475; 4639.345;   20.692
420.172; 4450.905; 4422.949;   22.275
420.764; 5468.922; 5436.114;   26.773
421.356; 5270.598; 5234.536;   25.731
421.948; 5577.167; 5520.057;   24.876
422.540; 5544.146; 5486.917;   30.042
423.132; 4917.760; 4874.056;   32.728
423.724; 4571.598; 4547.598;   21.317
424.316; 5110.060; 5074.269;   29.359
424.908; 4864.608; 4818.475;   28.798
425.500; 5323.932; 5270.527;   30.512
426.092; 5273.249; 5262.205;   26.741
426.683; 5705.146; 5674.779;   27.029
427.275; 5247.866; 5220.344;   32.611
427.867; 5422.787; 5381.797;   33.796
428.458; 6014.214; 5979.088;   34.453
429.050; 5603.773; 5560.808;   34.255
429.642; 6104.756; 6064.581;   39.082
430.233; 4538.673; 4497.833;   41.138
430.825; 6024.169; 5978.757;   31.581
431.416; 5727.004; 5693.486;   35.755
432.008; 5291.135; 5234.766;   40.566
432.599; 5290.745; 5254.004;   46.322
433.190; 5198.791; 5165.022;   46.897
433.782; 4595.311; 4558.587;   41.069
434.373; 7183.962; 7136.306;   48.778
434.964; 4820.100; 4799.398;   50.078
435.556; 5113.338; 5104.428;   52.381
436.147; 6175.580; 6134.034;   38.251
436.738; 5660.332; 5644.065;   47.237
437.329; 5791.103; 5767.012;   61.304
437.920; 5331.259; 5283.781;   48.611
438.511; 4496.504; 4484.836;   44.910
439.103; 4979.290; 4948.235;   62.404
439.694; 5464.762; 5438.619;   63.075
440.285; 5966.069; 5937.420;   61.033
440.876; 6911.252; 6875.643;   57.249
441.466; 4529.500; 4531.124;   61.306
442.057; 5272.241; 5215.991;   65.773
442.648; 6059.041; 5976.379;   65.676
443.239; 4954.821; 4920.651;   55.963
443.830; 5610.186; 5610.384;   69.631
444.421; 5176.451; 5137.718;   69.943
445.011; 5521.121; 5510.426;   72.791
445.602; 5927.172; 5907.933;   68.848
446.193; 3752.354; 3709.493;   80.044
446.783; 4939.543; 4895.904;   82.599
447.374; 5433.414; 5405.238;   77.419
447.964; 5681.720; 5641.364;   72.605
448.555; 6506.223; 6454.327;   82.041
449.145; 5182.275; 5148.146;   76.230
449.736; 6370.910; 6313.438;   75.545
450.326; 5627.079; 5572.809;   67.945
450.917; 5257.164; 5214.044;   77.598
451.507; 4640.699; 4629.224;   68.027
452.097; 5897.375; 5859.108;   67.771
452.688; 5778.981; 5714.359;   62.884
453.278; 4225.174; 4175.920;   65.512
453.868; 6278.529; 6226.240;   71.796
454.458; 5049.540; 4998.066;   60.956
455.048; 5533.996; 5505.911;   62.356
455.639; 4301.474; 4270.608;   58.782
456.229; 5479.212; 5442.075;   65.209
456.819; 5776.208; 5737.538;   61.466
457.409; 6022.295; 5988.460;   59.967
457.999; 5642.122; 5608.689;   58.093
458.589; 5177.587; 5144.935;   59.536
459.179; 5510.801; 5490.749;   55.994
459.769; 4744.646; 4700.417;   43.624
460.358; 6117.243; 6079.692;   46.978
460.948; 5230.808; 5199.387;   49.821
461.538; 4958.681; 4915.584;   54.678
462.128; 5026.512; 4979.425;   49.309
462.717; 5317.956; 5271.431;   52.774
463.307; 5296.200; 5279.012;   48.101
463.897; 4907.036; 4840.453;   45.606
464.486; 6467.598; 6435.799;   45.010
465.076; 5523.394; 5508.673;   45.519
465.666; 4777.873; 4710.358;   50.058
466.255; 5959.346; 5932.642;   44.463
466.845; 4871.404; 4845.475;   41.206
467.434; 5425.180; 5385.521;   44.847
468.023; 4790.863; 4736.857;   46.760
468.613; 5313.388; 5274.485;   39.736
469.202; 4693.687; 4667.222;   46.461
469.791; 5394.580; 5351.184;   47.944
470.381; 5400.063; 5350.895;   47.529
470.970; 5169.090; 5136.348;   43.773
471.559; 5428.876; 5390.396;   41.646
472.148; 4823.452; 4762.518;   37.914
472.738; 5533.062; 5495.057;   48.071
473.327; 4484.917; 4456.801;   47.871
473.916; 5356.773; 5287.146;   37.716
474.505; 5413.683; 5393.509;   40.256
475.094; 5916.772; 5865.358;   43.269
475.683; 5758.086; 5701.447;   36.499
476.272; 5189.783; 5158.572;   44.542
476.861; 4933.427; 4900.277;   42.297
477.449; 5085.192; 5016.748;   46.878
478.038; 4778.407; 4744.075;   35.156
478.627; 4984.390; 4943.110;   42.514
479.216; 5366.810; 5325.338;   43.937
479.805; 5453.733; 5371.653;   51.393
480.393; 7366.568; 7300.708;   53.239
480.982; 6263.627; 6238.065;   38.955
481.571; 6080.244; 6005.705;   45.436
482.159; 4680.333; 4618.991;   51.007
482.748; 5674.854; 5641.481;   49.695
483.336; 5910.696; 5872.924;   48.280
483.925; 5075.982; 4993.409;   47.166
484.513; 5009.226; 4970.040;   55.404
485.102; 5418.520; 5368.277;   54.238
485.690; 7072.109; 7009.038;   55.748
486.278; 6806.585; 6745.635;   55.934
486.867; 5262.423; 5215.002;   57.106
487.455; 5988.047; 5939.843;   56.979
488.043; 4665.654; 4629.218;   57.564
488.631; 6804.512; 6732.188;   57.432
489.220; 5942.650; 5888.118;   63.646
489.808; 4487.620; 4399.126;   65.449
490.396; 5904.988; 5816.073;   61.977
490.984; 4990.016; 4951.264;   68.834
491.572; 5880.616; 5823.526;   70.775
492.160; 5539.354; 5484.568;   67.564
492.748; 5120.720; 5103.664;   66.808
493.336; 5960.867; 5918.320;   79.747
493.924; 5130.243; 5054.267;   88.688
494.512; 5870.785; 5817.397;   84.120
495.100; 5723.530; 5691.016;   86.250
495.687; 6093.212; 6014.601;  103.074
496.275; 4938.733; 4878.941;  108.717
496.863; 5154.088; 5065.160;  107.035
497.451; 5101.309; 5034.038;  117.993
498.038; 5351.767; 5313.558;  120.116
498.626; 5137.326; 5086.890;  143.059
499.214; 5519.585; 5471.485;  153.434
499.801; 5380.371; 5322.221;  175.121
500.389; 4414.777; 4364.446;  185.617
500.976; 5609.522; 5544.377;  215.789
501.564; 5425.102; 5330.850;  240.321
502.151; 3920.064; 3852.220;  267.007
502.738; 5075.191; 5027.823;  317.961
503.326; 5205.336; 5129.429;  361.216
503.913; 5420.736; 5378.604;  401.433
504.500; 5598.099; 5530.499;  446.492
505.088; 4762.557; 4710.506;  512.063
505.675; 5217.419; 5123.102;  586.387
506.262; 5155.588; 5085.023;  671.021
506.849; 5301.178; 5209.396;  759.062
507.436; 5987.905; 5891.975;  849.788
508.023; 5260.329; 5196.791;  944.288
508.610; 5849.595; 5784.424; 1020.690
509.197; 5644.265; 5582.570; 1089.052
509.784; 5287.564; 5220.757; 1133.776
510.371; 4426.356; 4366.182; 1165.501
510.958; 5419.626; 5338.453; 1251.735
511.545; 6229.471; 6150.146; 1350.248
512.132; 5285.377; 5223.521; 1525.945
512.719; 4749.437; 4663.104; 1834.933
513.305; 4897.995; 4822.911; 1965.349
513.892; 6150.378; 6074.784; 1963.265
514.479; 5405.750; 5352.118; 2046.446
515.066; 5921.402; 5865.174; 2252.803
515.652; 5406.937; 5316.741; 2567.247
516.239; 5751.530; 5688.453; 2636.919
516.825; 4498.257; 4440.519; 2482.304
517.412; 6647.664; 6569.657; 2427.031
517.998; 5190.881; 5124.672; 2540.463
518.585; 5108.964; 5041.720; 2609.007
519.171; 5448.343; 5357.517; 2842.088
519.758; 4599.646; 4527.980; 3090.703
520.344; 5866.064; 5801.957; 3176.076
520.930; 4726.023; 4660.865; 3295.037
521.516; 5662.195; 5568.661; 3500.959
522.103; 6187.026; 6109.140; 3736.704
522.689; 5137.682; 5046.509; 3971.022
523.275; 6013.361; 5921.020; 4213.778
523.861; 5219.747; 5141.817; 4190.361
524.447; 6007.698; 5895.449; 4070.602
525.033; 6049.723; 5969.365; 4088.892
525.619; 4912.492; 4824.573; 4416.851
526.205; 4597.495; 4522.824; 4836.835
526.791; 5169.108; 5080.638; 4885.903
527.377; 4955.126; 4886.777; 4544.907
527.963; 5439.268; 5357.608; 4321.995
528.549; 5525.041; 5471.029; 4473.979
529.135; 4853.488; 4799.785; 4788.663
529.721; 5367.206; 5289.275; 4888.577
530.306; 7229.740; 7149.079; 4775.779
530.892; 5137.585; 5035.210; 4793.906
531.478; 5004.616; 4910.001; 4956.948
532.063; 4758.913; 4698.426; 5136.936
532.649; 6568.806; 6475.575; 5336.867
533.235; 4794.947; 4710.380; 5748.092
533.820; 6097.567; 6033.095; 6456.875
534.406; 5229.375; 5133.546; 6590.167
534.991; 4833.451; 4744.730; 6179.622
535.576; 5247.230; 5152.528; 6098.691
536.162; 7264.178; 7175.622; 6441.234
536.747; 4555.996; 4500.724; 6816.224
537.333; 4873.782; 4772.972; 6889.752
537.918; 5298.651; 5181.318; 7154.280
538.503; 4951.909; 4867.438; 7150.848
539.088; 5534.775; 5444.059; 7253.308
539.673; 5076.682; 5018.697; 7625.180
540.259; 4928.978; 4832.009; 8226.793
540.844; 4338.123; 4250.265; 8745.092
541.429; 6435.068; 6360.395; 8762.553
542.014; 4522.583; 4420.172; 8871.497
542.599; 5512.820; 5417.014; 8886.008
543.184; 4668.451; 4561.306; 9079.139
543.769; 4938.786; 4844.123; 9076.182
544.354; 5117.961; 4998.507; 8354.081
544.938; 5507.730; 5396.553; 8236.809
545.523; 6428.316; 6326.764; 8222.179
546.108; 5279.648; 5217.730; 8114.082
546.693; 5252.055; 5178.206; 8535.912
547.278; 5243.368; 5181.683; 9238.322
547.862; 5256.392; 5151.523; 9034.405
548.447; 5912.951; 5833.480; 7795.011
549.031; 5091.748; 5019.655; 7485.099
549.616; 5481.806; 5383.887; 7626.308
550.201; 4954.654; 4859.369; 7627.909
550.785; 5710.382; 5618.947; 7859.125
551.370; 4630.810; 4519.063; 7990.654
551.954; 5881.117; 5785.114; 8196.468
552.538; 5779.630; 5663.715; 7959.495
553.123; 4936.399; 4862.699; 7964.826
553.707; 5138.486; 5038.385; 8515.957
554.291; 6168.358; 6054.031; 8724.024
554.876; 5823.513; 5747.388; 8524.211
555.460; 4946.283; 4892.509; 8704.456
556.044; 4915.452; 4828.855; 9141.473
556.628; 5293.976; 5202.608; 9250.197
557.212; 6056.485; 5944.873; 9444.237
557.796; 5166.852; 5082.906; 9379.783
558.380; 5564.435; 5466.216; 9353.658
558.964; 5400.541; 5321.742; 9210.310
559.548; 4562.075; 4477.608; 8475.153
560.132; 5088.424; 4982.252; 7954.084
560.716; 4694.725; 4593.302; 7489.529
561.300; 4620.889; 4507.485; 7211.952
561.884; 5712.124; 5581.377; 7141.313
562.467; 5651.090; 5549.185; 7155.386
563.051; 5301.511; 5185.900; 7323.158
563.635; 5239.890; 5099.010; 7709.114
564.219; 5293.996; 5166.236; 7678.855
564.802; 5639.814; 5563.201; 7376.187
565.386; 5397.373; 5259.096; 7054.372
565.969; 6188.472; 6057.083; 6589.196
566.553; 6773.762; 6654.257; 6279.371
567.136; 6104.018; 5988.439; 5967.930
567.720; 5393.542; 5255.929; 5660.703
568.303; 5589.838; 5455.691; 5648.615
568.887; 5423.569; 5286.245; 5618.443
569.470; 5583.042; 5440.454; 5411.875
570.053; 5829.887; 5667.810; 5149.274
570.637; 4955.931; 4787.553; 5122.798
571.220; 5892.589; 5681.210; 4957.369
571.803; 6822.808; 6635.300; 4933.018
572.386; 5250.307; 5055.450; 4840.973
572.969; 5265.734; 5062.691; 4592.886
573.552; 5393.583; 5157.522; 4348.387
574.135; 4854.814; 4658.188; 4002.290
574.718; 5074.776; 4835.171; 3654.773
575.301; 5083.002; 4821.937; 3502.288
575.884; 5091.228; 4808.703; 3349.803
576.467; 6220.842; 5951.329; 3191.403
577.050; 5778.114; 5439.763; 3062.418
577.633; 6869.958; 6480.844; 3214.200
578.216; 5493.842; 5073.692; 3284.889
578.799; 5540.677; 5071.508; 3189.777
579.381; 7212.611; 6697.000; 3064.502
579.964; 5393.486; 4809.335; 2888.357
580.547; 5977.187; 5371.672; 2905.760
581.129; 6837.146; 6197.255; 2966.849
581.712; 6249.967; 5529.845; 2887.292
582.294; 6094.721; 5301.864; 2771.631
582.877; 7640.118; 6756.813; 2711.602
583.459; 6229.032; 5236.528; 2577.049
584.042; 6243.729; 5150.640; 2454.707
584.624; 5980.529; 4768.103; 2305.893
585.206; 5460.169; 4114.883; 2189.546
585.789; 6416.325; 4948.339; 2112.577
586.371; 7090.191; 5531.035; 2153.065
586.953; 7318.611; 5740.188; 2197.806
587.536; 7862.242; 6109.292; 2105.489
588.118; 7095.964; 5140.732; 1963.911
588.700; 8395.760; 6115.244; 1843.179
589.282; 8167.874; 5567.221; 1813.834
589.864; 8249.528; 5353.828; 1777.620
590.446; 7485.001; 4281.861; 1733.780
591.028; 8867.395; 5306.373; 1676.008
591.610; 8038.239; 4363.441; 1631.649
592.192; 9135.122; 5368.327; 1632.362
592.774; 8612.978; 4705.171; 1569.507
593.356; 9173.795; 4906.636; 1524.539
593.937; 9580.474; 4876.733; 1569.720
594.519;10895.977; 5891.684; 1569.049
595.101; 9903.771; 4415.508; 1545.452
595.683;11004.912; 4950.863; 1607.568
596.264;11873.873; 5184.795; 1615.506
596.846;12146.532; 5034.453; 1667.622
597.427;12387.592; 4882.123; 1670.469
598.009;12932.926; 4818.189; 1640.312
598.591;14213.363; 5743.932; 1541.022
599.172;13881.622; 5070.064; 1598.665
599.753;13945.029; 4544.065; 1619.068
600.335;15826.975; 6136.621; 1548.612
600.916;15258.085; 5220.222; 1607.510
601.498;16237.226; 5512.527; 1745.181
602.079;17067.303; 5267.174; 1801.011
602.660;17833.568; 5161.532; 1834.640
603.241;17497.836; 4183.903; 1787.351
603.823;18486.309; 4952.837; 1684.266
604.404;18137.029; 4586.540; 1654.241
604.985;18503.984; 4963.834; 1758.741
605.566;19810.922; 5787.352; 1697.679
606.147;20213.641; 5119.091; 1526.728
606.728;20812.822; 4563.777; 1484.086
607.309;22140.195; 4904.498; 1421.070
607.890;22134.488; 4984.097; 1369.867
608.471;22443.344; 4801.079; 1277.826
609.051;23523.162; 5385.582; 1180.416
609.632;24045.207; 4723.337; 1075.816
610.213;26094.875; 5155.071; 1053.313
610.794;26886.178; 4975.971;  979.442
611.374;27844.586; 5465.109;  917.414
611.955;27191.641; 4470.179;  819.987
612.536;29234.568; 5384.845;  752.627
613.116;29913.074; 4959.033;  690.799
613.697;29709.320; 4885.601;  674.974
614.277;29481.158; 4738.818;  663.846
614.858;29089.613; 4877.575;  665.898
615.438;28619.844; 5227.542;  660.712
616.019;29056.096; 6137.323;  632.732
616.599;27269.348; 4113.567;  551.759
617.179;29210.975; 4594.608;  512.871
617.760;32527.523; 6911.514;  473.655
618.340;30631.934; 5155.940;  440.004
618.920;32310.586; 6328.034;  429.731
619.500;32199.725; 5015.039;  441.361
620.080;31813.807; 4725.700;  425.202
620.660;32096.568; 4711.282;  408.164
621.241;33060.398; 5022.023;  387.161
621.821;34212.418; 5282.726;  378.017
622.401;34163.113; 5863.925;  379.188
622.980;32180.568; 4482.932;  350.019
623.560;32513.883; 5026.484;  336.446
624.140;31686.059; 5298.343;  336.473
624.720;30314.113; 5462.688;  334.974
625.300;29248.793; 4728.110;  325.717
625.880;29911.100; 5147.411;  308.519
626.459;31893.311; 5201.913;  307.117
627.039;32487.766; 4350.832;  290.890
627.619;36276.121; 6638.576;  286.635
628.198;36525.473; 5951.995;  282.535
628.778;37002.715; 5586.238;  285.474
629.357;34839.922; 4542.902;  284.103
629.937;34326.699; 4978.398;  292.178
630.516;35922.457; 6239.056;  290.749
631.096;34641.898; 4804.599;  285.489
631.675;35513.406; 6131.162;  287.022
632.254;34132.805; 4798.861;  286.038
632.834;33461.578; 5153.383;  276.451
633.413;33983.461; 6110.794;  279.447
633.992;33230.047; 5855.117;  264.508
634.571;33142.773; 5609.308;  271.010
635.151;33802.941; 4691.204;  277.338
635.730;34475.152; 5087.243;  289.305
636.309;34603.055; 5521.918;  285.306
636.888;34312.949; 5605.305;  254.051
637.467;31837.865; 4264.982;  230.324
638.046;33577.996; 6252.648;  253.349
638.625;32901.074; 6001.558;  246.866
639.204;32445.152; 5370.055;  240.825
639.782;33573.645; 5208.692;  261.970
640.361;33788.051; 6048.680;  277.780
640.940;32423.855; 4878.755;  270.101
641.519;32393.660; 5450.881;  248.622
642.097;33101.164; 5568.007;  239.843
642.676;33342.770; 5261.282;  244.264
643.255;33328.973; 5050.108;  234.985
643.833;35239.379; 5615.533;  244.406
644.412;35071.184; 4987.809;  244.927
644.990;35112.688; 5280.984;  249.948
645.569;35132.594; 5544.160;  249.569
646.147;35245.598; 5836.085;  243.290
646.726;33656.801; 5366.811;  249.511
647.304;33088.805; 4997.137;  228.032
647.882;31053.609; 4258.813;  214.552
648.461;31423.514; 5371.288;  214.973
649.039;32090.818; 5608.514;  223.394
649.617;31869.023; 5628.339;  261.415
650.195;31740.629; 5371.365;  298.736
650.773;31440.332; 4960.740;  309.557
651.352;30493.338; 4143.216;  297.978
651.930;29296.342; 4130.991;  289.399
652.508;30950.146; 5723.267;  285.620
653.086;30307.852; 5507.692;  272.241
653.663;29195.156; 4796.918;  265.062
654.241;28780.561; 4490.293;  286.083
654.819;29722.764; 4615.369;  286.404
655.397;31134.568; 4690.295;  291.825
655.975;32306.574; 5048.920;  299.145
656.553;33726.680; 6218.846;  288.866
657.130;32191.883; 4657.571;  304.087
657.708;31598.787; 5433.847;  302.908
658.286;31050.891; 5296.923;  294.629
658.863;31666.695; 5324.798;  293.350
659.441;31643.602; 5389.874;  318.671
660.018;30150.506; 5097.750;  333.692
660.596;29066.910; 4200.725;  335.013
661.173;29692.613; 4901.000;  371.534
661.750;29329.318; 4702.626;  365.155
662.328;30636.723; 5587.202;  349.976
662.905;29130.027; 4940.777;  332.997
663.482;28514.432; 5083.353;  321.717
664.060;28476.637; 4771.229;  314.438
664.637;29359.041; 5588.704;  306.259
665.214;29911.346; 5335.729;  314.580
665.791;29945.250; 5032.305;  334.501
666.368;29726.555; 4959.781;  329.222
666.945;30908.160; 5684.906;  342.143
667.522;30261.264; 4717.682;  370.964
668.099;30854.770; 5091.607;  396.885
668.676;30502.373; 5118.883;  391.706
669.253;31454.277; 6240.458;  369.627
669.830;30821.283; 6020.684;  360.348
670.407;30324.986; 5106.160;  344.769
670.984;30681.391; 5086.335;  322.890
671.560;30678.996; 5574.311;  316.910
672.137;29570.600; 4961.736;  322.531
672.714;30172.805; 5467.362;  318.552
673.290;30706.809; 5373.288;  324.473
673.867;30964.814; 4833.513;  340.594
674.443;31047.818; 4531.489;  319.515
675.020;31332.623; 5309.114;  286.336
675.596;30114.027; 5018.040;  247.557
676.173;29706.531; 4451.815;  227.778
676.749;29755.736; 3922.141;  224.399
677.326;30827.842; 4368.667;  230.520
677.902;32068.945; 4774.042;  241.841
678.478;32955.250; 4461.667;  239.762
679.054;36371.754; 7564.293;  248.583
679.631;33004.258; 5430.918;  237.503
680.207;33233.266; 6464.444;  245.924
680.783;30948.668; 4093.020;  224.845
681.359;33176.273; 5083.095;  209.666
681.935;34200.879; 5235.421;  191.687
682.511;33975.781; 5215.347;  210.008
683.087;33168.887; 5486.172;  213.329
683.663;32048.990; 4989.798;  216.850
684.239;31588.396; 4471.173;  229.471
684.815;33683.898; 5717.749;  248.792
685.390;34248.305; 6583.324;  231.813
685.966;32204.510; 5212.300;  221.234
686.542;32379.314; 4601.525;  214.255
687.118;34630.520; 5305.601;  212.276
687.693;35226.723; 5532.626;  233.096
688.269;34493.727; 5006.652;  246.917
688.844;34943.434; 5451.178;  236.938
689.420;33851.438; 5201.003;  242.059
689.995;33996.539; 6343.929;  245.480
690.571;33487.344; 6073.555;  244.701
691.146;32930.648; 4956.180;  251.922
691.722;34073.055; 5407.605;  284.743
692.297;34216.859; 4926.881;  320.664
692.872;34691.563; 4713.607;  313.885
693.448;34654.270; 4582.982;  290.106
694.023;36466.574; 5245.058;  304.327
694.598;37435.977; 5270.083;  319.648
695.173;34979.082; 4924.559;  323.169
695.748;32179.387; 4215.834;  376.389
696.323;32454.490; 5105.660;  397.610
696.898;33965.195; 5950.936;  430.231
697.473;32820.398; 4299.711;  454.952
698.048;35257.703; 4971.887;  478.973
698.623;35839.910; 4452.513;  477.094
699.198;36489.414; 5220.988;  496.915
699.773;36051.617; 4741.614;  490.236
700.348;35623.023; 4612.189;  519.957
700.922;36873.426; 5259.115;  575.678
701.497;37192.332; 5148.090;  621.399
702.072;37155.734; 5743.716;  664.420
702.646;36343.242; 5594.742;  690.541
703.221;35180.145; 5313.967;  748.862
703.795;33672.449; 4632.393;  774.282
704.370;32280.754; 3778.718;  799.803
704.944;33418.160; 4895.394;  875.824
705.519;35154.965; 5308.319;  902.945
706.093;35535.668; 4681.495;  889.266
706.668;35985.973; 5455.021;  903.487
707.242;36461.875; 5654.146;  881.708
707.816;35492.883; 4947.872;  892.329
708.390;34978.086; 5124.697;  970.250
708.965;34382.992; 5301.323;  984.671
709.539;34172.594; 4990.148; 1026.092
710.113;34485.102; 5207.074; 1067.913
710.687;34202.703; 5640.149; 1166.434
711.261;32558.209; 4559.725; 1190.854
711.835;33221.914; 4612.951; 1197.275
712.409;34300.219; 4253.726; 1308.096
712.983;34228.824; 4290.602; 1461.617
713.557;34118.328; 4282.777; 1611.838
714.131;34212.633; 5013.153; 1554.359
714.704;32906.035; 4634.329; 1520.780
715.278;34382.340; 5144.154; 1575.101
715.852;35492.344; 5585.030; 1689.822
716.425;36378.250; 6407.255; 1829.143
716.999;33584.453; 4212.281; 2008.664
717.573;34230.359; 5429.156; 2000.485
718.146;35180.063; 6262.982; 1914.506
718.720;35715.270; 5259.257; 1818.026
719.293;37085.371; 5467.333; 1734.147
719.867;36115.477; 4764.059; 1716.968
720.440;37467.582; 6015.034; 1918.589
721.013;36223.086; 4811.760; 1975.410
721.587;34774.891; 4299.285; 2073.331
722.160;35122.293; 5726.411; 2357.852
722.733;33865.199; 5173.437; 2657.073
723.306;32952.504; 5141.112; 2703.894
723.880;32447.008; 5249.688; 2549.415
724.453;33553.414; 5992.313; 2414.336
725.026;32529.518; 4835.539; 2298.557
725.599;32947.422; 5329.164; 2168.778
726.172;32234.426; 5443.940; 2106.099
726.745;32413.631; 5378.465; 2253.320
727.318;33565.035; 5725.491; 2404.740
727.891;34289.441; 5322.967; 2680.161
728.463;33680.543; 5295.292; 2838.882
729.036;32068.648; 4689.868; 2755.103
729.609;31901.953; 4626.493; 2731.824
730.182;33718.660; 5631.519; 2855.645
730.754;32992.461; 3903.344; 2946.866
731.327;34469.668; 5446.720; 2840.187
731.900;33078.871; 4321.945; 2647.608
732.472;34227.277; 5046.071; 2473.929
733.045;36059.180; 4950.497; 2445.750
733.617;34586.984; 4246.672; 2511.771
734.190;35001.691; 5419.898; 2581.592
734.762;34729.594; 5102.974; 2710.813
735.334;35320.199; 5176.299; 3005.733
735.907;35104.105; 5168.075; 3154.954
736.479;35771.406; 5842.250; 3171.675
737.051;35280.313; 5445.776; 3217.496
737.623;35973.918; 5507.851; 3246.217
738.195;34935.922; 4769.227; 2985.238
738.768;33370.125; 4023.802; 2727.559
739.340;34338.629; 4860.628; 2666.880
739.912;34271.137; 5603.554; 2769.601
740.484;33313.738; 5436.879; 2731.422
741.056;33059.246; 4970.305; 2963.043
741.628;33306.348; 4624.780; 3361.364
742.199;34293.453; 5959.956; 3641.185
742.771;33331.059; 4440.481; 3932.005
743.343;34491.961; 4653.057; 4319.926
743.915;34992.867; 5345.033; 4706.647
744.487;35674.172; 5489.258; 4874.968
745.058;36264.977; 5553.984; 4616.589
745.630;36083.082; 5518.659; 4253.410
746.201;35374.887; 4827.835; 4056.131
746.773;35551.590; 5459.160; 3772.952
747.344;35059.195; 5104.136; 3642.473
747.916;34414.598; 5270.111; 3752.294
748.487;34934.203; 5635.887; 4106.215
749.059;34361.008; 4506.013; 4457.835
749.630;34394.512; 4721.138; 4366.457
750.201;35051.816; 5102.164; 4600.078
750.773;34235.320; 4777.889; 4658.499
751.344;34442.824; 5161.865; 4609.319
751.915;34095.129; 5092.241; 4526.440
752.486;34061.234; 4694.116; 4536.061
753.057;34607.641; 5222.992; 4383.282
753.628;34608.445; 4686.817; 4296.503
754.199;35642.648; 4885.593; 4383.224
754.770;36681.352; 5480.368; 4653.545
755.341;35696.059; 5749.894; 4831.666
755.912;34089.063; 4999.419; 4831.387
756.483;34431.668; 5448.545; 4735.808
757.054;32822.973; 4883.271; 4685.029
757.625;31541.875; 4503.046; 4994.250
758.195;32808.680; 4325.572; 5051.471
758.766;34058.586; 5270.748; 5317.792
759.337;32654.889; 4280.773; 5646.512
759.907;32127.193; 4342.999; 5404.133
760.478;32834.398; 4789.124; 5090.954
761.048;33533.902; 5493.399; 4871.175
761.619;32994.707; 5362.475; 4589.396
762.189;33670.813; 5069.951; 4171.317
762.760;33166.918; 5565.626; 3872.538
763.330;32871.223; 5503.752; 3832.259
763.900;32786.426; 5284.328; 4150.180
764.471;31797.830; 4638.003; 4529.801
765.041;32474.635; 5847.179; 4715.922
765.611;32206.139; 5437.304; 4681.442
766.181;31967.043; 5039.780; 4717.063
766.751;32648.348; 5119.005; 4710.285
767.321;32316.652; 4448.131; 4450.305
767.891;32125.357; 5204.557; 4274.126
768.461;31635.762; 5037.032; 4215.047
769.031;31827.266; 5077.508; 4173.068
769.601;32742.672; 5778.733; 4174.689
770.171;31092.977; 4328.109; 4229.310
770.741;30899.381; 4911.034; 4352.031
771.311;31214.984; 5448.910; 4336.652
771.880;30679.389; 4618.485; 4300.873
772.450;30957.693; 4677.311; 4387.194
773.020;30873.199; 4289.887; 4220.415
773.589;31067.604; 4754.562; 4075.835
774.159;30806.508; 4800.438; 4105.756
774.729;30671.213; 4720.813; 4114.978
775.298;30645.617; 4759.439; 3693.298
775.867;31004.521; 4757.714; 3343.119
776.437;31862.426; 5131.040; 3062.040
777.006;30722.131; 4302.866; 2927.161
777.576;31094.234; 5446.941; 3046.482
778.145;30181.539; 5370.917; 3230.203
778.714;29276.443; 5031.542; 3253.324
779.283;29474.148; 5439.118; 3129.745
779.853;29600.354; 5058.943; 2983.566
780.422;30950.158; 5060.219; 2929.887
780.991;31260.262; 5386.495; 2863.908
781.560;31146.066; 5965.070; 2948.029
782.129;30291.971; 5295.696; 3074.149
782.698;30437.076; 5900.921; 2893.970
783.267;29506.381; 4729.297; 2721.391
783.836;30277.184; 5276.172; 2659.712
784.404;29108.889; 4461.098; 2622.233
784.973;28092.994; 3851.023; 2600.754
785.542;28830.098; 5026.349; 2528.475
786.111;30411.303; 5830.775; 2404.396
786.679;29949.707; 5452.550; 2365.717
787.248;27437.313; 4330.676; 2498.438
787.817;27051.316; 4810.651; 2645.659
788.385;28418.521; 5724.877; 2709.280
788.954;27306.725; 4367.553; 2620.500
789.522;27827.629; 5565.378; 2625.422
790.090;26970.834; 4385.804; 2743.843
790.659;28034.639; 4865.079; 2635.163
791.227;28847.244; 4976.205; 2495.484
791.795;29376.447; 5255.430; 2413.705
792.364;28350.752; 4543.306; 2345.326
792.932;28520.258; 5377.682; 2350.447
793.500;27559.461; 4911.007; 2429.768
794.068;26533.865; 4323.183; 2513.589
794.636;26709.170; 4670.558; 2664.310
795.204;26587.975; 4202.534; 2721.431
795.772;27323.080; 4632.659; 2802.052
796.340;27477.385; 4759.435; 2847.173
796.908;26474.389; 4206.960; 2997.194
797.476;26538.793; 4502.336; 3151.615
798.044;26077.098; 4136.012; 3110.735
798.612;27151.002; 4980.737; 2931.656
799.180;27179.307; 5133.313; 2785.777
799.747;26248.012; 5083.138; 2899.098
800.315;24803.816; 4392.014; 2955.519
800.883;24928.221; 4061.490; 2948.940
801.450;26299.025; 5018.665; 2965.361
802.018;27475.529; 5292.940; 3070.582
802.585;26614.734; 5054.666; 3156.103
803.153;25971.139; 4664.492; 3199.524
803.720;25684.844; 4707.517; 3168.845
804.287;25975.248; 4887.243; 3248.366
804.855;27652.152; 5659.468; 3406.187
805.422;26948.656; 4918.644; 3430.907
805.989;25609.662; 4588.070; 3453.528
806.556;24872.965; 4591.795; 3612.649
807.124;26483.770; 5564.021; 3736.570
807.691;25318.375; 4479.996; 3770.491
808.258;26036.279; 5059.472; 3705.012
808.825;25878.684; 5589.797; 3828.733
809.392;25601.889; 5972.673; 3986.754
809.959;25160.992; 5256.549; 4410.075
810.526;25948.998; 6019.674; 4774.996
811.093;25531.902; 5721.400; 4754.217
811.659;25014.807; 5003.125; 4661.238
812.226;25140.412; 4971.901; 4672.559
812.793;25486.516; 5206.876; 4822.979
813.360;25316.020; 4989.102; 5189.800
813.926;26190.525; 5258.478; 5310.622
814.493;24921.430; 4367.403; 5414.542
815.060;24244.434; 4104.079; 5548.963
815.626;24330.238; 4424.154; 5452.284
816.193;25149.242; 5153.030; 5339.305
816.759;23893.248; 4596.655; 5544.426
817.325;23038.152; 4107.481; 5706.547
817.892;24094.357; 5512.756; 5623.468
818.458;23826.961; 5284.882; 5586.689
819.024;24329.566; 5746.008; 5647.910
819.591;24031.869; 5041.883; 5762.031
820.157;24012.475; 4388.759; 6284.452
820.723;24795.479; 5277.134; 6906.973
821.289;26711.283; 7644.560; 7086.894
821.855;24489.688; 5422.386; 7054.915
822.421;23998.492; 4781.211; 7112.035
822.987;23437.697; 4474.437; 7256.156
823.553;22894.803; 4880.512; 7538.077
824.119;22451.807; 5598.288; 7594.298
824.685;22019.012; 5809.763; 7613.619
825.251;21953.416; 5485.439; 7644.140
825.816;23009.221; 6152.064; 7720.261
826.382;22048.324; 5462.590; 8014.282
826.948;22497.529; 5587.666; 8281.503
827.513;21402.033; 4939.641; 8289.624
828.079;20681.539; 4576.167; 8587.045
828.645;22053.443; 5236.742; 8821.865
829.210;21595.447; 4476.118; 9054.486
829.776;21887.752; 5393.894; 9054.607
830.341;21571.957; 5571.819; 9415.628
830.906;21221.361; 5734.745; 9932.449
831.472;19963.865; 4652.970;10150.271
832.037;21160.369; 5600.096; 9420.391
832.602;20698.375; 4780.071; 8664.912
833.167;21270.379; 5128.247; 8491.933
833.733;21564.684; 5597.522; 8872.854
834.298;20259.287; 4517.298; 9370.575
834.863;20400.092; 5262.974; 9610.695
835.428;19538.496; 5239.899; 9655.616
835.993;19856.002; 5386.875; 9437.838
836.558;20405.207; 5484.250; 9441.459
837.123;21814.211; 6723.426; 9600.979
837.688;20817.115; 5300.852; 9798.301
838.253;20821.719; 5286.427; 9902.921
838.817;20096.023; 4945.703;10339.742
839.382;20407.629; 5909.928;10548.363
839.947;19385.334; 5175.404;10252.484
840.511;19866.537; 6070.330;10040.005
841.076;17503.043; 4079.655;10099.926
841.641;18610.547; 5452.181;10347.347
842.205;18201.951; 5323.656;10817.368
842.770;18842.656; 6296.932;11435.289
843.334;17700.861; 5019.107;12072.409
843.898;16914.664; 4823.783;12635.431
844.463;17698.969; 5928.008;12537.252
845.027;16704.975; 4890.584;12759.673
845.591;17399.279; 5662.259;12821.993
846.156;17070.684; 4826.035;12520.914
846.720;17599.287; 5556.960;12390.436
847.284;16832.893; 5252.386;12956.456
847.848;16806.797; 5441.262;13240.177
848.412;16105.901; 5169.087;13216.998
848.976;16635.705; 6061.613;13014.619
849.540;16590.510; 6527.588;12355.740
850.104;15981.115; 5991.064;12208.761
850.668;14362.720; 4184.590;12106.882
851.232;14647.224; 4307.315;11862.103
851.796;15407.729; 5074.941;11700.523
852.359;15640.633; 5627.167;12375.944
852.923;15899.737; 5804.642;13087.966
853.487;15743.643; 5520.167;13297.187
854.050;13830.847; 3571.143;13851.207
854.614;15059.852; 4908.619;14854.229
855.177;15315.456; 5336.494;15802.149
855.741;14998.561; 5383.170;16603.570
856.304;14965.564; 5697.095;16359.891
856.868;13498.369; 4635.771;14365.512
857.431;14051.174; 5137.597;13361.333
857.995;13631.878; 4962.522;14130.554
858.558;13580.383; 5337.897;14883.175
859.121;13736.388; 5622.773;15754.195
859.684;13050.292; 5279.549;15995.017
860.247;13013.797; 5129.674;15149.537
860.810;12816.701; 4926.800;14640.358
861.374;14273.905; 6596.625;15551.079
861.937;12008.410; 4535.751;16519.801
862.500;12231.515; 4851.626;16796.521
863.062;11903.919; 4611.952;16538.742
863.625;12628.023; 5352.228;16716.764
864.188;12208.929; 4892.903;17055.084
864.751;11966.633; 4850.029;17197.705
865.314;12515.438; 5205.104;17151.625
865.876;13161.042; 5766.130;17783.547
866.439;12681.146; 5567.105;19283.467
867.002;13512.451; 6460.231;20256.389
867.564;13164.556; 5861.807;20485.410
868.127;12208.660; 5149.032;20789.730
868.689;11923.265; 5392.908;21981.951
869.252;12147.270; 5834.233;23803.771
869.814;11029.174; 4718.109;24974.094
870.377;11455.878; 5351.635;24690.314
870.939;13303.583; 7392.760;23963.436
871.501;11263.387; 5303.736;25167.156
872.063; 9925.191; 3896.411;26995.477
872.626;10219.196; 4223.787;27443.098
873.188;10958.900; 5324.163;26718.418
873.750;10384.405; 5080.338;26558.840
874.312;10134.410; 4895.864;26701.561
874.874;11394.814; 6199.339;27970.582
875.436;10750.419; 5680.564;29173.402
875.998;10983.224; 6024.940;30376.623
876.560;10558.828; 5691.266;32507.344
877.122; 9537.933; 4768.292;34833.066
877.683;10164.438; 5575.017;36458.285
878.245; 9327.542; 4897.792;37248.207
878.807; 9682.346; 5480.068;36758.027
879.369; 8778.650; 4507.444;35223.551
879.930; 8917.556; 4623.719;33824.969
880.492;10397.359; 5949.395;34436.492
881.053; 9010.064; 4672.570;37745.313
881.615; 8926.568; 4868.146;41184.633
882.176; 8800.373; 5057.021;42871.555
882.738; 9242.078; 5618.397;41693.074
883.299; 7721.782; 4152.623;40289.895
883.860; 7869.687; 4284.748;39231.215
884.422; 9226.592; 5557.724;38264.039
884.983; 8127.296; 4626.299;37171.859
885.544; 8583.200; 5340.225;35842.379
886.105; 8233.905; 5211.150;34810.000
886.666; 7740.709; 4913.826;34519.020
887.227; 7072.214; 4302.852;33905.641
887.788; 8106.918; 5344.127;34502.965
888.349; 7141.923; 4439.103;34241.785
888.910; 8214.128; 5573.479;33722.203
889.471; 7825.632; 5316.104;32539.625
890.032; 7604.537; 5162.779;31528.346
890.593; 7931.042; 5543.855;32655.068
891.153; 7453.546; 5135.131;33882.289
891.714; 6600.950; 4414.606;33318.711
892.275; 6636.155; 4501.832;31848.930
892.835; 7802.959; 5723.458;30339.752
893.396; 7538.964; 5634.183;30074.973
893.956; 6835.369; 5032.409;30338.393
894.517; 7036.973; 5302.334;30864.113
895.077; 7069.578; 5403.359;29766.734
895.638; 7887.582; 6198.235;26379.557
896.198; 6152.287; 4584.511;24056.277
896.758; 7177.891; 5675.736;22961.898
897.319; 6539.896; 5074.512;21772.020
897.879; 6523.700; 5141.837;20877.539
898.439; 5686.105; 4307.613;19509.461
898.999; 6805.009; 5535.039;17297.582
899.559; 6679.014; 5431.164;14712.002
900.119; 5795.418; 4616.940;12790.224
900.679; 7296.823; 6113.965;11586.744
901.239; 6667.527; 5570.341;10776.465
901.799; 6284.532; 5233.517; 9691.687
902.359; 5654.836; 4687.342; 8725.907
902.919; 5592.941; 4621.167; 8305.728
903.479; 5625.545; 4659.443; 8172.649
904.038; 5407.050; 4449.169; 7913.870
904.598; 4810.155; 3875.344; 7262.291
905.158; 5745.259; 4863.920; 6609.012
905.717; 5935.864; 5072.996; 6236.133
906.277; 5998.868; 5162.421; 5829.054
906.836; 6261.273; 5462.646; 5396.674
907.396; 6156.277; 5392.572; 4964.195
907.955; 6192.682; 5429.648; 4528.917
908.515; 5677.586; 4933.723; 4223.837
909.074; 5746.991; 4988.649; 4023.958
909.633; 5745.996; 5010.174; 4065.379
910.192; 6941.500; 6207.950; 4066.300
910.752; 5683.100; 4959.600; 3971.600
911.311; 5593.000; 4865.850; 3839.600
911.870; 5405.000; 4688.450; 3684.500
912.429; 6483.600; 5783.650; 3635.600
912.988; 6347.500; 5661.550; 3689.800
913.547; 5290.200; 4605.900; 3737.700
914.106; 5889.000; 5258.100; 3740.300
914.665; 5862.100; 5208.000; 3604.600
915.224; 6400.900; 5768.550; 3358.700
915.782; 5513.100; 4839.550; 3188.400
916.341; 6598.500; 5962.050; 3091.400
916.900; 5550.300; 4909.900; 3044.800
917.458; 5297.600; 4651.400; 2888.600
918.017; 5812.700; 5178.650; 2818.900
918.576; 5560.200; 4931.300; 2838.600
919.134; 4924.100; 4303.950; 2880.100
919.693; 5504.900; 4873.500; 2996.300
920.251; 5405.100; 4780.050; 3183.100
920.809; 5102.200; 4494.900; 3247.000
921.368; 5434.000; 4778.200; 3156.600
921.926; 5222.200; 4589.350; 2964.900
922.484; 5731.800; 5097.850; 2846.300
923.042; 5541.800; 4926.600; 2890.400
923.601; 6581.100; 5921.450; 2987.700
924.159; 6039.200; 5421.100; 3049.800
924.717; 5208.800; 4566.750; 3087.000
925.275; 5734.000; 5131.200; 3093.400
925.833; 4717.700; 4094.750; 3182.400
926.391; 6043.700; 5383.850; 3397.900
926.949; 5434.900; 4799.250; 3575.400
927.506; 5816.000; 5168.150; 3713.400
928.064; 5536.800; 4871.550; 3871.300
928.622; 5631.500; 4950.850; 4092.800
929.180; 5074.700; 4394.550; 4499.300
929.737; 4962.800; 4262.150; 4813.200
930.295; 6005.300; 5342.700; 5084.100
930.853; 5274.800; 4611.400; 5185.000
931.410; 5040.000; 4362.650; 5313.100
931.968; 6143.300; 5435.750; 5339.600
932.525; 5727.400; 5058.050; 5399.900
933.082; 4995.800; 4274.850; 5457.500
933.640; 5941.000; 5255.400; 5692.900
934.197; 5583.400; 4870.600; 5821.200
934.754; 5590.100; 4870.050; 5617.900
935.312; 5337.300; 4606.400; 5512.400
935.869; 6618.200; 5887.300; 5582.400
936.426; 5353.300; 4637.950; 5650.100
936.983; 5521.500; 4807.450; 5657.400
937.540; 5051.600; 4325.550; 5564.300
938.097; 5959.200; 5211.850; 5574.000
938.654; 5478.600; 4733.500; 5665.900
939.211; 5963.600; 5207.750; 5931.600
939.768; 5715.800; 4927.300; 6153.600
940.324; 5576.600; 4788.500; 6397.600
940.881; 5330.300; 4588.100; 6454.200
941.438; 6500.000; 5707.300; 6206.900
941.995; 6272.100; 5495.300; 6003.900
942.551; 5108.500; 4355.850; 6228.300
943.108; 5681.600; 4900.450; 6603.500
943.664; 5160.500; 4401.000; 7188.100
944.221; 6978.300; 6214.550; 7579.900
944.777; 5108.300; 4352.050; 7658.100
945.334; 5223.900; 4460.300; 7670.400
945.890; 5742.600; 4974.650; 7525.100
946.446; 5766.300; 5010.250; 7261.500
947.003; 5904.800; 5163.700; 6949.200
947.559; 6723.400; 5954.200; 6773.100
948.115; 6349.300; 5645.200; 6668.400
948.671; 5886.100; 5137.900; 6488.400
949.227; 4933.300; 4193.750; 6236.600
949.783; 4838.300; 4117.050; 6008.900
950.339; 5946.000; 5242.800; 5934.100
950.895; 6290.200; 5574.850; 5933.500
951.451; 5464.900; 4741.800; 6074.700
952.007; 6051.500; 5352.750; 6066.400
952.563; 5498.300; 4791.800; 5884.100
953.118; 5326.000; 4613.750; 5733.800
953.674; 5631.100; 4922.500; 5734.300
954.230; 5615.400; 4959.300; 6039.700
954.785; 5629.100; 4916.850; 6383.500
955.341; 6108.300; 5416.850; 6568.200
955.897; 4846.700; 4133.300; 6488.600
956.452; 5826.700; 5157.200; 6239.200
957.008; 7028.000; 6357.800; 5954.600
957.563; 6349.500; 5679.400; 5816.700
958.118; 5221.400; 4559.100; 5828.200
958.674; 5760.300; 5078.700; 5717.400
959.229; 6424.200; 5788.900; 5506.800
959.784; 4922.500; 4272.350; 5292.200
960.339; 6404.300; 5738.950; 5101.900
960.894; 6108.600; 5417.000; 5093.200
961.449; 5175.000; 4517.750; 5227.900
962.004; 8177.300; 7532.950; 5349.300
962.559; 5251.200; 4597.600; 5514.900
963.114; 4275.600; 3622.400; 5717.300
963.669; 5654.900; 5023.250; 5841.400
964.224; 5385.200; 4740.150; 5805.900
964.779; 5017.200; 4358.550; 5723.400
965.334; 6446.000; 5790.050; 5779.500
965.888; 5331.900; 4670.950; 5948.500
966.443; 6154.800; 5528.700; 6344.200
966.998; 4799.400; 4132.900; 6666.300
967.552; 5583.100; 4962.650; 6710.100
968.107; 5259.400; 4647.700; 6593.500
968.661; 5751.900; 5145.450; 6344.100
969.216; 5202.600; 4608.150; 6062.400
969.770; 5759.100; 5152.800; 5785.500
970.324; 5771.200; 5182.700; 5426.800
970.879; 6061.600; 5463.500; 5016.800
971.433; 6107.200; 5521.200; 4904.500
971.987; 5659.200; 5071.450; 4991.000
972.541; 5851.100; 5259.650; 4978.500
973.095; 6625.500; 6011.200; 4832.000
973.649; 4923.800; 4331.800; 4767.900
974.203; 5087.100; 4502.500; 4881.200
974.757; 5297.500; 4730.300; 4969.500
975.311; 5510.700; 4921.050; 4953.000
975.865; 5569.700; 4997.600; 4884.300
976.419; 5392.100; 4821.850; 4739.800
976.973; 5311.500; 4742.950; 4698.100
977.526; 6205.800; 5635.700; 4631.100
978.080; 4887.800; 4325.400; 4621.600
978.634; 5884.300; 5383.250; 4650.200
979.187; 5843.500; 5267.150; 4669.200
979.741; 6773.700; 6253.100; 4658.000
980.294; 4876.700; 4361.800; 4579.100
980.848; 4304.000; 3796.150; 4452.800
981.401; 5185.000; 4698.600; 4271.900
981.955; 5479.600; 4978.100; 4087.800
982.508; 4599.800; 4129.250; 3973.900
983.061; 6107.500; 5614.150; 3928.600
983.615; 5034.200; 4550.500; 3851.200
984.168; 4841.100; 4374.550; 3734.800
984.721; 5768.600; 5297.850; 3628.300
985.274; 5656.000; 5179.000; 3564.300
985.827; 5436.300; 4956.350; 3558.100
986.380; 4492.700; 4019.650; 3559.900
986.933; 5666.500; 5235.600; 3688.700
987.486; 5705.800; 5250.250; 3778.500
988.039; 5629.900; 5211.400; 3559.900
988.591; 6013.300; 5577.650; 3219.300
989.144; 4687.500; 4254.600; 2902.900
989.697; 4925.800; 4526.200; 2722.600
990.250; 5848.200; 5416.950; 2618.000
990.802; 4934.700; 4538.700; 2523.900
991.355; 6923.600; 6484.450; 2436.500
991.907; 5990.250; 5581.450; 2412.200
992.460; 5056.900; 4678.450; 2387.900
993.012; 5082.000; 4678.000; 2365.800
993.565; 4734.600; 4384.000; 2311.100
994.117; 6771.400; 6381.400; 2308.700
994.669; 4775.900; 4400.700; 2249.300
995.221; 5579.200; 5229.250; 2158.100
995.774; 5504.500; 5121.500; 2085.600
996.326; 5107.000; 4758.800; 2068.100
996.878; 6015.000; 5677.700; 1975.300
997.430; 4832.300; 4524.900; 1929.500
997.982; 5315.300; 4971.100; 1861.900
998.534; 5283.200; 4937.900; 1830.200
999.086; 5220.800; 4910.300; 1823.200
999.638; 4532.200; 4255.000; 1815.000
1000.190; 5003.300; 4652.250; 1796.600
1000.741; 5364.900; 5014.250; 1738.800
1001.293; 4842.000; 4532.050; 1666.200
1001.845; 4844.800; 4533.200; 1566.500
1002.396; 5417.200; 5081.800; 1471.900
1002.948; 5349.500; 5048.700; 1398.000
1003.500; 5243.700; 4960.550; 1356.500
1004.051; 6895.500; 6624.850; 1294.200
1004.603; 5945.300; 5643.750; 1190.000
1005.154; 4398.300; 4166.050; 1063.900
1005.705; 5390.500; 5158.700;  968.300
1006.257; 5294.600; 5060.350;  889.800
1006.808; 5150.400; 4926.700;  801.500
1007.359; 5872.900; 5655.450;  716.400
1007.910; 4866.600; 4671.000;  639.100
1008.461; 5647.400; 5443.300;  561.600
1009.013; 4415.700; 4188.250;  500.400
1009.564; 6180.900; 5967.100;  476.100
1010.115; 4474.400; 4299.100;  431.600
1010.665; 4570.100; 4390.700;  409.300
1011.216; 5151.800; 4940.700;  399.700
1011.767; 5344.000; 5164.100;  388.100
1012.318; 5579.200; 5392.150;  381.400
1012.869; 5145.600; 4966.150;  375.400
1013.419; 4560.300; 4378.150;  357.600
1013.970; 5135.600; 4961.350;  358.300
1014.521; 4699.800; 4524.950;  344.100
1015.071; 5198.200; 5015.950;  322.800
1015.622; 4861.800; 4668.650;  320.600
1016.172; 4573.400; 4392.750;  301.700
1016.723; 4692.100; 4524.350;  289.800
1017.273; 4633.700; 4471.700;  287.600
1017.823; 4990.700; 4817.050;  278.700
1018.374; 4712.200; 4549.200;  274.400
1018.924; 5613.800; 5442.750;  283.200
1019.474; 5527.300; 5356.750;  278.500
1020.024; 5029.300; 4888.650;  274.700
1020.574; 5651.700; 5503.500;  272.700
1021.124; 5279.300; 5080.200;  278.400
1021.674; 4288.200; 4124.300;  269.200
1022.224; 5584.500; 5407.900;  267.800
1022.774; 5157.900; 5009.550;  258.100
1023.324; 5971.400; 5784.100;  260.000
1023.874; 7034.700; 6859.800;  260.700
1024.423; 4746.200; 4580.650;  252.700
1024.973; 4613.700; 4470.350;  234.700
1025.523; 4783.400; 4626.050;  226.500
1026.072; 4698.700; 4538.100;  225.500
1026.622; 5286.100; 5114.600;  210.100
1027.172; 5603.200; 5425.100;  213.000
1027.721; 4649.700; 4495.400;  207.700
1028.270; 5242.300; 5086.500;  205.400
1028.820; 5004.600; 4850.200;  201.000
1029.369; 4783.600; 4637.950;  201.000
1029.918; 5025.800; 4862.500;  198.400
1030.468; 4380.400; 4243.350;  199.200
1031.017; 4983.400; 4836.350;  192.600
1031.566; 4754.300; 4617.600;  197.400
1032.115; 5455.400; 5331.750;  188.300
1032.664; 4682.800; 4559.450;  193.700
1033.213; 5831.100; 5668.250;  191.900
1033.762; 4988.800; 4830.250;  184.500
1034.311; 5335.900; 5191.500;  194.300
1034.860; 5450.500; 5284.950;  192.300
1035.408; 5746.100; 5610.700;  182.600
1035.957; 5672.500; 5522.400;  173.900
1036.506; 4076.400; 3960.200;  185.200
1037.055; 6771.000; 6586.050;  182.500
1037.603; 5231.400; 5103.350;  167.600
1038.152; 4136.600; 3968.450;  168.200
1038.700; 4543.500; 4427.150;  169.600
1039.249; 5354.100; 5226.650;  164.300
1039.797; 5024.900; 4872.500;  169.600
1040.345; 5558.900; 5424.800;  167.100
1040.894; 4956.100; 4813.700;  164.400
1041.442; 5006.800; 4877.550;  158.300
1041.990; 4394.400; 4262.300;  160.000
1042.538; 4215.700; 4042.350;  156.800
1043.087; 4443.300; 4310.800;  146.600
1043.635; 5366.800; 5260.000;  162.400
1044.183; 4670.500; 4514.800;  156.300
1044.731; 4538.700; 4406.500;  158.100
1045.279; 5360.300; 5219.050;  154.500
1045.827; 7239.900; 7077.300;  146.200
1046.374; 4015.400; 3856.850;  154.000
1046.922; 4662.300; 4528.700;  149.000
1047.470; 5532.200; 5396.150;  154.900
1048.018; 5228.100; 5076.000;  148.400
1048.565; 5725.600; 5586.050;  146.300
1049.113; 4368.000; 4219.750;  156.100
1049.660; 4978.400; 4830.250;  154.300
1050.208; 5361.900; 5232.150;  149.400
1050.755; 4829.800; 4685.600;  157.500
1051.303; 5494.600; 5350.000;  157.700
1051.850; 5021.200; 4900.250;  152.800
1052.397; 3705.700; 3583.350;  146.300
1052.945; 4924.500; 4763.250;  149.500
1053.492; 5991.200; 5860.450;  149.300
1054.039; 5795.600; 5671.700;  163.100
1054.586; 4412.100; 4260.150;  150.400
1055.133; 5575.600; 5451.250;  153.500
1055.680; 5147.300; 5019.000;  155.600
1056.227; 4254.500; 4119.750;  148.700
1056.774; 6420.500; 6272.800;  151.500
1057.321; 4116.800; 3982.050;  143.700
1057.868; 5202.900; 5038.200;  145.300
1058.415; 5206.200; 5095.550;  153.500
1058.961; 5409.500; 5280.150;  149.900
1059.508; 5116.800; 4988.750;  147.300
1060.055; 4667.200; 4525.850;  151.000
1060.601; 4934.800; 4812.050;  148.700
1061.148; 5028.100; 4856.200;  153.800
1061.694; 4750.600; 4607.750;  150.500
1062.241; 4772.600; 4618.400;  149.100
1062.787; 5347.900; 5206.850;  153.000
1063.334; 6502.900; 6355.650;  153.200
1063.880; 5394.800; 5266.000;  148.400
1064.426; 5708.000; 5564.350;  149.200
1064.972; 4778.400; 4656.350;  156.400
1065.518; 4539.300; 4387.200;  144.700
1066.065; 5065.200; 4927.450;  139.400
1066.611; 4825.100; 4690.100;  139.300
1067.157; 5138.100; 5020.700;  138.400
1067.703; 5420.400; 5278.700;  142.700
1068.249; 4794.100; 4640.100;  136.700
1068.794; 5019.400; 4906.750;  139.400
1069.340; 4622.200; 4496.450;  142.700
1069.886; 4770.300; 4653.350;  135.600
1070.432; 4294.200; 4171.150;  133.400
1070.977; 4853.800; 4721.800;  138.200
1071.523; 4502.200; 4393.350;  132.400
1072.068; 4607.300; 4498.200;  132.700
1072.614; 4178.200; 4055.600;  127.000
1073.160; 5614.600; 5477.150;  131.300
1073.705; 4612.500; 4497.900;  135.700
1074.250; 4478.900; 4390.750;  133.000
1074.796; 5299.500; 5194.350;  138.000
1075.341; 5358.000; 5229.600;  137.300
1075.886; 4717.500; 4626.400;  134.300
1076.431; 5307.800; 5204.900;  138.200
1076.976; 5194.200; 5083.800;  132.200
1077.521; 4688.200; 4562.800;  138.900
1078.067; 4702.500; 4576.800;  128.600
1078.612; 5385.400; 5274.850;  138.900
1079.156; 4864.900; 4743.400;  128.900
1079.701; 5637.300; 5527.550;  129.700
1080.246; 5638.700; 5543.800;  128.600
1080.791; 5107.200; 4994.550;  122.600
1081.336; 5335.700; 5231.150;  122.000
1081.880; 5302.500; 5190.550;  123.900
1082.425; 4585.500; 4490.500;  120.600
1082.970; 5845.100; 5734.950;  124.500
1083.514; 4830.400; 4696.700;  112.000
1084.059; 4724.400; 4624.650;  120.700
1084.603; 4577.500; 4479.200;  116.000
1085.147; 5277.700; 5167.200;  116.300
1085.692; 5874.100; 5753.400;  108.200
1086.236; 4061.000; 3966.450;  114.600
1086.780; 6181.600; 6044.500;  118.900
1087.325; 5335.000; 5225.500;  120.400
1087.869; 4979.500; 4879.850;  110.500
1088.413; 5723.600; 5615.250;  114.000
1088.957; 4348.900; 4238.200;  114.300
1089.501; 6335.600; 6206.000;  114.600
1090.045; 5959.200; 5864.600;  114.200
1090.589; 4616.700; 4492.250;  105.500
1091.133; 5471.000; 5377.300;  111.800
1091.676; 4761.900; 4649.250;  110.900
1092.220; 4890.600; 4787.250;  110.100
1092.764; 5769.800; 5672.550;  108.100
1093.307; 5500.100; 5364.100;  109.900
1093.851; 4507.100; 4422.150;  107.500
1094.395; 5605.200; 5493.850;   96.200
1094.938; 5149.500; 5062.000;   99.300
1095.482; 4534.200; 4436.550;   97.700
1096.025; 5820.400; 5711.450;   84.900
1096.568; 6341.300; 6229.550;   88.500
1097.112; 4079.000; 3972.400;   95.700
1097.655; 4848.200; 4744.650;   97.300
1098.198; 4884.000; 4778.850;   92.600
1098.741; 5047.600; 4922.400;   91.800
1099.285; 5338.600; 5240.200;   88.000
1099.828; 3539.600; 3448.600;   91.700
1100.371; 5007.900; 4888.250;   89.900
1100.914; 5623.400; 5508.500;   91.500
1101.457; 5545.000; 5443.850;   88.100
1101.999; 4700.900; 4632.250;   86.400
1102.542; 5233.900; 5117.750;   90.800
1103.085; 5446.700; 5320.700;   95.400
1103.628; 6322.400; 6206.250;   97.700
1104.170; 4781.800; 4684.400;   84.000
1104.713; 5288.100; 5195.850;   93.900
1105.256; 4535.500; 4419.550;   93.000
1105.798; 4094.000; 3988.600;   85.600
1106.341; 6029.500; 5905.300;   87.100
1106.883; 4275.100; 4161.400;   85.200
1107.425; 5518.600; 5414.900;   85.000
1107.968; 5076.100; 4974.500;   84.300
1108.510; 5614.900; 5540.350;   88.200
1109.052; 5107.900; 4988.450;   86.600
1109.594; 4577.100; 4484.800;   79.400
1110.136; 5322.600; 5221.300;   81.700
1110.679; 5145.100; 5066.900;   75.500
1111.221; 5015.500; 4895.250;   88.500
1111.763; 4564.900; 4453.050;   87.700
1112.304; 4477.000; 4373.350;   89.700
1112.846; 5481.500; 5377.400;   81.900
1113.388; 7866.900; 7765.850;   86.400
1113.930; 5728.700; 5628.400;   84.700
1114.472; 5014.800; 4929.350;   78.900
1115.013; 4506.000; 4415.050;   78.100
1115.555; 4863.800; 4761.800;   84.900
1116.097; 4744.000; 4628.450;   79.200
1116.638; 5693.700; 5576.850;   83.700
1117.180; 5480.200; 5357.600;   85.500
1117.721; 4738.500; 4643.900;   78.800
1118.262; 5633.100; 5513.150;   77.400
1118.804; 5250.500; 5150.350;   81.400
1119.345; 4786.700; 4708.600;   77.800
1119.886; 5813.700; 5730.300;   81.200
1120.427; 4863.300; 4749.450;   77.200
1120.969; 4936.600; 4855.250;   75.200
1121.510; 4665.900; 4565.100;   80.900
1122.051; 5995.400; 5882.950;   77.300
1122.592; 5460.700; 5362.150;   73.300
1123.133; 4509.500; 4406.450;   90.100
1123.673; 5882.400; 5780.650;   75.000
1124.214; 5053.800; 4988.450;   80.600
1124.755; 5352.900; 5239.150;   78.000
1125.296; 5154.500; 5071.700;   77.500
1125.836; 5671.400; 5614.350;   80.400
1126.377; 4963.000; 4888.950;   75.600
1126.918; 5091.400; 4990.000;   78.900
1127.458; 5191.800; 5057.400;   78.000
1127.999; 5456.700; 5356.800;   76.100
1128.539; 5753.000; 5660.000;   81.400
1129.079; 5278.500; 5167.400;   77.400
1129.620; 4633.800; 4531.750;   68.000
1130.160; 4481.900; 4398.900;   77.500
1130.700; 5329.600; 5217.650;   76.300
1131.240; 5341.900; 5245.000;   66.800
1131.781; 5165.100; 5091.350;   70.600
1132.321; 5014.900; 4912.100;   77.200
1132.861; 4643.800; 4544.850;   70.400
1133.401; 4973.300; 4886.600;   68.700
1133.941; 5208.400; 5117.700;   68.500
1134.481; 5019.600; 4933.900;   75.900
1135.020; 5051.500; 4968.550;   66.600
1135.560; 5593.300; 5473.300;   68.100
1136.100; 4144.400; 4069.400;   64.900
1136.640; 4254.300; 4176.500;   72.500
1137.179; 4422.000; 4350.650;   69.700
1137.719; 5054.700; 4954.400;   68.400
1138.258; 4898.000; 4803.500;   67.000
1138.798; 5499.200; 5416.400;   69.600
1139.337; 4000.100; 3922.550;   64.000
1139.877; 5350.400; 5230.350;   64.500
1140.416; 7277.100; 7166.500;   74.900
1140.955; 4396.600; 4333.400;   67.200
1141.494; 5635.000; 5532.550;   69.900
1142.034; 4873.200; 4767.300;   59.100
1142.573; 5395.600; 5287.550;   65.900
1143.112; 4623.400; 4512.350;   70.600
1143.651; 4474.900; 4385.950;   67.100
1144.190; 5792.600; 5703.450;   56.700
1144.729; 5064.400; 4955.750;   61.800
1145.267; 4815.300; 4736.950;   62.500
1145.806; 5301.200; 5220.900;   68.500
1146.345; 5359.500; 5257.750;   58.300
1146.884; 5240.100; 5145.950;   63.100
1147.422; 4432.800; 4340.300;   54.800
1147.961; 5948.900; 5848.100;   67.600
1148.500; 5576.300; 5498.250;   64.700
1149.038; 5324.600; 5233.850;   61.000
1149.577; 5860.200; 5777.000;   65.100
1150.115; 3759.400; 3681.900;   58.100
1150.653; 5090.900; 5012.650;   60.500
1151.192; 4647.700; 4567.250;   56.600
1151.730; 5448.700; 5413.950;   62.300
1152.268; 4919.200; 4812.600;   55.500
1152.806; 4807.000; 4734.050;   58.200
1153.344; 4797.100; 4732.600;   55.000
1153.882; 4984.000; 4902.000;   64.200
1154.421; 3904.700; 3841.450;   60.300
1154.958; 5023.900; 4952.800;   58.100
1155.496; 5404.600; 5328.650;   55.800
1156.034; 6047.100; 5973.800;   61.000
1156.572; 5572.100; 5493.900;   56.200
1157.110; 3941.500; 3856.400;   53.200
1157.647; 5684.100; 5588.750;   57.400
1158.185; 4764.000; 4685.000;   55.500
1158.723; 4297.300; 4210.500;   58.000
1159.260; 5835.700; 5779.700;   53.700
1159.798; 5534.500; 5442.950;   51.700
1160.335; 5285.900; 5227.600;   59.600

