gmr_right
Integration time [ms]: 3468.598
Averaging Nr. [scans]: 10
Smoothing Nr. [pixels]: 0
Data measured with spectrometer [name]: 7414430SP
Wave   ;Sample   ;Dark     ;Reference
[nm]   ;[counts] ;[counts] ;[counts] 

288.544; 5127.798; 4983.385;    6.613
289.143; 4246.208; 4054.288;   14.216
289.742; 5485.729; 5296.867;   11.816
290.341; 5254.009; 5071.188;   -4.936
290.940; 4801.835; 4633.392;    0.852
291.538; 6064.431; 5870.872;    1.792
292.137; 5354.965; 5171.827;    6.262
292.736; 6947.409; 6773.389;    8.164
293.335; 4951.466; 4733.773;   -6.418
293.934; 5325.505; 5105.711;   -2.904
294.532; 7490.774; 7282.726;   -5.162
295.131; 5934.000; 5726.518;  -10.283
295.730; 5731.990; 5546.961;  -16.141
296.328; 5558.719; 5353.235;  -14.740
296.927; 5500.461; 5314.389;   -8.768
297.525; 5470.551; 5271.474;  -15.255
298.124; 4481.586; 4280.530;  -22.063
298.722; 5333.718; 5165.127;  -14.796
299.321; 4921.049; 4751.758;  -10.466
299.919; 5312.903; 5105.331;  -10.979
300.518; 4846.247; 4674.793;  -12.077
301.116; 4835.951; 4680.521;  -13.509
301.715; 5135.391; 4971.916;  -11.939
302.313; 4946.489; 4778.250;  -15.424
302.911; 5263.181; 5092.749;  -19.833
303.509; 6881.690; 6712.962;   -3.567
304.108; 5446.973; 5252.457;   -9.553
304.706; 5814.857; 5641.515;   -8.582
305.304; 5883.576; 5735.520;  -12.348
305.902; 5618.942; 5445.572;  -14.411
306.500; 5244.241; 5061.710;   -7.194
307.098; 5441.997; 5250.898;   -9.322
307.696; 5789.706; 5572.651;  -19.192
308.294; 5344.572; 5156.146;   -9.736
308.892; 5568.101; 5383.022;  -15.482
309.490; 5114.995; 4946.583;  -14.107
310.088; 5871.515; 5709.054;  -15.862
310.686; 6030.973; 5862.354;  -10.781
311.284; 5668.210; 5498.425;  -14.878
311.882; 5241.341; 5091.407;   -9.948
312.480; 5092.861; 4933.328;  -15.503
313.078; 6113.094; 5942.025;  -17.262
313.675; 5038.441; 4875.110;   -3.694
314.273; 6026.906; 5857.348;  -18.246
314.871; 4181.715; 4039.000;  -15.190
315.468; 4780.781; 4617.749;  -12.633
316.066; 5088.535; 4944.624;   -5.765
316.664; 4800.179; 4640.783;  -14.317
317.261; 6956.761; 6802.427;   -8.677
317.859; 5898.568; 5734.268;  -11.804
318.456; 6397.652; 6212.525;   -3.107
319.054; 5951.559; 5840.912;   -3.062
319.651; 5710.845; 5547.735;   -6.706
320.249; 6259.646; 6109.685;   -5.206
320.846; 5398.381; 5266.352;   -4.679
321.443; 6473.898; 6334.103;   -7.920
322.041; 6354.296; 6195.737;  -14.105
322.638; 5403.365; 5261.052;   -6.263
323.235; 4996.188; 4863.250;   -7.424
323.833; 5701.813; 5567.545;  -14.765
324.430; 4583.854; 4435.237;  -10.550
325.027; 6855.739; 6712.098;   -9.951
325.624; 4759.349; 4616.812;   -3.712
326.221; 5162.905; 4968.497;   -9.368
326.818; 6288.121; 6091.093;   -5.637
327.415; 5561.659; 5355.476;   -6.699
328.012; 5056.526; 4863.679;   -5.713
328.609; 5348.957; 5162.610;   -9.983
329.206; 5813.666; 5645.363;   -7.154
329.803; 5385.222; 5211.901;   -1.682
330.400; 5073.211; 4900.641;   -2.741
330.997; 5986.734; 5817.924;   -4.339
331.594; 5805.253; 5646.983;  -10.278
332.191; 5208.147; 4995.754;   -6.967
332.787; 6143.802; 5969.677;   -0.480
333.384; 5419.917; 5257.662;  -10.333
333.981; 5962.350; 5771.552;  -19.900
334.578; 4979.202; 4783.916;  -19.816
335.174; 5171.972; 4998.339;  -15.844
335.771; 6103.323; 5919.491;  -12.670
336.367; 5119.237; 4916.472;  -21.124
336.964; 5837.450; 5640.552;  -18.226
337.561; 5298.991; 5090.344;  -13.311
338.157; 6837.094; 6657.257;  -19.006
338.754; 5891.370; 5671.309;  -19.418
339.350; 5265.815; 5050.082;  -29.433
339.946; 5569.625; 5393.192;  -16.622
340.543; 6293.721; 6090.361;  -16.744
341.139; 5279.437; 5095.704;  -21.841
341.735; 5753.317; 5610.534;  -25.012
342.332; 5081.504; 4912.607;  -19.156
342.928; 5936.057; 5749.129;  -20.443
343.524; 5742.229; 5588.802;  -14.397
344.120; 5565.434; 5379.784;  -20.654
344.716; 5290.346; 5094.014;   -5.730
345.313; 6009.089; 5839.472;  -10.929
345.909; 4536.393; 4381.842;  -19.843
346.505; 5541.362; 5364.214;  -19.645
347.101; 6213.499; 6056.932;   -9.618
347.697; 5930.401; 5751.302;  -10.305
348.293; 4515.014; 4347.975;  -23.189
348.889; 5601.513; 5446.116;  -18.418
349.485; 5032.896; 4872.965;  -10.476
350.081; 5817.733; 5670.291;  -17.320
350.676; 5171.222; 5000.419;  -21.088
351.272; 6142.653; 5950.016;  -12.821
351.868; 5779.719; 5612.910;  -13.165
352.464; 5355.520; 5204.664;  -12.464
353.059; 4742.433; 4613.287;  -22.547
353.655; 5873.344; 5722.059;   -9.379
354.251; 5670.225; 5519.300;   -8.266
354.846; 5559.880; 5425.623;  -17.705
355.442; 5597.749; 5447.184;   -9.317
356.038; 5624.375; 5455.090;  -11.049
356.633; 5399.687; 5254.163;  -10.006
357.229; 5400.576; 5228.999;  -13.120
357.824; 5254.340; 5095.231;  -15.647
358.420; 5015.052; 4871.454;  -19.204
359.015; 5099.135; 4953.653;  -12.263
359.610; 5791.339; 5623.981;  -16.421
360.206; 4398.969; 4244.451;  -20.074
360.801; 4736.988; 4567.671;  -13.277
361.396; 5429.924; 5273.642;   -5.822
361.992; 4986.140; 4822.082;  -11.247
362.587; 5001.925; 4866.389;  -21.502
363.182; 5151.636; 5012.657;   -7.461
363.777; 5607.919; 5452.306;   -8.719
364.372; 5571.456; 5417.878;  -14.590
364.967; 5121.627; 4998.401;  -15.145
365.563; 6192.133; 6062.795;   -7.192
366.158; 5090.978; 4955.311;   -5.662
366.753; 4798.216; 4656.940;   -8.378
367.348; 5676.963; 5508.222;  -14.990
367.942; 5216.401; 5090.001;   -6.005
368.537; 5728.824; 5566.585;  -11.504
369.132; 5324.603; 5163.560;  -10.576
369.727; 4750.041; 4572.582;  -12.573
370.322; 4341.465; 4212.081;  -11.560
370.917; 5438.021; 5272.619;  -10.388
371.511; 6722.972; 6595.170;   -9.161
372.106; 6000.727; 5869.301;  -10.245
372.701; 4377.816; 4245.487;  -10.158
373.296; 6628.041; 6521.885;   -4.719
373.890; 4929.425; 4797.689;  -11.802
374.485; 5338.669; 5206.901;  -13.500
375.079; 5717.768; 5582.247;   -6.276
375.674; 6302.454; 6178.866;   -0.447
376.268; 5259.399; 5119.886;   -6.916
376.863; 4430.489; 4325.718;  -14.483
377.457; 5072.667; 4959.743;   -6.903
378.052; 5980.599; 5812.932;   -9.844
378.646; 5828.476; 5688.691;  -12.601
379.240; 5640.736; 5483.954;  -14.715
379.835; 4938.802; 4791.252;  -12.331
380.429; 4270.533; 4139.587;   -9.074
381.023; 6147.297; 6023.366;   -1.729
381.617; 5278.894; 5193.600;  -13.714
382.212; 5321.729; 5199.617;   -7.060
382.806; 5959.167; 5856.393;   -2.303
383.400; 5314.679; 5194.861;   -0.815
383.994; 5247.939; 5127.624;   -4.429
384.588; 5521.922; 5394.073;   -6.261
385.182; 5767.398; 5638.881;    0.008
385.776; 5647.797; 5545.624;   -3.247
386.370; 5385.660; 5300.699;   -1.030
386.964; 5431.769; 5324.055;   -1.346
387.558; 4706.211; 4587.712;   -2.020
388.152; 5440.084; 5338.543;   -5.345
388.745; 6565.647; 6478.322;   -2.774
389.339; 5885.734; 5769.749;    3.510
389.933; 5433.025; 5325.146;    5.280
390.527; 6982.885; 6889.151;    2.610
391.120; 4748.144; 4663.248;   -7.914
391.714; 5678.475; 5553.737;   -1.903
392.308; 6314.774; 6199.287;    6.023
392.901; 5163.053; 5082.758;   -4.103
393.495; 4785.829; 4713.759;    3.284
394.089; 6268.906; 6189.122;    8.655
394.682; 5698.529; 5610.813;    2.312
395.275; 5887.003; 5792.710;   -7.402
395.869; 5478.970; 5370.055;   -1.072
396.462; 5012.898; 4932.678;    6.454
397.056; 6288.037; 6202.715;    8.494
397.649; 6006.554; 5922.913;    1.599
398.242; 5856.183; 5768.239;    3.153
398.836; 6283.288; 6167.017;   11.395
399.429; 5074.709; 5014.096;   14.695
400.022; 5456.348; 5395.776;    3.627
400.615; 6676.014; 6618.121;    8.383
401.208; 5595.123; 5498.181;   13.295
401.802; 5751.357; 5681.382;    6.211
402.395; 5634.648; 5596.026;    7.227
402.988; 5722.848; 5664.872;    2.700
403.581; 5223.489; 5136.675;   11.225
404.174; 5551.959; 5480.048;   18.922
404.767; 5159.545; 5071.610;   14.169
405.360; 5131.440; 5064.078;    8.999
405.953; 6269.399; 6154.089;   13.138
406.545; 5983.706; 5915.479;   13.937
407.138; 5029.624; 4989.331;   10.869
407.731; 5021.473; 4971.279;   12.768
408.324; 5399.158; 5308.193;   22.921
408.917; 5616.698; 5555.781;   15.308
409.509; 6121.679; 6066.265;   12.239
410.102; 5363.145; 5291.206;   13.741
410.695; 5463.145; 5394.863;   20.249
411.287; 4934.793; 4872.253;   21.793
411.880; 4790.250; 4750.541;   22.965
412.472; 5040.577; 4994.453;   15.082
413.065; 5274.431; 5211.779;   23.423
413.657; 4745.888; 4700.924;   21.077
414.250; 5291.080; 5250.026;   12.349
414.842; 5578.202; 5521.505;   20.423
415.434; 4743.646; 4676.125;   19.906
416.027; 5298.964; 5250.987;   26.574
416.619; 5904.339; 5860.780;   15.705
417.211; 4929.935; 4856.906;   17.791
417.804; 5107.384; 5078.208;   30.244
418.396; 5035.631; 4972.632;   24.177
418.988; 5445.359; 5394.105;   24.904
419.580; 4681.550; 4639.345;   20.692
420.172; 4464.508; 4422.949;   22.275
420.764; 5501.935; 5436.114;   26.773
421.356; 5280.531; 5234.536;   25.731
421.948; 5557.351; 5520.057;   24.876
422.540; 5533.519; 5486.917;   30.042
423.132; 4907.550; 4874.056;   32.728
423.724; 4602.991; 4547.598;   21.317
424.316; 5112.153; 5074.269;   29.359
424.908; 4891.219; 4818.475;   28.798
425.500; 5333.945; 5270.527;   30.512
426.092; 5296.475; 5262.205;   26.741
426.683; 5746.279; 5674.779;   27.029
427.275; 5244.623; 5220.344;   32.611
427.867; 5416.889; 5381.797;   33.796
428.458; 6004.913; 5979.088;   34.453
429.050; 5595.400; 5560.808;   34.255
429.642; 6096.729; 6064.581;   39.082
430.233; 4521.937; 4497.833;   41.138
430.825; 6018.699; 5978.757;   31.581
431.416; 5722.622; 5693.486;   35.755
432.008; 5263.359; 5234.766;   40.566
432.599; 5299.132; 5254.004;   46.322
433.190; 5180.469; 5165.022;   46.897
433.782; 4577.497; 4558.587;   41.069
434.373; 7194.640; 7136.306;   48.778
434.964; 4849.497; 4799.398;   50.078
435.556; 5144.078; 5104.428;   52.381
436.147; 6170.612; 6134.034;   38.251
436.738; 5694.100; 5644.065;   47.237
437.329; 5822.632; 5767.012;   61.304
437.920; 5327.387; 5283.781;   48.611
438.511; 4489.179; 4484.836;   44.910
439.103; 4979.861; 4948.235;   62.404
439.694; 5467.717; 5438.619;   63.075
440.285; 5987.434; 5937.420;   61.033
440.876; 6912.346; 6875.643;   57.249
441.466; 4567.776; 4531.124;   61.306
442.057; 5293.887; 5215.991;   65.773
442.648; 6028.310; 5976.379;   65.676
443.239; 4953.964; 4920.651;   55.963
443.830; 5651.261; 5610.384;   69.631
444.421; 5163.999; 5137.718;   69.943
445.011; 5525.543; 5510.426;   72.791
445.602; 5931.153; 5907.933;   68.848
446.193; 3732.979; 3709.493;   80.044
446.783; 4923.622; 4895.904;   82.599
447.374; 5441.187; 5405.238;   77.419
447.964; 5683.383; 5641.364;   72.605
448.555; 6523.733; 6454.327;   82.041
449.145; 5189.045; 5148.146;   76.230
449.736; 6378.586; 6313.438;   75.545
450.326; 5603.564; 5572.809;   67.945
450.917; 5253.028; 5214.044;   77.598
451.507; 4658.308; 4629.224;   68.027
452.097; 5902.664; 5859.108;   67.771
452.688; 5773.239; 5714.359;   62.884
453.278; 4183.083; 4175.920;   65.512
453.868; 6305.927; 6226.240;   71.796
454.458; 5036.124; 4998.066;   60.956
455.048; 5519.431; 5505.911;   62.356
455.639; 4326.380; 4270.608;   58.782
456.229; 5463.716; 5442.075;   65.209
456.819; 5804.118; 5737.538;   61.466
457.409; 6037.347; 5988.460;   59.967
457.999; 5650.868; 5608.689;   58.093
458.589; 5198.909; 5144.935;   59.536
459.179; 5531.261; 5490.749;   55.994
459.769; 4747.656; 4700.417;   43.624
460.358; 6110.535; 6079.692;   46.978
460.948; 5276.076; 5199.387;   49.821
461.538; 4976.092; 4915.584;   54.678
462.128; 5014.016; 4979.425;   49.309
462.717; 5309.482; 5271.431;   52.774
463.307; 5303.153; 5279.012;   48.101
463.897; 4893.878; 4840.453;   45.606
464.486; 6488.145; 6435.799;   45.010
465.076; 5548.781; 5508.673;   45.519
465.666; 4773.469; 4710.358;   50.058
466.255; 5977.751; 5932.642;   44.463
466.845; 4881.657; 4845.475;   41.206
467.434; 5435.889; 5385.521;   44.847
468.023; 4765.378; 4736.857;   46.760
468.613; 5309.809; 5274.485;   39.736
469.202; 4692.764; 4667.222;   46.461
469.791; 5393.365; 5351.184;   47.944
470.381; 5391.875; 5350.895;   47.529
470.970; 5196.659; 5136.348;   43.773
471.559; 5436.910; 5390.396;   41.646
472.148; 4822.521; 4762.518;   37.914
472.738; 5566.794; 5495.057;   48.071
473.327; 4481.801; 4456.801;   47.871
473.916; 5338.451; 5287.146;   37.716
474.505; 5459.861; 5393.509;   40.256
475.094; 5904.385; 5865.358;   43.269
475.683; 5762.259; 5701.447;   36.499
476.272; 5215.721; 5158.572;   44.542
476.861; 4967.172; 4900.277;   42.297
477.449; 5081.408; 5016.748;   46.878
478.038; 4776.747; 4744.075;   35.156
478.627; 4954.878; 4943.110;   42.514
479.216; 5353.140; 5325.338;   43.937
479.805; 5452.284; 5371.653;   51.393
480.393; 7429.827; 7300.708;   53.239
480.982; 6293.253; 6238.065;   38.955
481.571; 6045.317; 6005.705;   45.436
482.159; 4681.223; 4618.991;   51.007
482.748; 5701.114; 5641.481;   49.695
483.336; 5920.787; 5872.924;   48.280
483.925; 5069.477; 4993.409;   47.166
484.513; 5023.664; 4970.040;   55.404
485.102; 5441.655; 5368.277;   54.238
485.690; 7080.855; 7009.038;   55.748
486.278; 6803.730; 6745.635;   55.934
486.867; 5299.908; 5215.002;   57.106
487.455; 6004.815; 5939.843;   56.979
488.043; 4694.311; 4629.218;   57.564
488.631; 6796.172; 6732.188;   57.432
489.220; 5941.568; 5888.118;   63.646
489.808; 4467.971; 4399.126;   65.449
490.396; 5882.028; 5816.073;   61.977
490.984; 5012.751; 4951.264;   68.834
491.572; 5897.470; 5823.526;   70.775
492.160; 5578.811; 5484.568;   67.564
492.748; 5131.752; 5103.664;   66.808
493.336; 5966.819; 5918.320;   79.747
493.924; 5112.451; 5054.267;   88.688
494.512; 5882.190; 5817.397;   84.120
495.100; 5727.985; 5691.016;   86.250
495.687; 6061.390; 6014.601;  103.074
496.275; 4958.539; 4878.941;  108.717
496.863; 5146.310; 5065.160;  107.035
497.451; 5093.998; 5034.038;  117.993
498.038; 5344.816; 5313.558;  120.116
498.626; 5150.022; 5086.890;  143.059
499.214; 5513.930; 5471.485;  153.434
499.801; 5387.819; 5322.221;  175.121
500.389; 4430.931; 4364.446;  185.617
500.976; 5638.345; 5544.377;  215.789
501.564; 5414.141; 5330.850;  240.321
502.151; 3914.044; 3852.220;  267.007
502.738; 5088.245; 5027.823;  317.961
503.326; 5182.495; 5129.429;  361.216
503.913; 5450.758; 5378.604;  401.433
504.500; 5574.882; 5530.499;  446.492
505.088; 4787.867; 4710.506;  512.063
505.675; 5203.965; 5123.102;  586.387
506.262; 5146.670; 5085.023;  671.021
506.849; 5281.474; 5209.396;  759.062
507.436; 5964.494; 5891.975;  849.788
508.023; 5254.480; 5196.791;  944.288
508.610; 5826.003; 5784.424; 1020.690
509.197; 5654.687; 5582.570; 1089.052
509.784; 5272.642; 5220.757; 1133.776
510.371; 4444.962; 4366.182; 1165.501
510.958; 5404.966; 5338.453; 1251.735
511.545; 6260.898; 6150.146; 1350.248
512.132; 5316.310; 5223.521; 1525.945
512.719; 4742.058; 4663.104; 1834.933
513.305; 4878.185; 4822.911; 1965.349
513.892; 6130.997; 6074.784; 1963.265
514.479; 5420.668; 5352.118; 2046.446
515.066; 5952.478; 5865.174; 2252.803
515.652; 5401.297; 5316.741; 2567.247
516.239; 5765.783; 5688.453; 2636.919
516.825; 4521.285; 4440.519; 2482.304
517.412; 6655.300; 6569.657; 2427.031
517.998; 5194.653; 5124.672; 2540.463
518.585; 5100.845; 5041.720; 2609.007
519.171; 5436.951; 5357.517; 2842.088
519.758; 4592.670; 4527.980; 3090.703
520.344; 5892.342; 5801.957; 3176.076
520.930; 4734.011; 4660.865; 3295.037
521.516; 5655.900; 5568.661; 3500.959
522.103; 6212.864; 6109.140; 3736.704
522.689; 5140.734; 5046.509; 3971.022
523.275; 6010.286; 5921.020; 4213.778
523.861; 5191.452; 5141.817; 4190.361
524.447; 5991.098; 5895.449; 4070.602
525.033; 6049.968; 5969.365; 4088.892
525.619; 4901.929; 4824.573; 4416.851
526.205; 4575.945; 4522.824; 4836.835
526.791; 5151.813; 5080.638; 4885.903
527.377; 4960.087; 4886.777; 4544.907
527.963; 5454.584; 5357.608; 4321.995
528.549; 5533.379; 5471.029; 4473.979
529.135; 4849.088; 4799.785; 4788.663
529.721; 5351.679; 5289.275; 4888.577
530.306; 7211.879; 7149.079; 4775.779
530.892; 5126.451; 5035.210; 4793.906
531.478; 5014.291; 4910.001; 4956.948
532.063; 4759.596; 4698.426; 5136.936
532.649; 6572.962; 6475.575; 5336.867
533.235; 4810.354; 4710.380; 5748.092
533.820; 6105.198; 6033.095; 6456.875
534.406; 5220.541; 5133.546; 6590.167
534.991; 4851.713; 4744.730; 6179.622
535.576; 5231.104; 5152.528; 6098.691
536.162; 7286.495; 7175.622; 6441.234
536.747; 4581.229; 4500.724; 6816.224
537.333; 4868.037; 4772.972; 6889.752
537.918; 5280.595; 5181.318; 7154.280
538.503; 4941.056; 4867.438; 7150.848
539.088; 5557.459; 5444.059; 7253.308
539.673; 5082.116; 5018.697; 7625.180
540.259; 4917.276; 4832.009; 8226.793
540.844; 4330.668; 4250.265; 8745.092
541.429; 6454.766; 6360.395; 8762.553
542.014; 4517.279; 4420.172; 8871.497
542.599; 5522.852; 5417.014; 8886.008
543.184; 4650.776; 4561.306; 9079.139
543.769; 4938.996; 4844.123; 9076.182
544.354; 5091.209; 4998.507; 8354.081
544.938; 5497.867; 5396.553; 8236.809
545.523; 6397.293; 6326.764; 8222.179
546.108; 5300.639; 5217.730; 8114.082
546.693; 5232.577; 5178.206; 8535.912
547.278; 5264.463; 5181.683; 9238.322
547.862; 5274.187; 5151.523; 9034.405
548.447; 5940.897; 5833.480; 7795.011
549.031; 5069.002; 5019.655; 7485.099
549.616; 5488.481; 5383.887; 7626.308
550.201; 4968.153; 4859.369; 7627.909
550.785; 5710.158; 5618.947; 7859.125
551.370; 4626.303; 4519.063; 7990.654
551.954; 5889.877; 5785.114; 8196.468
552.538; 5765.928; 5663.715; 7959.495
553.123; 4953.708; 4862.699; 7964.826
553.707; 5111.140; 5038.385; 8515.957
554.291; 6143.472; 6054.031; 8724.024
554.876; 5856.340; 5747.388; 8524.211
555.460; 4966.161; 4892.509; 8704.456
556.044; 4933.302; 4828.855; 9141.473
556.628; 5320.944; 5202.608; 9250.197
557.212; 6077.154; 5944.873; 9444.237
557.796; 5192.718; 5082.906; 9379.783
558.380; 5571.012; 5466.216; 9353.658
558.964; 5414.282; 5321.742; 9210.310
559.548; 4571.702; 4477.608; 8475.153
560.132; 5089.476; 4982.252; 7954.084
560.716; 4697.818; 4593.302; 7489.529
561.300; 4628.573; 4507.485; 7211.952
561.884; 5705.455; 5581.377; 7141.313
562.467; 5646.299; 5549.185; 7155.386
563.051; 5299.426; 5185.900; 7323.158
563.635; 5223.378; 5099.010; 7709.114
564.219; 5280.032; 5166.236; 7678.855
564.802; 5719.885; 5563.201; 7376.187
565.386; 5371.109; 5259.096; 7054.372
565.969; 6176.564; 6057.083; 6589.196
566.553; 6762.794; 6654.257; 6279.371
567.136; 6143.983; 5988.439; 5967.930
567.720; 5390.190; 5255.929; 5660.703
568.303; 5580.650; 5455.691; 5648.615
568.887; 5430.750; 5286.245; 5618.443
569.470; 5571.511; 5440.454; 5411.875
570.053; 5807.803; 5667.810; 5149.274
570.637; 4963.551; 4787.553; 5122.798
571.220; 5880.236; 5681.210; 4957.369
571.803; 6844.052; 6635.300; 4933.018
572.386; 5227.510; 5055.450; 4840.973
572.969; 5244.591; 5062.691; 4592.886
573.552; 5372.063; 5157.522; 4348.387
574.135; 4889.809; 4658.188; 4002.290
574.718; 5109.789; 4835.171; 3654.773
575.301; 5102.504; 4821.937; 3502.288
575.884; 5095.219; 4808.703; 3349.803
576.467; 6231.290; 5951.329; 3191.403
577.050; 5769.987; 5439.763; 3062.418
577.633; 6890.317; 6480.844; 3214.200
578.216; 5487.050; 5073.692; 3284.889
578.799; 5575.312; 5071.508; 3189.777
579.381; 7214.568; 6697.000; 3064.502
579.964; 5369.740; 4809.335; 2888.357
580.547; 5988.564; 5371.672; 2905.760
581.129; 6865.512; 6197.255; 2966.849
581.712; 6227.660; 5529.845; 2887.292
582.294; 6113.163; 5301.864; 2771.631
582.877; 7664.604; 6756.813; 2711.602
583.459; 6233.141; 5236.528; 2577.049
584.042; 6260.243; 5150.640; 2454.707
584.624; 5968.503; 4768.103; 2305.893
585.206; 5449.374; 4114.883; 2189.546
585.789; 6410.784; 4948.339; 2112.577
586.371; 7069.067; 5531.035; 2153.065
586.953; 7323.292; 5740.188; 2197.806
587.536; 7864.650; 6109.292; 2105.489
588.118; 7079.667; 5140.732; 1963.911
588.700; 8393.385; 6115.244; 1843.179
589.282; 8144.714; 5567.221; 1813.834
589.864; 8235.082; 5353.828; 1777.620
590.446; 7464.322; 4281.861; 1733.780
591.028; 8879.065; 5306.373; 1676.008
591.610; 8044.576; 4363.441; 1631.649
592.192; 9151.665; 5368.327; 1632.362
592.774; 8624.715; 4705.171; 1569.507
593.356; 9170.067; 4906.636; 1524.539
593.937; 9541.875; 4876.733; 1569.720
594.519;10909.633; 5891.684; 1569.049
595.101; 9855.521; 4415.508; 1545.452
595.683;10981.997; 4950.863; 1607.568
596.264;11910.936; 5184.795; 1615.506
596.846;12134.462; 5034.453; 1667.622
597.427;12388.491; 4882.123; 1670.469
598.009;12938.910; 4818.189; 1640.312
598.591;14154.983; 5743.932; 1541.022
599.172;13850.089; 5070.064; 1598.665
599.753;13895.348; 4544.065; 1619.068
600.335;15805.383; 6136.621; 1548.612
600.916;15249.074; 5220.222; 1607.510
601.498;16249.308; 5512.527; 1745.181
602.079;17056.125; 5267.174; 1801.011
602.660;17813.525; 5161.532; 1834.640
603.241;17343.520; 4183.903; 1787.351
603.823;18300.818; 4952.837; 1684.266
604.404;18023.168; 4586.540; 1654.241
604.985;18305.576; 4963.834; 1758.741
605.566;19682.629; 5787.352; 1697.679
606.147;20184.344; 5119.091; 1526.728
606.728;20753.275; 4563.777; 1484.086
607.309;22036.670; 4904.498; 1421.070
607.890;22152.211; 4984.097; 1369.867
608.471;22415.201; 4801.079; 1277.826
609.051;23417.336; 5385.582; 1180.416
609.632;23998.027; 4723.337; 1075.816
610.213;26108.283; 5155.071; 1053.313
610.794;26852.441; 4975.971;  979.442
611.374;27807.896; 5465.109;  917.414
611.955;27132.826; 4470.179;  819.987
612.536;29268.787; 5384.845;  752.627
613.116;29858.344; 4959.033;  690.799
613.697;29674.580; 4885.601;  674.974
614.277;29530.658; 4738.818;  663.846
614.858;29120.600; 4877.575;  665.898
615.438;28690.660; 5227.542;  660.712
616.019;29192.275; 6137.323;  632.732
616.599;27270.682; 4113.567;  551.759
617.179;29199.564; 4594.608;  512.871
617.760;32484.973; 6911.514;  473.655
618.340;30671.854; 5155.940;  440.004
618.920;32267.061; 6328.034;  429.731
619.500;32132.121; 5015.039;  441.361
620.080;31837.588; 4725.700;  425.202
620.660;32023.836; 4711.282;  408.164
621.241;32994.836; 5022.023;  387.161
621.821;34169.941; 5282.726;  378.017
622.401;34175.086; 5863.925;  379.188
622.980;32108.895; 4482.932;  350.019
623.560;32559.145; 5026.484;  336.446
624.140;31611.938; 5298.343;  336.473
624.720;30155.645; 5462.688;  334.974
625.300;29099.457; 4728.110;  325.717
625.880;29856.715; 5147.411;  308.519
626.459;31811.207; 5201.913;  307.117
627.039;32473.436; 4350.832;  290.890
627.619;36194.586; 6638.576;  286.635
628.198;36519.512; 5951.995;  282.535
628.778;37125.945; 5586.238;  285.474
629.357;34805.438; 4542.902;  284.103
629.937;34308.797; 4978.398;  292.178
630.516;35871.082; 6239.056;  290.749
631.096;34632.613; 4804.599;  285.489
631.675;35488.977; 6131.162;  287.022
632.254;34166.660; 4798.861;  286.038
632.834;33400.313; 5153.383;  276.451
633.413;33848.438; 6110.794;  279.447
633.992;33121.691; 5855.117;  264.508
634.571;33110.656; 5609.308;  271.010
635.151;33719.016; 4691.204;  277.338
635.730;34444.902; 5087.243;  289.305
636.309;34483.484; 5521.918;  285.306
636.888;34348.090; 5605.305;  254.051
637.467;31788.762; 4264.982;  230.324
638.046;33505.340; 6252.648;  253.349
638.625;32917.914; 6001.558;  246.866
639.204;32506.391; 5370.055;  240.825
639.782;33547.496; 5208.692;  261.970
640.361;33690.371; 6048.680;  277.780
640.940;32515.787; 4878.755;  270.101
641.519;32430.604; 5450.881;  248.622
642.097;33104.621; 5568.007;  239.843
642.676;33332.035; 5261.282;  244.264
643.255;33241.051; 5050.108;  234.985
643.833;35188.168; 5615.533;  244.406
644.412;35007.586; 4987.809;  244.927
644.990;35140.199; 5280.984;  249.948
645.569;35141.918; 5544.160;  249.569
646.147;35223.332; 5836.085;  243.290
646.726;33528.348; 5366.811;  249.511
647.304;32985.566; 4997.137;  228.032
647.882;31084.781; 4258.813;  214.552
648.461;31399.197; 5371.288;  214.973
649.039;32081.914; 5608.514;  223.394
649.617;31875.330; 5628.339;  261.415
650.195;31798.346; 5371.365;  298.736
650.773;31448.162; 4960.740;  309.557
651.352;30465.377; 4143.216;  297.978
651.930;29295.494; 4130.991;  289.399
652.508;30930.410; 5723.267;  285.620
653.086;30272.826; 5507.692;  272.241
653.663;29271.941; 4796.918;  265.062
654.241;28818.357; 4490.293;  286.083
654.819;29708.674; 4615.369;  286.404
655.397;31155.689; 4690.295;  291.825
655.975;32309.906; 5048.920;  299.145
656.553;33670.621; 6218.846;  288.866
657.130;32203.439; 4657.571;  304.087
657.708;31598.254; 5433.847;  302.908
658.286;31062.871; 5296.923;  294.629
658.863;31786.887; 5324.798;  293.350
659.441;31680.104; 5389.874;  318.671
660.018;30253.020; 5097.750;  333.692
660.596;29158.234; 4200.725;  335.013
661.173;29850.650; 4901.000;  371.534
661.750;29394.967; 4702.626;  365.155
662.328;30743.184; 5587.202;  349.976
662.905;29395.400; 4940.777;  332.997
663.482;28799.115; 5083.353;  321.717
664.060;28724.932; 4771.229;  314.438
664.637;29580.049; 5588.704;  306.259
665.214;30044.965; 5335.729;  314.580
665.791;30008.580; 5032.305;  334.501
666.368;29951.195; 4959.781;  329.222
666.945;31068.313; 5684.906;  342.143
667.522;30507.828; 4717.682;  370.964
668.099;31001.344; 5091.607;  396.885
668.676;30699.561; 5118.883;  391.706
669.253;31621.176; 6240.458;  369.627
669.830;30911.992; 6020.684;  360.348
670.407;30380.209; 5106.160;  344.769
670.984;30839.725; 5086.335;  322.890
671.560;30949.541; 5574.311;  316.910
672.137;29797.758; 4961.736;  322.531
672.714;30350.072; 5467.362;  318.552
673.290;30920.689; 5373.288;  324.473
673.867;31139.305; 4833.513;  340.594
674.443;31143.322; 4531.489;  319.515
675.020;31456.938; 5309.114;  286.336
675.596;30404.553; 5018.040;  247.557
676.173;29938.770; 4451.815;  227.778
676.749;29951.586; 3922.141;  224.399
677.326;30955.902; 4368.667;  230.520
677.902;32292.719; 4774.042;  241.841
678.478;33148.336; 4461.667;  239.762
679.054;36474.648; 7564.293;  248.583
679.631;33112.266; 5430.918;  237.503
680.207;33377.781; 6464.444;  245.924
680.783;31100.699; 4093.020;  224.845
681.359;33336.414; 5083.095;  209.666
681.935;34578.531; 5235.421;  191.687
682.511;34156.648; 5215.347;  210.008
683.087;33298.664; 5486.172;  213.329
683.663;32314.180; 4989.798;  216.850
684.239;31877.994; 4471.173;  229.471
684.815;33885.609; 5717.749;  248.792
685.390;34414.027; 6583.324;  231.813
685.966;32455.244; 5212.300;  221.234
686.542;32579.059; 4601.525;  214.255
687.118;34957.176; 5305.601;  212.276
687.693;35582.793; 5532.626;  233.096
688.269;34874.609; 5006.652;  246.917
688.844;35376.625; 5451.178;  236.938
689.420;34267.238; 5201.003;  242.059
689.995;34279.758; 6343.929;  245.480
690.571;33762.773; 6073.555;  244.701
691.146;33415.590; 4956.180;  251.922
691.722;34659.605; 5407.605;  284.743
692.297;34821.020; 4926.881;  320.664
692.872;35380.137; 4713.607;  313.885
693.448;35342.352; 4582.982;  290.106
694.023;36793.668; 5245.058;  304.327
694.598;37893.086; 5270.083;  319.648
695.173;36084.902; 4924.559;  323.169
695.748;33792.816; 4215.834;  376.389
696.323;34619.434; 5105.660;  397.610
696.898;36061.750; 5950.936;  430.231
697.473;34701.164; 4299.711;  454.952
698.048;36621.680; 4971.887;  478.973
698.623;36761.098; 4452.513;  477.094
699.198;37034.113; 5220.988;  496.915
699.773;36430.828; 4741.614;  490.236
700.348;35850.246; 4612.189;  519.957
700.922;37255.063; 5259.115;  575.678
701.497;37768.977; 5148.090;  621.399
702.072;37666.793; 5743.716;  664.420
702.646;36912.711; 5594.742;  690.541
703.221;35651.324; 5313.967;  748.862
703.795;34183.941; 4632.393;  774.282
704.370;32811.859; 3778.718;  799.803
704.944;33978.273; 4895.394;  875.824
705.519;35724.391; 5308.319;  902.945
706.093;36246.008; 4681.495;  889.266
706.668;36592.723; 5455.021;  903.487
707.242;37055.641; 5654.146;  881.708
707.816;36047.254; 4947.872;  892.329
708.390;35506.270; 5124.697;  970.250
708.965;34937.285; 5301.323;  984.671
709.539;34837.203; 4990.148; 1026.092
710.113;35221.918; 5207.074; 1067.913
710.687;34791.035; 5640.149; 1166.434
711.261;33229.953; 4559.725; 1190.854
711.835;33963.367; 4612.951; 1197.275
712.409;34892.184; 4253.726; 1308.096
712.983;34803.801; 4290.602; 1461.617
713.557;34691.816; 4282.777; 1611.838
714.131;34760.434; 5013.153; 1554.359
714.704;33721.848; 4634.329; 1520.780
715.278;35316.363; 5144.154; 1575.101
715.852;36309.680; 5585.030; 1689.822
716.425;37142.297; 6407.255; 1829.143
716.999;34118.711; 4212.281; 2008.664
717.573;35009.129; 5429.156; 2000.485
718.146;36269.445; 6262.982; 1914.506
718.720;36811.359; 5259.257; 1818.026
719.293;37783.277; 5467.333; 1734.147
719.867;36597.895; 4764.059; 1716.968
720.440;38072.508; 6015.034; 1918.589
721.013;36822.426; 4811.760; 1975.410
721.587;35184.742; 4299.285; 2073.331
722.160;35653.656; 5726.411; 2357.852
722.733;34518.973; 5173.437; 2657.073
723.306;33655.891; 5141.112; 2703.894
723.880;33266.707; 5249.688; 2549.415
724.453;34276.223; 5992.313; 2414.336
725.026;33242.738; 4835.539; 2298.557
725.599;33650.055; 5329.164; 2168.778
726.172;33114.070; 5443.940; 2106.099
726.745;33129.086; 5378.465; 2253.320
727.318;34198.102; 5725.491; 2404.740
727.891;34810.617; 5322.967; 2680.161
728.463;34533.734; 5295.292; 2838.882
729.036;33188.352; 4689.868; 2755.103
729.609;33034.266; 4626.493; 2731.824
730.182;34740.383; 5631.519; 2855.645
730.754;33561.297; 3903.344; 2946.866
731.327;35451.414; 5446.720; 2840.187
731.900;34356.531; 4321.945; 2647.608
732.472;35658.848; 5046.071; 2473.929
733.045;37188.363; 4950.497; 2445.750
733.617;35898.180; 4246.672; 2511.771
734.190;36160.895; 5419.898; 2581.592
734.762;36355.410; 5102.974; 2710.813
735.334;37353.828; 5176.299; 3005.733
735.907;36724.445; 5168.075; 3154.954
736.479;36923.961; 5842.250; 3171.675
737.051;36466.777; 5445.776; 3217.496
737.623;37307.793; 5507.851; 3246.217
738.195;36631.508; 4769.227; 2985.238
738.768;34947.426; 4023.802; 2727.559
739.340;35355.738; 4860.628; 2666.880
739.912;35278.258; 5603.554; 2769.601
740.484;34472.773; 5436.879; 2731.422
741.056;34152.887; 4970.305; 2963.043
741.628;34413.703; 4624.780; 3361.364
742.199;35911.922; 5959.956; 3641.185
742.771;34462.336; 4440.481; 3932.005
743.343;35244.652; 4653.057; 4319.926
743.915;36395.469; 5345.033; 4706.647
744.487;37653.887; 5489.258; 4874.968
745.058;38403.902; 5553.984; 4616.589
745.630;37580.918; 5518.659; 4253.410
746.201;36496.832; 4827.835; 4056.131
746.773;36884.051; 5459.160; 3772.952
747.344;36521.066; 5104.136; 3642.473
747.916;36170.480; 5270.111; 3752.294
748.487;36707.199; 5635.887; 4106.215
749.059;35605.012; 4506.013; 4457.835
749.630;35923.828; 4721.138; 4366.457
750.201;36450.848; 5102.164; 4600.078
750.773;35638.063; 4777.889; 4658.499
751.344;35833.379; 5161.865; 4609.319
751.915;35645.094; 5092.241; 4526.440
752.486;35190.109; 4694.116; 4536.061
753.057;36372.727; 5222.992; 4383.282
753.628;36850.941; 4686.817; 4296.503
754.199;37587.059; 4885.593; 4383.224
754.770;38262.176; 5480.368; 4653.545
755.341;37064.289; 5749.894; 4831.666
755.912;34938.406; 4999.419; 4831.387
756.483;35275.422; 5448.545; 4735.808
757.054;34680.438; 4883.271; 4685.029
757.625;33774.754; 4503.046; 4994.250
758.195;35340.570; 4325.572; 5051.471
758.766;36581.488; 5270.748; 5317.792
759.337;34766.703; 4280.773; 5646.512
759.907;34325.918; 4342.999; 5404.133
760.478;35011.434; 4789.124; 5090.954
761.048;35294.352; 5493.399; 4871.175
761.619;34984.766; 5362.475; 4589.396
762.189;35038.984; 5069.951; 4171.317
762.760;34948.898; 5565.626; 3872.538
763.330;34180.715; 5503.752; 3832.259
763.900;33622.230; 5284.328; 4150.180
764.471;33054.348; 4638.003; 4529.801
765.041;33888.164; 5847.179; 4715.922
765.611;33646.680; 5437.304; 4681.442
766.181;34171.797; 5039.780; 4717.063
766.751;34560.914; 5119.005; 4710.285
767.321;33972.629; 4448.131; 4450.305
767.891;33606.945; 5204.557; 4274.126
768.461;33701.359; 5037.032; 4215.047
769.031;33833.277; 5077.508; 4173.068
769.601;34596.793; 5778.733; 4174.689
770.171;33596.207; 4328.109; 4229.310
770.741;33747.023; 4911.034; 4352.031
771.311;34136.141; 5448.910; 4336.652
771.880;32568.258; 4618.485; 4300.873
772.450;32501.273; 4677.311; 4387.194
773.020;33276.688; 4289.887; 4220.415
773.589;32584.006; 4754.562; 4075.835
774.159;32561.621; 4800.438; 4105.756
774.729;32401.537; 4720.813; 4114.978
775.298;32981.152; 4759.439; 3693.298
775.867;33034.969; 4757.714; 3343.119
776.437;33129.887; 5131.040; 3062.040
777.006;31889.502; 4302.866; 2927.161
777.576;32431.518; 5446.941; 3046.482
778.145;31057.934; 5370.917; 3230.203
778.714;29610.750; 5031.542; 3253.324
779.283;29727.066; 5439.118; 3129.745
779.853;29900.883; 5058.943; 2983.566
780.422;30798.498; 5060.219; 2929.887
780.991;31570.615; 5386.495; 2863.908
781.560;32814.629; 5965.070; 2948.029
782.129;31886.848; 5295.696; 3074.149
782.698;32140.662; 5900.921; 2893.970
783.267;31403.180; 4729.297; 2721.391
783.836;31183.596; 5276.172; 2659.712
784.404;30710.111; 4461.098; 2622.233
784.973;29826.328; 3851.023; 2600.754
785.542;30027.643; 5026.349; 2528.475
786.111;31316.260; 5830.775; 2404.396
786.679;31638.076; 5452.550; 2365.717
787.248;29216.592; 4330.676; 2498.438
787.817;28340.707; 4810.651; 2645.659
788.385;30333.523; 5724.877; 2709.280
788.954;29252.141; 4367.553; 2620.500
789.522;29877.557; 5565.378; 2625.422
790.090;28279.973; 4385.804; 2743.843
790.659;29621.889; 4865.079; 2635.163
791.227;30672.705; 4976.205; 2495.484
791.795;30863.221; 5255.430; 2413.705
792.364;29257.438; 4543.306; 2345.326
792.932;30098.652; 5377.682; 2350.447
793.500;29239.469; 4911.007; 2429.768
794.068;28322.484; 4323.183; 2513.589
794.636;28749.500; 4670.558; 2664.310
795.204;28303.217; 4202.534; 2721.431
795.772;28458.533; 4632.659; 2802.052
796.340;28872.549; 4759.435; 2847.173
796.908;28518.064; 4206.960; 2997.194
797.476;28441.182; 4502.336; 3151.615
798.044;27930.498; 4136.012; 3110.735
798.612;28920.414; 4980.737; 2931.656
799.180;28140.230; 5133.313; 2785.777
799.747;27379.846; 5083.138; 2899.098
800.315;27149.961; 4392.014; 2955.519
800.883;26839.178; 4061.490; 2948.940
801.450;28012.295; 5018.665; 2965.361
802.018;28067.010; 5292.940; 3070.582
802.585;28277.426; 5054.666; 3156.103
803.153;28014.543; 4664.492; 3199.524
803.720;28121.959; 4707.517; 3168.845
804.287;28578.475; 4887.243; 3248.366
804.855;29221.590; 5659.468; 3406.187
805.422;27845.807; 4918.644; 3430.907
805.989;26631.922; 4588.070; 3453.528
806.556;26053.340; 4591.795; 3612.649
807.124;26921.555; 5564.021; 3736.570
807.691;26149.871; 4479.996; 3770.491
808.258;27285.986; 5059.472; 3705.012
808.825;28395.803; 5589.797; 3828.733
809.392;28348.020; 5972.673; 3986.754
809.959;27544.836; 5256.549; 4410.075
810.526;28032.951; 6019.674; 4774.996
811.093;27384.768; 5721.400; 4754.217
811.659;26438.084; 5003.125; 4661.238
812.226;26078.000; 4971.901; 4672.559
812.793;26254.615; 5206.876; 4822.979
813.360;26331.232; 4989.102; 5189.800
813.926;27240.549; 5258.478; 5310.622
814.493;26253.764; 4367.403; 5414.542
815.060;25590.580; 4104.079; 5548.963
815.626;25770.797; 4424.154; 5452.284
816.193;26963.912; 5153.030; 5339.305
816.759;25939.229; 4596.655; 5544.426
817.325;24667.244; 4107.481; 5706.547
817.892;25560.262; 5512.756; 5623.468
818.458;25229.477; 5284.882; 5586.689
819.024;26289.594; 5746.008; 5647.910
819.591;26099.209; 5041.883; 5762.031
820.157;24913.824; 4388.759; 6284.452
820.723;25899.941; 5277.134; 6906.973
821.289;28047.158; 7644.560; 7086.894
821.855;25580.873; 5422.386; 7054.915
822.421;24647.189; 4781.211; 7112.035
822.987;23988.105; 4474.437; 7256.156
823.553;24114.922; 4880.512; 7538.077
824.119;24413.238; 5598.288; 7594.298
824.685;24001.854; 5809.763; 7613.619
825.251;23555.070; 5485.439; 7644.140
825.816;24114.986; 6152.064; 7720.261
826.382;24032.602; 5462.590; 8014.282
826.948;24692.619; 5587.666; 8281.503
827.513;23513.434; 4939.641; 8289.624
828.079;22029.150; 4576.167; 8587.045
828.645;23216.666; 5236.742; 8821.865
829.210;23446.582; 4476.118; 9054.486
829.776;23430.398; 5393.894; 9054.607
830.341;22471.516; 5571.819; 9415.628
830.906;21822.230; 5734.745; 9932.449
831.472;21157.746; 4652.970;10150.271
832.037;22707.963; 5600.096; 9420.391
832.602;22855.979; 4780.071; 8664.912
833.167;22836.996; 5128.247; 8491.933
833.733;22838.211; 5597.522; 8872.854
834.298;21577.527; 4517.298; 9370.575
834.863;21462.543; 5262.974; 9610.695
835.428;20957.459; 5239.899; 9655.616
835.993;21231.977; 5386.875; 9437.838
836.558;21541.191; 5484.250; 9441.459
837.123;23305.309; 6723.426; 9600.979
837.688;21866.725; 5300.852; 9798.301
838.253;21426.740; 5286.427; 9902.921
838.817;20442.355; 4945.703;10339.742
839.382;20555.771; 5909.928;10548.363
839.947;20042.889; 5175.404;10252.484
840.511;20694.805; 6070.330;10040.005
841.076;18278.920; 4079.655;10099.926
841.641;19715.836; 5452.181;10347.347
842.205;19708.752; 5323.656;10817.368
842.770;20023.770; 6296.932;11435.289
843.334;18866.785; 5019.107;12072.409
843.898;18399.301; 4823.783;12635.431
844.463;19491.816; 5928.008;12537.252
845.027;18762.133; 4890.584;12759.673
845.591;18454.049; 5662.259;12821.993
846.156;17374.266; 4826.035;12520.914
846.720;17717.982; 5556.960;12390.436
847.284;17611.197; 5252.386;12956.456
847.848;18179.514; 5441.262;13240.177
848.412;17592.129; 5169.087;13216.998
848.976;17350.545; 6061.613;13014.619
849.540;17313.563; 6527.588;12355.740
850.104;16878.479; 5991.064;12208.761
850.668;15271.094; 4184.590;12106.882
851.232;15368.410; 4307.315;11862.103
851.796;16059.427; 5074.941;11700.523
852.359;16772.943; 5627.167;12375.944
852.923;17172.459; 5804.642;13087.966
853.487;16712.375; 5520.167;13297.187
854.050;14250.990; 3571.143;13851.207
854.614;15508.007; 4908.619;14854.229
855.177;15762.323; 5336.494;15802.149
855.741;15813.839; 5383.170;16603.570
856.304;16042.055; 5697.095;16359.891
856.868;14909.171; 4635.771;14365.512
857.431;14868.087; 5137.597;13361.333
857.995;14300.304; 4962.522;14130.554
858.558;14389.220; 5337.897;14883.175
859.121;14683.836; 5622.773;15754.195
859.684;14013.552; 5279.549;15995.017
860.247;13651.668; 5129.674;15149.537
860.810;13408.184; 4926.800;14640.358
861.374;14989.000; 6596.625;15551.079
861.937;12948.916; 4535.751;16519.801
862.500;13190.432; 4851.626;16796.521
863.062;12901.849; 4611.952;16538.742
863.625;13519.564; 5352.228;16716.764
864.188;13194.080; 4892.903;17055.084
864.751;12856.996; 4850.029;17197.705
865.314;13095.412; 5205.104;17151.625
865.876;13754.729; 5766.130;17783.547
866.439;13426.245; 5567.105;19283.467
867.002;14117.961; 6460.231;20256.389
867.564;13213.377; 5861.807;20485.410
868.127;12177.893; 5149.032;20789.730
868.689;12485.310; 5392.908;21981.951
869.252;12709.525; 5834.233;23803.771
869.814;11500.741; 4718.109;24974.094
870.377;11938.558; 5351.635;24690.314
870.939;13842.573; 7392.760;23963.436
871.501;11560.890; 5303.736;25167.156
872.063;10062.206; 3896.411;26995.477
872.626;10383.222; 4223.787;27443.098
873.188;11344.338; 5324.163;26718.418
873.750;10929.854; 5080.338;26558.840
874.312;10696.070; 4895.864;26701.561
874.874;12204.286; 6199.339;27970.582
875.436;11504.502; 5680.564;29173.402
875.998;11512.318; 6024.940;30376.623
876.560;10982.935; 5691.266;32507.344
877.122;10132.450; 4768.292;34833.066
877.683;10819.767; 5575.017;36458.285
878.245; 9943.583; 4897.792;37248.207
878.807;10379.999; 5480.068;36758.027
879.369; 9198.915; 4507.444;35223.551
879.930; 9280.631; 4623.719;33824.969
880.492;10646.447; 5949.395;34436.492
881.053; 9311.363; 4672.570;37745.313
881.615; 9371.979; 4868.146;41184.633
882.176; 9297.096; 5057.021;42871.555
882.738; 9681.111; 5618.397;41693.074
883.299; 8052.928; 4152.623;40289.895
883.860; 8254.644; 4284.748;39231.215
884.422; 9470.560; 5557.724;38264.039
884.983; 8375.775; 4626.299;37171.859
885.544; 8867.592; 5340.225;35842.379
886.105; 8541.608; 5211.150;34810.000
886.666; 8135.824; 4913.826;34519.020
887.227; 7383.940; 4302.852;33905.641
887.788; 8353.057; 5344.127;34502.965
888.349; 7396.873; 4439.103;34241.785
888.910; 8492.488; 5573.479;33722.203
889.471; 8138.205; 5316.104;32539.625
890.032; 7967.321; 5162.779;31528.346
890.593; 8277.736; 5543.855;32655.068
891.153; 7717.653; 5135.131;33882.289
891.714; 6875.669; 4414.606;33318.711
892.275; 6829.785; 4501.832;31848.930
892.835; 7925.001; 5723.458;30339.752
893.396; 7729.617; 5634.183;30074.973
893.956; 7051.533; 5032.409;30338.393
894.517; 7237.850; 5302.334;30864.113
895.077; 7224.565; 5403.359;29766.734
895.638; 7924.981; 6198.235;26379.557
896.198; 6212.598; 4584.511;24056.277
896.758; 7290.514; 5675.736;22961.898
897.319; 6632.530; 5074.512;21772.020
897.879; 6628.246; 5141.837;20877.539
898.439; 5733.362; 4307.613;19509.461
898.999; 6888.978; 5535.039;17297.582
899.559; 6739.894; 5431.164;14712.002
900.119; 5840.410; 4616.940;12790.224
900.679; 7326.626; 6113.965;11586.744
901.239; 6726.342; 5570.341;10776.465
901.799; 6357.559; 5233.517; 9691.687
902.359; 5763.075; 4687.342; 8725.907
902.919; 5689.691; 4621.167; 8305.728
903.479; 5687.907; 4659.443; 8172.649
904.038; 5443.623; 4449.169; 7913.870
904.598; 4862.139; 3875.344; 7262.291
905.158; 5794.255; 4863.920; 6609.012
905.717; 6001.271; 5072.996; 6236.133
906.277; 6047.287; 5162.421; 5829.054
906.836; 6302.204; 5462.646; 5396.674
907.396; 6213.520; 5392.572; 4964.195
907.955; 6238.036; 5429.648; 4528.917
908.515; 5733.152; 4933.723; 4223.837
909.074; 5792.968; 4988.649; 4023.958
909.633; 5754.584; 5010.174; 4065.379
910.192; 7005.100; 6207.950; 4066.300
910.752; 5714.500; 4959.600; 3971.600
911.311; 5635.900; 4865.850; 3839.600
911.870; 5441.700; 4688.450; 3684.500
912.429; 6544.500; 5783.650; 3635.600
912.988; 6364.300; 5661.550; 3689.800
913.547; 5322.500; 4605.900; 3737.700
914.106; 5942.400; 5258.100; 3740.300
914.665; 5910.500; 5208.000; 3604.600
915.224; 6434.200; 5768.550; 3358.700
915.782; 5519.800; 4839.550; 3188.400
916.341; 6644.600; 5962.050; 3091.400
916.900; 5595.700; 4909.900; 3044.800
917.458; 5332.000; 4651.400; 2888.600
918.017; 5875.300; 5178.650; 2818.900
918.576; 5600.800; 4931.300; 2838.600
919.134; 4976.600; 4303.950; 2880.100
919.693; 5568.500; 4873.500; 2996.300
920.251; 5452.200; 4780.050; 3183.100
920.809; 5160.400; 4494.900; 3247.000
921.368; 5468.700; 4778.200; 3156.600
921.926; 5258.800; 4589.350; 2964.900
922.484; 5768.600; 5097.850; 2846.300
923.042; 5603.000; 4926.600; 2890.400
923.601; 6590.600; 5921.450; 2987.700
924.159; 6122.900; 5421.100; 3049.800
924.717; 5249.300; 4566.750; 3087.000
925.275; 5788.500; 5131.200; 3093.400
925.833; 4796.500; 4094.750; 3182.400
926.391; 6081.600; 5383.850; 3397.900
926.949; 5499.900; 4799.250; 3575.400
927.506; 5869.000; 5168.150; 3713.400
928.064; 5574.300; 4871.550; 3871.300
928.622; 5668.000; 4950.850; 4092.800
929.180; 5094.000; 4394.550; 4499.300
929.737; 4973.100; 4262.150; 4813.200
930.295; 6064.400; 5342.700; 5084.100
930.853; 5341.200; 4611.400; 5185.000
931.410; 5114.700; 4362.650; 5313.100
931.968; 6194.300; 5435.750; 5339.600
932.525; 5809.900; 5058.050; 5399.900
933.082; 5028.900; 4274.850; 5457.500
933.640; 6017.700; 5255.400; 5692.900
934.197; 5607.500; 4870.600; 5821.200
934.754; 5653.700; 4870.050; 5617.900
935.312; 5390.600; 4606.400; 5512.400
935.869; 6696.500; 5887.300; 5582.400
936.426; 5448.600; 4637.950; 5650.100
936.983; 5597.400; 4807.450; 5657.400
937.540; 5101.400; 4325.550; 5564.300
938.097; 6023.700; 5211.850; 5574.000
938.654; 5549.800; 4733.500; 5665.900
939.211; 5989.900; 5207.750; 5931.600
939.768; 5720.200; 4927.300; 6153.600
940.324; 5598.200; 4788.500; 6397.600
940.881; 5404.800; 4588.100; 6454.200
941.438; 6531.700; 5707.300; 6206.900
941.995; 6290.700; 5495.300; 6003.900
942.551; 5163.100; 4355.850; 6228.300
943.108; 5720.300; 4900.450; 6603.500
943.664; 5205.100; 4401.000; 7188.100
944.221; 7030.200; 6214.550; 7579.900
944.777; 5154.200; 4352.050; 7658.100
945.334; 5260.500; 4460.300; 7670.400
945.890; 5749.500; 4974.650; 7525.100
946.446; 5811.500; 5010.250; 7261.500
947.003; 5978.700; 5163.700; 6949.200
947.559; 6746.000; 5954.200; 6773.100
948.115; 6428.900; 5645.200; 6668.400
948.671; 5929.600; 5137.900; 6488.400
949.227; 4980.300; 4193.750; 6236.600
949.783; 4926.200; 4117.050; 6008.900
950.339; 6011.800; 5242.800; 5934.100
950.895; 6364.700; 5574.850; 5933.500
951.451; 5512.400; 4741.800; 6074.700
952.007; 6126.000; 5352.750; 6066.400
952.563; 5542.700; 4791.800; 5884.100
953.118; 5366.200; 4613.750; 5733.800
953.674; 5688.800; 4922.500; 5734.300
954.230; 5710.600; 4959.300; 6039.700
954.785; 5669.400; 4916.850; 6383.500
955.341; 6158.500; 5416.850; 6568.200
955.897; 4915.100; 4133.300; 6488.600
956.452; 5911.200; 5157.200; 6239.200
957.008; 7086.200; 6357.800; 5954.600
957.563; 6425.500; 5679.400; 5816.700
958.118; 5310.400; 4559.100; 5828.200
958.674; 5829.000; 5078.700; 5717.400
959.229; 6551.500; 5788.900; 5506.800
959.784; 5038.000; 4272.350; 5292.200
960.339; 6463.900; 5738.950; 5101.900
960.894; 6154.400; 5417.000; 5093.200
961.449; 5217.800; 4517.750; 5227.900
962.004; 8273.400; 7532.950; 5349.300
962.559; 5294.900; 4597.600; 5514.900
963.114; 4312.700; 3622.400; 5717.300
963.669; 5703.900; 5023.250; 5841.400
964.224; 5454.500; 4740.150; 5805.900
964.779; 5072.500; 4358.550; 5723.400
965.334; 6491.500; 5790.050; 5779.500
965.888; 5418.700; 4670.950; 5948.500
966.443; 6230.600; 5528.700; 6344.200
966.998; 4836.500; 4132.900; 6666.300
967.552; 5632.800; 4962.650; 6710.100
968.107; 5289.600; 4647.700; 6593.500
968.661; 5792.700; 5145.450; 6344.100
969.216; 5262.800; 4608.150; 6062.400
969.770; 5819.900; 5152.800; 5785.500
970.324; 5800.500; 5182.700; 5426.800
970.879; 6091.900; 5463.500; 5016.800
971.433; 6162.100; 5521.200; 4904.500
971.987; 5710.700; 5071.450; 4991.000
972.541; 5872.600; 5259.650; 4978.500
973.095; 6630.200; 6011.200; 4832.000
973.649; 4930.300; 4331.800; 4767.900
974.203; 5131.400; 4502.500; 4881.200
974.757; 5339.600; 4730.300; 4969.500
975.311; 5555.400; 4921.050; 4953.000
975.865; 5625.600; 4997.600; 4884.300
976.419; 5428.100; 4821.850; 4739.800
976.973; 5373.500; 4742.950; 4698.100
977.526; 6235.100; 5635.700; 4631.100
978.080; 4921.900; 4325.400; 4621.600
978.634; 5942.400; 5383.250; 4650.200
979.187; 5855.700; 5267.150; 4669.200
979.741; 6822.200; 6253.100; 4658.000
980.294; 4907.900; 4361.800; 4579.100
980.848; 4335.900; 3796.150; 4452.800
981.401; 5230.900; 4698.600; 4271.900
981.955; 5519.400; 4978.100; 4087.800
982.508; 4668.300; 4129.250; 3973.900
983.061; 6142.400; 5614.150; 3928.600
983.615; 5078.100; 4550.500; 3851.200
984.168; 4867.300; 4374.550; 3734.800
984.721; 5811.400; 5297.850; 3628.300
985.274; 5684.400; 5179.000; 3564.300
985.827; 5469.900; 4956.350; 3558.100
986.380; 4517.100; 4019.650; 3559.900
986.933; 5699.100; 5235.600; 3688.700
987.486; 5724.400; 5250.250; 3778.500
988.039; 5683.300; 5211.400; 3559.900
988.591; 6014.400; 5577.650; 3219.300
989.144; 4743.000; 4254.600; 2902.900
989.697; 4982.000; 4526.200; 2722.600
990.250; 5863.500; 5416.950; 2618.000
990.802; 4983.000; 4538.700; 2523.900
991.355; 6954.500; 6484.450; 2436.500
991.907; 6025.350; 5581.450; 2412.200
992.460; 5096.200; 4678.450; 2387.900
993.012; 5095.300; 4678.000; 2365.800
993.565; 4768.000; 4384.000; 2311.100
994.117; 6777.400; 6381.400; 2308.700
994.669; 4782.700; 4400.700; 2249.300
995.221; 5623.400; 5229.250; 2158.100
995.774; 5522.400; 5121.500; 2085.600
996.326; 5147.100; 4758.800; 2068.100
996.878; 6039.100; 5677.700; 1975.300
997.430; 4881.400; 4524.900; 1929.500
997.982; 5328.900; 4971.100; 1861.900
998.534; 5293.400; 4937.900; 1830.200
999.086; 5241.600; 4910.300; 1823.200
999.638; 4601.000; 4255.000; 1815.000
1000.190; 5002.700; 4652.250; 1796.600
1000.741; 5368.600; 5014.250; 1738.800
1001.293; 4888.500; 4532.050; 1666.200
1001.845; 4846.800; 4533.200; 1566.500
1002.396; 5417.600; 5081.800; 1471.900
1002.948; 5380.900; 5048.700; 1398.000
1003.500; 5279.600; 4960.550; 1356.500
1004.051; 6914.600; 6624.850; 1294.200
1004.603; 5966.900; 5643.750; 1190.000
1005.154; 4428.500; 4166.050; 1063.900
1005.705; 5398.500; 5158.700;  968.300
1006.257; 5296.500; 5060.350;  889.800
1006.808; 5165.300; 4926.700;  801.500
1007.359; 5882.500; 5655.450;  716.400
1007.910; 4872.500; 4671.000;  639.100
1008.461; 5641.900; 5443.300;  561.600
1009.013; 4406.000; 4188.250;  500.400
1009.564; 6177.700; 5967.100;  476.100
1010.115; 4512.900; 4299.100;  431.600
1010.665; 4589.000; 4390.700;  409.300
1011.216; 5134.300; 4940.700;  399.700
1011.767; 5333.800; 5164.100;  388.100
1012.318; 5597.000; 5392.150;  381.400
1012.869; 5155.900; 4966.150;  375.400
1013.419; 4574.400; 4378.150;  357.600
1013.970; 5138.400; 4961.350;  358.300
1014.521; 4708.900; 4524.950;  344.100
1015.071; 5192.500; 5015.950;  322.800
1015.622; 4872.500; 4668.650;  320.600
1016.172; 4564.900; 4392.750;  301.700
1016.723; 4712.100; 4524.350;  289.800
1017.273; 4669.400; 4471.700;  287.600
1017.823; 5015.800; 4817.050;  278.700
1018.374; 4716.700; 4549.200;  274.400
1018.924; 5592.100; 5442.750;  283.200
1019.474; 5545.900; 5356.750;  278.500
1020.024; 5065.900; 4888.650;  274.700
1020.574; 5695.500; 5503.500;  272.700
1021.124; 5256.200; 5080.200;  278.400
1021.674; 4290.100; 4124.300;  269.200
1022.224; 5580.500; 5407.900;  267.800
1022.774; 5207.500; 5009.550;  258.100
1023.324; 5957.300; 5784.100;  260.000
1023.874; 7053.800; 6859.800;  260.700
1024.423; 4756.300; 4580.650;  252.700
1024.973; 4641.500; 4470.350;  234.700
1025.523; 4818.700; 4626.050;  226.500
1026.072; 4722.500; 4538.100;  225.500
1026.622; 5282.100; 5114.600;  210.100
1027.172; 5613.200; 5425.100;  213.000
1027.721; 4653.200; 4495.400;  207.700
1028.270; 5277.500; 5086.500;  205.400
1028.820; 5033.100; 4850.200;  201.000
1029.369; 4799.000; 4637.950;  201.000
1029.918; 5043.800; 4862.500;  198.400
1030.468; 4363.300; 4243.350;  199.200
1031.017; 4988.200; 4836.350;  192.600
1031.566; 4776.800; 4617.600;  197.400
1032.115; 5452.100; 5331.750;  188.300
1032.664; 4697.700; 4559.450;  193.700
1033.213; 5802.800; 5668.250;  191.900
1033.762; 4989.900; 4830.250;  184.500
1034.311; 5345.500; 5191.500;  194.300
1034.860; 5464.800; 5284.950;  192.300
1035.408; 5772.500; 5610.700;  182.600
1035.957; 5699.000; 5522.400;  173.900
1036.506; 4091.700; 3960.200;  185.200
1037.055; 6770.100; 6586.050;  182.500
1037.603; 5250.200; 5103.350;  167.600
1038.152; 4100.300; 3968.450;  168.200
1038.700; 4592.700; 4427.150;  169.600
1039.249; 5375.000; 5226.650;  164.300
1039.797; 5013.400; 4872.500;  169.600
1040.345; 5575.300; 5424.800;  167.100
1040.894; 4978.400; 4813.700;  164.400
1041.442; 5040.300; 4877.550;  158.300
1041.990; 4432.000; 4262.300;  160.000
1042.538; 4189.100; 4042.350;  156.800
1043.087; 4450.100; 4310.800;  146.600
1043.635; 5389.500; 5260.000;  162.400
1044.183; 4669.500; 4514.800;  156.300
1044.731; 4545.000; 4406.500;  158.100
1045.279; 5372.500; 5219.050;  154.500
1045.827; 7242.300; 7077.300;  146.200
1046.374; 4025.700; 3856.850;  154.000
1046.922; 4643.900; 4528.700;  149.000
1047.470; 5529.300; 5396.150;  154.900
1048.018; 5239.000; 5076.000;  148.400
1048.565; 5762.800; 5586.050;  146.300
1049.113; 4376.100; 4219.750;  156.100
1049.660; 4983.700; 4830.250;  154.300
1050.208; 5372.900; 5232.150;  149.400
1050.755; 4821.300; 4685.600;  157.500
1051.303; 5513.500; 5350.000;  157.700
1051.850; 5042.800; 4900.250;  152.800
1052.397; 3730.300; 3583.350;  146.300
1052.945; 4924.900; 4763.250;  149.500
1053.492; 5967.600; 5860.450;  149.300
1054.039; 5813.800; 5671.700;  163.100
1054.586; 4421.000; 4260.150;  150.400
1055.133; 5597.500; 5451.250;  153.500
1055.680; 5168.000; 5019.000;  155.600
1056.227; 4260.900; 4119.750;  148.700
1056.774; 6446.200; 6272.800;  151.500
1057.321; 4120.300; 3982.050;  143.700
1057.868; 5163.500; 5038.200;  145.300
1058.415; 5230.000; 5095.550;  153.500
1058.961; 5423.300; 5280.150;  149.900
1059.508; 5138.700; 4988.750;  147.300
1060.055; 4662.600; 4525.850;  151.000
1060.601; 4947.600; 4812.050;  148.700
1061.148; 5016.900; 4856.200;  153.800
1061.694; 4749.000; 4607.750;  150.500
1062.241; 4778.800; 4618.400;  149.100
1062.787; 5354.700; 5206.850;  153.000
1063.334; 6507.500; 6355.650;  153.200
1063.880; 5443.200; 5266.000;  148.400
1064.426; 5724.100; 5564.350;  149.200
1064.972; 4786.300; 4656.350;  156.400
1065.518; 4530.700; 4387.200;  144.700
1066.065; 5075.800; 4927.450;  139.400
1066.611; 4806.400; 4690.100;  139.300
1067.157; 5164.200; 5020.700;  138.400
1067.703; 5409.500; 5278.700;  142.700
1068.249; 4768.200; 4640.100;  136.700
1068.794; 5022.200; 4906.750;  139.400
1069.340; 4599.600; 4496.450;  142.700
1069.886; 4788.700; 4653.350;  135.600
1070.432; 4305.500; 4171.150;  133.400
1070.977; 4872.900; 4721.800;  138.200
1071.523; 4513.700; 4393.350;  132.400
1072.068; 4620.100; 4498.200;  132.700
1072.614; 4177.400; 4055.600;  127.000
1073.160; 5601.900; 5477.150;  131.300
1073.705; 4639.100; 4497.900;  135.700
1074.250; 4515.700; 4390.750;  133.000
1074.796; 5323.500; 5194.350;  138.000
1075.341; 5363.800; 5229.600;  137.300
1075.886; 4751.300; 4626.400;  134.300
1076.431; 5325.900; 5204.900;  138.200
1076.976; 5226.900; 5083.800;  132.200
1077.521; 4662.600; 4562.800;  138.900
1078.067; 4685.800; 4576.800;  128.600
1078.612; 5415.800; 5274.850;  138.900
1079.156; 4880.200; 4743.400;  128.900
1079.701; 5631.200; 5527.550;  129.700
1080.246; 5673.700; 5543.800;  128.600
1080.791; 5132.700; 4994.550;  122.600
1081.336; 5328.800; 5231.150;  122.000
1081.880; 5291.000; 5190.550;  123.900
1082.425; 4606.800; 4490.500;  120.600
1082.970; 5844.000; 5734.950;  124.500
1083.514; 4842.300; 4696.700;  112.000
1084.059; 4766.300; 4624.650;  120.700
1084.603; 4601.000; 4479.200;  116.000
1085.147; 5279.500; 5167.200;  116.300
1085.692; 5902.700; 5753.400;  108.200
1086.236; 4089.400; 3966.450;  114.600
1086.780; 6163.300; 6044.500;  118.900
1087.325; 5323.200; 5225.500;  120.400
1087.869; 4996.900; 4879.850;  110.500
1088.413; 5720.700; 5615.250;  114.000
1088.957; 4368.400; 4238.200;  114.300
1089.501; 6313.800; 6206.000;  114.600
1090.045; 5968.000; 5864.600;  114.200
1090.589; 4607.800; 4492.250;  105.500
1091.133; 5481.500; 5377.300;  111.800
1091.676; 4763.700; 4649.250;  110.900
1092.220; 4909.200; 4787.250;  110.100
1092.764; 5781.000; 5672.550;  108.100
1093.307; 5508.300; 5364.100;  109.900
1093.851; 4525.600; 4422.150;  107.500
1094.395; 5631.600; 5493.850;   96.200
1094.938; 5166.700; 5062.000;   99.300
1095.482; 4556.600; 4436.550;   97.700
1096.025; 5833.000; 5711.450;   84.900
1096.568; 6362.100; 6229.550;   88.500
1097.112; 4081.500; 3972.400;   95.700
1097.655; 4850.500; 4744.650;   97.300
1098.198; 4884.500; 4778.850;   92.600
1098.741; 5033.300; 4922.400;   91.800
1099.285; 5342.000; 5240.200;   88.000
1099.828; 3551.600; 3448.600;   91.700
1100.371; 4999.300; 4888.250;   89.900
1100.914; 5641.900; 5508.500;   91.500
1101.457; 5586.800; 5443.850;   88.100
1101.999; 4720.000; 4632.250;   86.400
1102.542; 5236.300; 5117.750;   90.800
1103.085; 5419.400; 5320.700;   95.400
1103.628; 6307.600; 6206.250;   97.700
1104.170; 4802.300; 4684.400;   84.000
1104.713; 5291.200; 5195.850;   93.900
1105.256; 4530.900; 4419.550;   93.000
1105.798; 4092.700; 3988.600;   85.600
1106.341; 6019.500; 5905.300;   87.100
1106.883; 4247.100; 4161.400;   85.200
1107.425; 5522.300; 5414.900;   85.000
1107.968; 5081.700; 4974.500;   84.300
1108.510; 5625.100; 5540.350;   88.200
1109.052; 5091.600; 4988.450;   86.600
1109.594; 4603.000; 4484.800;   79.400
1110.136; 5315.900; 5221.300;   81.700
1110.679; 5161.500; 5066.900;   75.500
1111.221; 5018.600; 4895.250;   88.500
1111.763; 4534.200; 4453.050;   87.700
1112.304; 4480.700; 4373.350;   89.700
1112.846; 5500.200; 5377.400;   81.900
1113.388; 7868.100; 7765.850;   86.400
1113.930; 5751.400; 5628.400;   84.700
1114.472; 5040.300; 4929.350;   78.900
1115.013; 4512.300; 4415.050;   78.100
1115.555; 4884.100; 4761.800;   84.900
1116.097; 4716.500; 4628.450;   79.200
1116.638; 5698.700; 5576.850;   83.700
1117.180; 5460.400; 5357.600;   85.500
1117.721; 4758.700; 4643.900;   78.800
1118.262; 5625.200; 5513.150;   77.400
1118.804; 5254.900; 5150.350;   81.400
1119.345; 4812.300; 4708.600;   77.800
1119.886; 5850.300; 5730.300;   81.200
1120.427; 4861.500; 4749.450;   77.200
1120.969; 4983.400; 4855.250;   75.200
1121.510; 4679.000; 4565.100;   80.900
1122.051; 5999.500; 5882.950;   77.300
1122.592; 5447.400; 5362.150;   73.300
1123.133; 4499.100; 4406.450;   90.100
1123.673; 5902.000; 5780.650;   75.000
1124.214; 5065.500; 4988.450;   80.600
1124.755; 5332.700; 5239.150;   78.000
1125.296; 5182.200; 5071.700;   77.500
1125.836; 5716.400; 5614.350;   80.400
1126.377; 4961.400; 4888.950;   75.600
1126.918; 5113.700; 4990.000;   78.900
1127.458; 5170.000; 5057.400;   78.000
1127.999; 5447.100; 5356.800;   76.100
1128.539; 5772.700; 5660.000;   81.400
1129.079; 5300.200; 5167.400;   77.400
1129.620; 4619.300; 4531.750;   68.000
1130.160; 4484.000; 4398.900;   77.500
1130.700; 5314.400; 5217.650;   76.300
1131.240; 5355.300; 5245.000;   66.800
1131.781; 5194.200; 5091.350;   70.600
1132.321; 5010.900; 4912.100;   77.200
1132.861; 4647.200; 4544.850;   70.400
1133.401; 4985.200; 4886.600;   68.700
1133.941; 5198.500; 5117.700;   68.500
1134.481; 5018.500; 4933.900;   75.900
1135.020; 5055.400; 4968.550;   66.600
1135.560; 5576.200; 5473.300;   68.100
1136.100; 4145.400; 4069.400;   64.900
1136.640; 4275.300; 4176.500;   72.500
1137.179; 4437.500; 4350.650;   69.700
1137.719; 5059.000; 4954.400;   68.400
1138.258; 4878.600; 4803.500;   67.000
1138.798; 5485.800; 5416.400;   69.600
1139.337; 4000.700; 3922.550;   64.000
1139.877; 5321.400; 5230.350;   64.500
1140.416; 7261.700; 7166.500;   74.900
1140.955; 4416.300; 4333.400;   67.200
1141.494; 5636.500; 5532.550;   69.900
1142.034; 4869.800; 4767.300;   59.100
1142.573; 5426.100; 5287.550;   65.900
1143.112; 4610.900; 4512.350;   70.600
1143.651; 4469.100; 4385.950;   67.100
1144.190; 5796.600; 5703.450;   56.700
1144.729; 5067.000; 4955.750;   61.800
1145.267; 4844.100; 4736.950;   62.500
1145.806; 5316.300; 5220.900;   68.500
1146.345; 5360.200; 5257.750;   58.300
1146.884; 5238.500; 5145.950;   63.100
1147.422; 4410.800; 4340.300;   54.800
1147.961; 5949.400; 5848.100;   67.600
1148.500; 5562.400; 5498.250;   64.700
1149.038; 5319.000; 5233.850;   61.000
1149.577; 5869.100; 5777.000;   65.100
1150.115; 3760.000; 3681.900;   58.100
1150.653; 5106.200; 5012.650;   60.500
1151.192; 4671.600; 4567.250;   56.600
1151.730; 5503.300; 5413.950;   62.300
1152.268; 4886.000; 4812.600;   55.500
1152.806; 4827.900; 4734.050;   58.200
1153.344; 4789.800; 4732.600;   55.000
1153.882; 4978.400; 4902.000;   64.200
1154.421; 3920.500; 3841.450;   60.300
1154.958; 5021.300; 4952.800;   58.100
1155.496; 5411.400; 5328.650;   55.800
1156.034; 6034.200; 5973.800;   61.000
1156.572; 5590.600; 5493.900;   56.200
1157.110; 3938.700; 3856.400;   53.200
1157.647; 5668.200; 5588.750;   57.400
1158.185; 4770.700; 4685.000;   55.500
1158.723; 4286.100; 4210.500;   58.000
1159.260; 5868.200; 5779.700;   53.700
1159.798; 5544.700; 5442.950;   51.700
1160.335; 5321.200; 5227.600;   59.600

