
Integration time [ms]:   3.276
Averaging Nr. [scans]: 1000
Smoothing Nr. [pixels]: 0
Data measured with spectrometer [name]: 7414430SP
Wave   ;Sample   ;Dark     ;Reference
[nm]   ;[counts] ;[counts] ;[counts] 

288.544;  159.631;    7.793;  793.890
289.143;  163.457;    7.462;  681.602
289.742;  164.284;    8.602;  828.814
290.341;  150.122;    1.321;  789.841
290.940;  141.309;   -0.709;  730.702
291.538;  143.093;    0.881;  881.108
292.137;  142.482;    0.122;  792.581
292.736;  144.121;   -1.929;  975.101
293.335;  140.894;   -8.229;  735.086
293.934;  142.359;   -5.279;  781.677
294.532;  142.896;   -1.369; 1031.958
295.131;  128.879;   -7.641;  834.394
295.730;  128.664;   -8.420;  809.588
296.328;  125.986;   -5.611;  783.442
296.927;  125.479;   -5.781;  779.652
297.525;  126.984;   -6.361;  781.236
298.124;  118.308;  -11.382;  654.009
298.722;  122.800;   -7.641;  761.933
299.321;  119.947;   -6.811;  708.597
299.919;  116.256;   -6.991;  751.918
300.518;  112.411;  -10.362;  689.338
301.116;  115.764;   -9.581;  691.381
301.715;  116.044;   -4.891;  730.222
302.313;  113.266;   -8.801;  704.943
302.911;  108.323;   -8.522;  733.830
303.509;  114.795;   -6.171;  925.627
304.108;  111.448;   -7.311;  760.383
304.706;  110.931;   -8.321;  801.664
305.304;  106.210;  -10.222;  796.707
305.902;  109.587;   -6.021;  784.484
306.500;  106.048;   -4.971;  728.200
307.098;  104.768;   -7.061;  746.560
307.696;  102.989;   -8.801;  780.432
308.294;  103.304;   -6.411;  731.359
308.892;  104.972;   -2.901;  759.769
309.490;  100.395;   -5.041;  712.161
310.088;   99.194;   -5.002;  788.444
310.686;  103.341;   -2.041;  821.749
311.284;   98.763;   -2.351;  766.040
311.882;   96.609;   -4.422;  731.225
312.480;   93.537;   -4.192;  697.167
313.078;   95.087;   -1.172;  808.331
313.675;   95.998;   -2.601;  691.600
314.273;   91.477;   -1.312;  797.837
314.871;   88.976;   -3.942;  589.829
315.468;   88.211;   -2.802;  652.090
316.066;   91.020;   -0.701;  694.427
316.664;   82.561;   -4.362;  656.351
317.261;   87.108;   -2.872;  910.128
317.859;   82.272;   -2.022;  768.735
318.456;   83.187;   -0.531;  830.096
319.054;   79.037;   -3.912;  787.828
319.651;   77.572;   -4.752;  759.928
320.249;   76.410;   -2.602;  810.188
320.846;   74.452;   -0.821;  714.286
321.443;   72.041;   -4.642;  832.135
322.041;   69.344;   -5.002;  812.315
322.638;   66.774;   -3.982;  701.456
323.235;   67.327;   -3.411;  665.683
323.833;   64.540;   -7.361;  740.354
324.430;   59.784;   -8.611;  615.900
325.027;   61.442;   -4.061;  876.855
325.624;   59.847;   -4.031;  644.532
326.221;   56.486;   -7.481;  689.717
326.818;   56.202;   -5.281;  818.332
327.415;   59.944;   -7.460;  748.828
328.012;   59.301;   -5.510;  690.585
328.609;   57.051;   -7.880;  731.389
329.206;   55.341;   -8.331;  778.621
329.803;   56.065;   -5.121;  737.841
330.400;   58.892;   -4.510;  704.260
330.997;   58.467;   -6.441;  817.147
331.594;   57.687;   -8.831;  788.185
332.191;   63.700;   -7.621;  728.722
332.787;   66.081;   -4.591;  844.463
333.384;   66.304;   -7.412;  763.093
333.981;   65.048;   -8.293;  815.687
334.578;   68.026;   -7.052;  708.378
335.174;   70.366;   -3.102;  731.469
335.771;   68.862;   -5.943;  836.456
336.367;   67.254;   -7.393;  710.631
336.964;   71.466;   -4.063;  793.266
337.561;   69.355;   -3.813;  731.112
338.157;   64.815;   -4.654;  911.916
338.754;   63.329;   -7.934;  796.589
339.350;   61.911;   -4.414;  722.493
339.946;   64.796;   -4.664;  773.135
340.543;   55.264;   -6.375;  846.136
341.139;   48.949;   -9.815;  720.836
341.735;   47.108;   -4.526;  772.593
342.332;   46.240;   -4.895;  691.472
342.928;   45.602;   -4.295;  795.394
343.524;   37.693;   -5.476;  761.684
344.120;   34.700;   -5.856;  738.562
344.716;   38.089;   -2.155;  723.717
345.313;   35.435;   -6.275;  795.342
345.909;   30.572;   -8.815;  627.336
346.505;   31.495;   -5.305;  740.247
347.101;   32.366;   -2.674;  827.864
347.697;   32.803;   -4.344;  785.398
348.293;   26.515;   -9.975;  627.244
348.889;   28.079;   -5.774;  745.914
349.485;   27.299;   -5.004;  688.205
350.081;   28.052;   -4.704;  772.592
350.676;   22.840;   -6.635;  691.606
351.272;   27.608;   -4.504;  809.530
351.868;   27.082;   -3.914;  780.497
352.464;   23.593;   -9.044;  723.932
353.059;   19.851;   -8.314;  646.017
353.655;   24.142;   -7.024;  777.063
354.251;   24.428;   -5.343;  759.845
354.846;   18.819;   -8.604;  740.646
355.442;   16.754;   -6.945;  753.071
356.038;   18.780;   -7.564;  751.708
356.633;   18.624;   -5.814;  728.594
357.229;   16.400;   -7.364;  724.757
357.824;   14.200;   -8.024;  703.600
358.420;   13.954;   -9.384;  679.726
359.015;   13.633;   -5.104;  695.357
359.610;   15.015;   -6.854;  763.920
360.206;    8.357;  -10.185;  603.240
360.801;   11.688;   -7.054;  646.503
361.396;   14.444;   -5.034;  725.975
361.992;    9.316;   -8.284;  668.220
362.587;    6.642;   -8.625;  670.160
363.182;    8.443;   -7.674;  689.631
363.777;    9.388;   -5.164;  738.242
364.372;    8.414;   -8.604;  737.314
364.967;    4.747;   -9.055;  680.744
365.563;    9.836;   -6.114;  815.567
366.158;    6.554;   -5.814;  685.161
366.753;    5.986;   -7.854;  649.263
367.348;    5.053;   -7.804;  746.056
367.942;    5.397;   -7.954;  697.298
368.537;    4.604;   -4.984;  754.245
369.132;    4.021;   -8.564;  703.428
369.727;    0.983;   -8.855;  638.079
370.322;    1.959;   -6.245;  580.186
370.917;    1.219;   -6.425;  710.646
371.511;    4.089;   -6.294;  861.834
372.106;   -0.027;   -7.685;  776.964
372.701;   -2.513;   -7.335;  585.988
373.296;    2.909;   -4.564;  863.135
373.890;   -2.424;  -10.235;  647.840
374.485;   -3.982;   -7.885;  691.199
375.079;    0.364;   -7.324;  738.685
375.674;    0.926;   -3.494;  812.970
376.268;   -3.775;   -8.525;  691.759
376.863;   -8.691;  -10.086;  580.327
377.457;   -2.805;   -7.025;  662.490
378.052;   -4.437;   -3.585;  764.884
378.646;   -5.599;   -7.595;  741.167
379.240;   -6.416;   -8.335;  721.176
379.835;   -5.209;   -5.785;  636.978
380.429;   -7.514;   -4.335;  562.557
381.023;   -7.864;   -6.805;  779.205
381.617;  -10.384;   -9.195;  680.106
382.212;   -6.630;   -6.905;  685.303
382.806;   -5.424;   -3.745;  760.690
383.400;  -10.806;   -7.745;  672.281
383.994;  -11.187;   -9.765;  664.870
384.588;   -6.620;   -6.564;  697.701
385.182;   -6.265;   -5.344;  726.624
385.776;   -7.943;   -8.514;  706.875
386.370;  -11.600;   -9.555;  681.968
386.964;   -9.163;   -8.715;  684.155
387.558;   -8.052;   -6.174;  598.360
388.152;  -11.859;   -8.725;  681.959
388.745;   -9.756;   -7.965;  814.707
389.339;   -7.963;   -5.924;  747.642
389.933;   -7.131;   -5.524;  695.370
390.527;   -8.484;   -7.114;  859.029
391.120;  -14.282;  -10.725;  595.318
391.714;  -11.384;   -8.035;  711.633
392.308;   -8.684;   -3.574;  780.253
392.901;  -12.891;   -7.245;  642.460
393.495;  -14.335;   -9.285;  595.414
394.089;  -11.967;   -5.895;  760.452
394.682;  -12.967;   -4.295;  697.188
395.275;  -13.367;   -9.875;  719.927
395.869;  -14.733;   -8.485;  667.314
396.462;  -12.188;   -7.455;  616.609
397.056;   -8.863;   -5.424;  776.621
397.649;  -13.060;   -6.605;  731.575
398.242;  -10.865;   -8.224;  712.645
398.836;   -9.998;   -7.474;  766.408
399.429;  -11.724;   -7.094;  631.041
400.022;  -15.015;   -9.475;  665.902
400.615;  -11.942;   -7.145;  805.609
401.208;  -10.271;   -7.174;  691.451
401.802;  -12.932;   -5.515;  699.329
402.395;  -13.874;   -9.875;  683.502
402.988;  -15.008;   -8.845;  696.627
403.581;  -11.269;   -8.874;  646.878
404.174;   -8.857;   -5.324;  686.568
404.767;  -12.625;   -9.575;  638.583
405.360;  -14.850;  -10.965;  621.445
405.953;   -8.925;   -8.764;  759.034
406.545;   -9.139;   -7.514;  725.342
407.138;  -13.708;  -10.025;  618.350
407.731;  -12.336;  -10.034;  613.303
408.324;   -7.881;   -9.374;  660.554
408.917;   -8.109;   -6.534;  681.864
409.509;  -11.194;   -8.004;  740.396
410.102;  -12.280;   -9.875;  643.948
410.695;   -6.378;   -8.604;  665.758
411.287;   -7.678;   -6.794;  599.821
411.880;   -8.993;   -9.334;  585.421
412.472;  -11.894;  -10.254;  613.092
413.065;   -9.504;   -6.714;  629.408
413.657;   -6.728;   -7.234;  576.678
414.250;   -6.691;  -10.544;  646.681
414.842;   -8.508;   -9.744;  676.353
415.434;   -5.942;   -6.994;  570.463
416.027;   -2.753;   -5.893;  652.196
416.619;   -4.356;   -7.264;  713.400
417.211;   -5.467;  -10.374;  599.352
417.804;   -1.051;   -7.993;  628.499
418.396;   -5.224;   -7.234;  607.643
418.988;   -3.053;   -9.443;  659.238
419.580;   -6.884;  -10.724;  568.276
420.172;   -4.624;  -10.323;  536.196
420.764;   -0.548;   -8.793;  672.482
421.356;   -0.351;  -11.143;  636.898
421.948;   -2.544;   -8.293;  677.661
422.540;    3.188;   -7.893;  680.027
423.132;    2.269;   -7.082;  600.641
423.724;   -0.737;   -8.653;  561.267
424.316;    1.192;  -10.213;  621.345
424.908;    4.614;   -9.762;  591.517
425.500;    5.322;   -5.572;  647.978
426.092;    5.229;   -8.422;  648.268
426.683;    4.233;   -9.283;  684.836
427.275;    7.409;   -7.852;  641.471
427.867;    9.345;   -5.272;  668.948
428.458;    8.407;   -7.682;  732.344
429.050;    7.231;  -10.612;  680.749
429.642;    9.960;   -9.882;  743.124
430.233;   10.423;   -6.962;  569.356
430.825;   11.599;   -6.842;  724.809
431.416;    9.433;   -9.672;  698.241
432.008;   13.639;   -6.552;  651.723
432.599;   13.686;   -6.891;  656.073
433.190;   10.656;  -10.912;  637.670
433.782;    9.956;  -11.172;  590.395
434.373;   17.178;   -6.061;  884.765
434.964;   16.134;   -8.251;  602.920
435.556;   13.600;   -9.722;  634.537
436.147;   15.777;   -9.082;  758.490
436.738;   17.119;   -8.041;  701.099
437.329;   20.994;   -7.341;  721.723
437.920;   14.391;   -8.162;  666.688
438.511;   14.401;  -11.802;  564.526
439.103;   21.168;  -10.191;  623.998
439.694;   23.122;   -7.601;  681.583
440.285;   23.324;   -8.541;  764.432
440.876;   21.465;   -9.751;  845.738
441.466;   20.805;   -9.401;  575.162
442.057;   26.643;   -7.760;  665.814
442.648;   24.662;   -9.971;  746.255
443.239;   22.742;  -11.001;  620.477
443.830;   28.870;   -7.990;  704.958
444.421;   30.390;   -7.910;  655.474
445.011;   27.171;   -8.131;  693.619
445.602;   26.641;   -7.111;  743.126
446.193;   29.171;  -10.920;  488.117
446.783;   32.306;   -6.500;  640.397
447.374;   27.781;   -8.671;  692.759
447.964;   28.817;  -10.781;  713.770
448.555;   37.117;   -9.650;  822.742
449.145;   34.421;   -8.660;  662.853
449.736;   33.419;   -8.990;  803.179
450.326;   34.569;   -9.500;  713.626
450.917;   39.572;   -8.680;  675.324
451.507;   38.843;   -7.520;  600.661
452.097;   38.987;   -8.590;  746.267
452.688;   40.960;  -11.340;  742.160
453.278;   41.124;  -10.100;  566.840
453.868;   44.564;   -6.019;  793.550
454.458;   42.462;   -9.440;  651.141
455.048;   43.146;  -10.560;  711.783
455.639;   44.011;  -11.799;  567.096
456.229;   48.219;   -6.899;  710.694
456.819;   49.914;   -7.389;  751.158
457.409;   49.783;  -11.119;  773.993
457.999;   53.540;   -9.289;  737.505
458.589;   53.702;   -6.139;  686.606
459.179;   53.163;   -8.729;  717.658
459.769;   51.076;   -9.789;  627.099
460.358;   56.184;  -10.259;  797.262
460.948;   56.163;   -7.299;  689.503
461.538;   57.237;  -10.289;  660.677
462.128;   55.074;  -11.269;  664.934
462.717;   62.062;   -9.368;  710.326
463.307;   65.360;   -7.908;  705.846
463.897;   60.058;   -9.599;  656.942
464.486;   59.972;   -9.769;  837.128
465.076;   64.878;   -8.048;  733.776
465.666;   68.804;   -9.358;  652.900
466.255;   65.677;   -7.919;  785.651
466.845;   64.952;  -11.689;  666.749
467.434;   68.579;   -7.818;  725.873
468.023;   69.095;   -7.678;  658.357
468.613;   65.873;  -10.939;  713.946
469.202;   70.907;  -10.118;  646.507
469.791;   74.921;   -9.108;  737.811
470.381;   77.614;   -6.058;  742.813
470.970;   76.560;  -10.428;  711.099
471.559;   76.206;  -10.268;  733.291
472.148;   80.354;   -8.448;  675.737
472.738;   82.208;   -6.917;  765.466
473.327;   81.777;  -11.978;  637.529
473.916;   80.800;  -11.888;  737.446
474.505;   86.085;   -9.437;  751.703
475.094;   88.929;   -6.747;  806.570
475.683;   87.969;   -9.367;  797.699
476.272;   88.731;  -12.637;  730.632
476.861;   91.892;  -10.027;  706.754
477.449;   98.502;   -8.716;  728.487
478.038;   93.292;   -9.577;  692.513
478.627;   94.159;   -9.718;  714.852
479.216;  100.776;   -8.947;  769.441
479.805;  104.116;   -6.256;  783.375
480.393;  103.276;   -7.937; 1008.945
480.982;  102.716;   -7.717;  874.501
481.571;  109.057;   -9.266;  858.333
482.159;  110.252;   -7.636;  705.386
482.748;  109.264;   -9.667;  821.385
483.336;  113.687;  -10.376;  858.209
483.925;  114.578;   -7.147;  774.373
484.513;  121.736;   -7.996;  758.962
485.102;  119.004;  -10.027;  810.965
485.690;  127.905;  -10.446; 1011.050
486.278;  129.312;   -8.446;  979.329
486.867;  129.713;   -6.356;  809.662
487.455;  131.668;   -9.136;  898.229
488.043;  133.095;  -10.646;  748.361
488.631;  142.148;   -7.456; 1005.079
489.220;  145.645;   -6.636;  908.626
489.808;  144.922;  -11.036;  741.415
490.396;  154.432;  -10.246;  914.645
490.984;  161.502;   -8.556;  830.161
491.572;  171.722;   -5.886;  940.315
492.160;  179.345;   -9.486;  919.081
492.748;  192.289;  -10.976;  884.341
493.336;  215.383;   -8.776; 1019.693
493.924;  241.632;   -5.465;  958.077
494.512;  274.481;   -9.986; 1066.638
495.100;  321.373;  -10.636; 1103.280
495.687;  383.271;  -10.885; 1206.373
496.275;  443.165;   -8.126; 1150.796
496.863;  509.757;  -10.586; 1281.171
497.451;  621.434;  -11.926; 1386.805
498.038;  728.386;  -10.885; 1556.729
498.626;  833.074;   -6.315; 1741.407
499.214;  994.571;   -7.326; 2016.609
499.801; 1196.861;  -11.906; 2220.633
500.389; 1422.598;  -10.466; 2312.494
500.976; 1695.274;   -5.236; 2744.849
501.564; 2129.233;   -8.936; 3148.565
502.151; 2624.602;  -13.176; 3515.999
502.738; 3097.699;  -10.646; 3971.274
503.326; 3470.081;   -9.525; 4403.796
503.913; 3822.574;  -10.856; 5161.749
504.500; 4321.288;  -11.586; 5986.420
505.088; 4758.259;  -10.336; 6381.201
505.675; 5159.498;   -6.355; 6925.547
506.262; 5615.243;   -9.046; 7619.060
506.849; 6005.172;  -10.416; 8733.969
507.436; 6423.003;  -10.305; 9790.121
508.023; 6892.852;   -5.496; 9985.472
508.610; 7723.058;   -7.856;10434.618
509.197; 9356.296;  -10.097;11198.435
509.784;10880.938;  -10.886;12391.194
510.371;11874.373;   -9.315;13603.713
510.958;12613.669;   -9.936;14426.586
511.545;13065.972;   -9.326;15243.775
512.132;13978.576;  -10.075;15945.876
512.719;14488.050;   -7.796;16340.369
513.305;15521.327;  -10.606;18011.766
513.892;16743.150;  -11.486;19754.971
514.479;18409.732;   -9.126;20967.805
515.066;19616.197;   -6.026;22299.793
515.652;20031.203;   -8.466;22908.660
516.239;21425.865;  -10.886;23798.875
516.825;23353.971;  -11.496;25567.275
517.412;24609.275;   -5.796;28154.959
517.998;26133.168;  -10.506;28344.111
518.585;26378.314;  -10.076;27134.219
519.171;25351.922;   -8.315;27268.576
519.758;25078.141;   -8.596;28964.129
520.344;25810.574;   -8.466;30664.494
520.930;28641.689;  -11.006;32550.605
521.516;28994.986;  -10.495;35422.895
522.103;28367.607;   -5.526;38280.004
522.689;28854.236;   -8.746;37835.117
523.275;30025.035;  -11.376;37288.613
523.861;30246.268;  -11.156;37281.395
524.447;30138.813;   -8.135;37846.949
525.033;30638.719;   -7.896;38321.949
525.619;33487.621;  -12.476;38579.285
526.205;36718.203;   -9.516;40622.875
526.791;37442.543;   -6.926;42258.836
527.377;39981.805;   -8.346;42966.902
527.963;42122.133;   -8.717;42018.949
528.549;40497.660;  -11.016;42476.828
529.135;40045.539;   -8.536;41854.852
529.721;39159.199;   -9.666;41237.711
530.306;37424.293;  -10.066;41259.445
530.892;37638.867;  -11.356;41506.047
531.478;37915.168;   -6.596;43559.613
532.063;38590.105;   -8.836;47695.563
532.649;41847.785;  -10.047;50808.324
533.235;44043.031;   -9.746;51787.500
533.820;43135.301;   -6.566;52145.035
534.406;41601.465;  -10.817;51133.488
534.991;44219.973;   -9.416;49996.805
535.576;45317.813;   -9.036;48882.852
536.162;46083.785;   -6.156;46942.285
536.747;46215.449;  -11.607;45711.746
537.333;45696.637;  -11.787;48510.180
537.918;44739.227;  -12.437;50439.891
538.503;44523.070;   -7.196;50863.711
539.088;43182.656;  -10.556;50906.922
539.673;42831.145;   -8.767;52621.965
540.259;43626.652;  -10.026;52368.094
540.844;44172.148;   -7.416;50879.109
541.429;40908.664;   -9.467;52077.777
542.014;38382.734;   -9.527;52716.695
542.599;38020.508;   -9.946;52363.281
543.184;39808.449;   -7.927;53187.137
543.769;42406.004;   -9.297;54697.605
544.354;43788.160;  -10.127;53913.914
544.938;43923.488;   -9.267;49680.164
545.523;46862.781;   -6.506;47386.277
546.108;52033.875;   -9.787;49151.949
546.693;52494.262;  -11.587;51384.637
547.278;52320.109;  -10.986;51853.254
547.862;48191.590;   -8.206;51173.750
548.447;44697.652;  -10.067;51691.395
549.031;46834.773;   -9.637;52456.703
549.616;48953.246;   -9.926;52714.516
550.201;46779.641;   -6.347;52414.598
550.785;44364.996;   -7.917;52355.059
551.370;42570.227;  -10.867;54589.453
551.954;43839.832;   -9.047;58267.348
552.538;46682.258;   -7.827;59062.176
553.123;46443.840;  -10.287;58115.285
553.707;42487.727;  -12.178;56556.285
554.291;44031.941;   -8.717;56201.668
554.876;46949.977;   -7.457;55335.762
555.460;48716.711;  -10.387;54155.703
556.044;49245.891;   -9.618;53721.484
556.628;49210.117;  -11.567;53731.016
557.212;48270.742;   -8.097;54312.531
557.796;47955.676;  -11.077;53797.773
558.380;45649.352;  -11.108;56145.984
558.964;43325.805;   -9.057;57277.930
559.548;43486.633;   -6.977;56459.641
560.132;43739.094;  -11.457;54434.543
560.716;41569.641;  -11.378;54800.617
561.300;42368.461;   -9.577;57606.945
561.884;44828.926;   -7.127;58972.445
562.467;45943.711;   -7.118;57327.570
563.051;46370.387;  -13.358;54962.434
563.635;44543.691;  -10.178;52594.473
564.219;44352.395;   -7.837;50610.410
564.802;43714.266;  -11.398;49551.180
565.386;44989.438;  -12.788;48370.953
565.969;44642.609;   -9.077;48178.871
566.553;43932.000;   -6.207;49957.305
567.136;41821.145;   -8.568;50369.594
567.720;41268.340;  -11.868;49492.004
568.303;42166.953;   -8.268;50616.352
568.887;40941.695;   -8.698;50727.148
569.470;39744.422;   -6.808;51698.379
570.053;38290.051;  -13.188;52122.078
570.637;36491.625;  -12.037;52536.438
571.220;35821.098;   -8.577;51186.098
571.803;37170.348;   -8.498;51032.762
572.386;39166.258;  -10.498;49609.887
572.969;40371.250;   -9.388;48285.926
573.552;36606.480;   -8.338;47624.285
574.135;35364.848;   -8.518;45498.641
574.718;33838.941;  -13.628;41970.434
575.301;32534.684;  -10.893;41447.137
575.884;31230.424;   -8.158;40923.836
576.467;34949.695;  -10.328;45267.723
577.050;34226.445;  -13.058;48175.543
577.633;32816.699;   -9.458;47729.328
578.216;33385.973;   -8.928;47579.793
578.799;34527.063;   -9.358;47820.996
579.381;34816.156;  -11.388;48115.551
579.964;32856.098;  -11.718;47333.766
580.547;33378.332;   -8.588;46668.969
581.129;35070.680;   -8.859;44466.141
581.712;34397.785;  -10.729;44164.922
582.294;35751.457;  -11.118;46477.855
582.877;33888.387;   -5.218;48244.254
583.459;33538.035;   -8.679;47437.895
584.042;34599.949;  -10.709;46943.219
584.624;37678.793;  -11.669;46792.227
585.206;37851.637;   -8.218;46557.250
585.789;35460.270;  -10.569;45793.773
586.371;34528.590;  -11.859;43836.391
586.953;33360.375;  -10.719;42972.492
587.536;34319.309;   -7.198;42487.211
588.118;36117.551;   -8.720;42086.414
588.700;35888.625;  -10.439;43389.930
589.282;35360.566;   -9.198;43646.039
589.864;34942.711;   -9.199;43438.109
590.446;32843.488;  -11.319;43151.926
591.028;31667.938;  -11.159;42781.867
591.610;30970.738;  -11.779;42839.098
592.192;28247.488;   -7.668;42820.402
592.774;29433.240;  -11.949;40724.277
593.356;30996.674;  -12.129;39874.789
593.937;30818.156;  -10.669;39980.648
594.519;31853.135;   -6.509;42069.633
595.101;33818.668;  -10.849;42976.031
595.683;32890.641;  -11.679;44084.441
596.264;31141.586;   -9.049;43478.797
596.846;31987.682;   -8.849;43803.672
597.427;32927.441;   -9.570;42986.934
598.009;32875.090;  -12.620;42832.219
598.591;32235.297;  -10.039;42580.086
599.172;31939.801;  -10.369;43061.805
599.753;31455.914;   -9.140;41691.469
600.335;31383.400;  -11.430;40692.520
600.916;31978.455;   -9.939;39982.422
601.498;31370.176;   -8.479;40318.617
602.079;30122.377;  -10.920;40670.609
602.660;31474.904;  -11.480;41450.898
603.241;32352.643;  -11.699;41137.738
603.823;32643.502;   -9.579;38868.797
604.404;32707.301;  -10.620;38182.785
604.985;31330.070;  -10.450;38078.047
605.566;30519.146;   -9.129;38056.633
606.147;30431.107;   -7.510;37020.418
606.728;31548.662;  -10.660;37883.359
607.309;32321.949;  -11.740;38748.273
607.890;31224.646;   -9.759;38850.230
608.471;29816.912;   -8.250;37457.918
609.051;31266.293;   -9.240;36066.457
609.632;29674.785;  -12.120;35991.074
610.213;27616.057;   -9.110;37402.641
610.794;28590.801;   -8.030;38383.363
611.374;31303.453;   -8.110;40562.387
611.955;31981.764;  -13.560;38533.727
612.536;29654.404;  -11.400;36951.789
613.116;29079.217;   -8.070;37197.891
613.697;30853.404;  -10.830;38411.125
614.277;31393.488;  -11.641;38673.938
614.858;30607.896;  -13.310;37075.863
615.438;29323.344;   -7.460;35092.906
616.019;28194.152;   -7.601;33666.301
616.599;28784.570;  -12.020;34189.023
617.179;30215.209;  -11.780;36952.047
617.760;32476.404;   -8.570;39582.574
618.340;32557.439;  -11.471;38943.977
618.920;30360.824;  -11.170;37594.156
619.500;31609.811;  -11.071;37866.938
620.080;32215.779;   -7.750;37869.043
620.660;31501.785;  -12.711;36868.617
621.241;30772.959;  -10.211;36352.309
621.821;29704.000;  -10.961;35459.520
622.401;28235.354;   -7.720;35207.414
622.980;29208.555;   -8.981;35980.422
623.560;29890.656;   -9.331;37351.328
624.140;28712.664;   -9.850;34388.582
624.720;26249.633;   -7.451;32368.764
625.300;24622.641;   -9.070;32638.629
625.880;28058.252;  -12.601;34599.035
626.459;30916.795;  -11.751;36831.738
627.039;31684.305;   -9.281;38299.098
627.619;33296.879;   -8.801;38289.574
628.198;33480.547;  -12.071;37220.695
628.778;31470.189;   -9.461;37632.563
629.357;31683.518;   -8.491;38003.012
629.937;31549.018;   -9.721;38402.039
630.516;31521.229;   -9.951;37868.801
631.096;31344.461;  -11.731;35760.410
631.675;33181.898;   -8.572;35225.219
632.254;33241.293;  -11.282;35130.289
632.834;32681.648;  -13.322;35794.570
633.413;32973.031;  -10.301;35788.922
633.992;32557.209;   -8.582;34532.863
634.571;33033.535;   -8.352;33590.113
635.151;32366.936;  -11.912;34943.863
635.730;31309.232;  -10.511;35352.523
636.309;32898.742;   -7.731;35366.605
636.888;32384.297;   -9.952;36165.637
637.467;31650.203;  -11.672;37515.902
638.046;31156.066;   -8.901;39288.695
638.625;31480.857;   -7.912;38279.699
639.204;32044.902;  -10.022;37741.598
639.782;30936.744;  -12.252;38364.551
640.361;29293.820;  -10.041;36740.621
640.940;28262.855;  -11.161;34950.082
641.519;29836.906;   -9.701;34137.398
642.097;32275.801;  -11.271;35654.258
642.676;33023.805;   -8.651;35637.957
643.255;34416.027;   -8.711;36567.074
643.833;32634.436;   -9.581;37809.434
644.412;29636.947;  -13.711;37337.293
644.990;29969.352;  -11.811;37018.531
645.569;32287.443;   -9.411;36518.469
646.147;31896.482;  -10.291;36186.430
646.726;30727.346;  -12.401;36267.688
647.304;30386.066;  -10.411;36647.625
647.882;30585.471;   -9.651;39286.742
648.461;32139.051;   -9.631;39157.703
649.039;34914.707;  -11.881;35412.883
649.617;35931.246;   -9.661;34744.918
650.195;34053.141;   -9.301;35403.098
650.773;32457.100;  -10.511;35053.797
651.352;31449.168;  -11.521;33756.816
651.930;28623.486;  -12.211;31868.773
652.508;24857.613;   -9.171;33121.551
653.086;25724.838;   -9.371;33564.793
653.663;30673.625;  -13.161;34054.668
654.241;33121.301;  -13.031;35693.309
654.819;35101.605;   -9.371;36422.906
655.397;35316.352;  -10.511;38213.484
655.975;33217.488;  -10.371;39507.625
656.553;31788.510;  -10.051;39498.223
657.130;31098.625;  -10.061;40395.480
657.708;29459.574;   -9.561;39242.020
658.286;26094.227;  -11.511;38920.020
658.863;26343.748;  -10.261;40202.898
659.441;30625.465;   -7.531;39677.938
660.018;32747.703;   -9.501;40413.355
660.596;31641.787;  -13.301;39931.414
661.173;29718.889;  -11.211;39604.531
661.750;30913.402;   -9.951;39700.070
662.328;31253.646;   -9.390;39292.809
662.905;30186.762;  -11.330;38235.648
663.482;27287.713;   -9.050;36212.305
664.060;24830.539;   -8.240;35944.945
664.637;26212.406;  -10.050;35170.785
665.214;29227.490;  -11.760;34197.523
665.791;30564.521;  -10.530;34549.520
666.368;30037.707;   -9.690;35118.578
666.945;30718.152;   -9.320;36019.418
667.522;30392.953;  -11.860;36048.438
668.099;31665.256;  -10.770;36243.914
668.676;32907.938;   -6.260;35958.875
669.253;35198.133;   -7.000;37384.730
669.830;36417.914;  -10.190;36779.629
670.407;33139.273;   -9.550;35231.289
670.984;32640.646;   -9.260;35544.270
671.560;29661.049;   -9.280;35466.867
672.137;24319.184;  -11.810;34280.863
672.714;25367.791;  -11.490;34632.863
673.290;30955.414;   -7.740;35135.422
673.867;31743.523;  -10.660;36114.480
674.443;31655.090;  -12.230;36152.859
675.020;31173.063;  -10.450;35327.238
675.596;31363.268;   -9.260;35795.176
676.173;31314.895;  -10.780;35430.355
676.749;30187.844;  -13.690;33549.516
677.326;29347.547;  -11.980;32210.012
677.902;28509.320;   -8.630;32068.871
678.478;29582.109;  -10.730;32583.891
679.054;30551.510;  -10.520;32088.928
679.631;30813.809;  -11.920;30978.848
680.207;30805.283;   -7.490;33160.887
680.783;32476.168;   -9.860;35570.363
681.359;33406.457;  -13.380;36125.184
681.935;33281.426;  -12.480;35240.922
682.511;31805.967;   -7.900;34429.961
683.087;31104.807;   -7.710;34463.680
683.663;30579.438;  -11.480;34648.898
684.239;29712.105;  -14.090;34546.457
684.815;29108.123;   -7.560;35586.375
685.390;29428.188;   -9.910;35821.895
685.966;30583.928;  -11.159;35085.871
686.542;31426.447;  -11.169;34198.230
687.118;32766.666;   -5.959;32847.707
687.693;32211.869;  -10.329;32794.027
688.269;31907.596;  -12.059;33072.367
688.844;32864.176;  -10.909;33141.664
689.420;31768.281;   -8.019;33965.742
689.995;30260.770;   -8.399;34655.523
690.571;31257.074;  -10.949;33576.742
691.146;31002.625;   -9.619;32657.219
691.722;29552.096;   -8.999;32526.979
692.297;28133.938;  -11.589;33014.617
692.872;28427.336;  -11.739;34012.254
693.448;31498.668;  -11.059;34237.434
694.023;31876.951;  -10.139;34142.672
694.598;28305.998;   -9.029;34132.031
695.173;29192.332;  -13.319;34205.250
695.748;30820.355;  -10.169;32882.488
696.323;29055.322;   -8.339;32864.906
696.898;27845.223;   -8.169;33170.004
697.473;27922.588;  -12.309;32432.984
698.048;27973.014;  -10.989;31649.303
698.623;27406.230;   -9.329;30778.141
699.198;28061.377;   -9.849;31140.119
699.773;28930.178;  -12.329;31764.299
700.348;30544.518;  -10.389;31780.816
700.922;30474.627;   -9.269;32046.375
701.497;31169.699;   -9.329;32603.574
702.072;32336.691;  -10.789;34799.871
702.646;31160.951;  -10.839;35793.172
703.221;31444.654;   -9.099;35201.590
703.795;33257.160;  -10.939;34764.527
704.370;30875.602;  -12.859;34307.367
704.944;29049.760;  -11.559;33509.887
705.519;29427.316;   -7.939;31388.584
706.093;31294.150;  -10.499;31340.104
706.668;33362.918;  -11.289;32630.281
707.242;33008.051;  -11.509;32728.779
707.816;30229.305;   -9.639;32947.238
708.390;29290.516;  -11.429;33277.855
708.965;29523.291;  -11.869;33834.336
709.539;31603.922;  -11.689;33709.273
710.113;31435.877;  -10.478;33044.313
710.687;30253.563;  -10.228;31953.992
711.261;29286.096;  -13.698;30505.949
711.835;29552.748;  -13.378;30262.369
712.409;29159.354;   -9.698;31254.447
712.983;27878.004;  -11.898;32754.986
713.557;29873.822;  -15.138;34018.824
714.131;28610.855;  -14.098;34579.625
714.704;28245.568;   -9.958;33890.262
715.278;29400.713;  -10.028;33531.102
715.852;27725.920;  -11.148;33601.660
716.425;26837.256;   -9.068;33515.117
716.999;26213.814;  -10.038;33185.555
717.573;26107.232;   -9.798;33905.996
718.146;25803.115;  -12.378;35199.293
718.720;25880.365;  -11.918;35060.551
719.293;26504.697;   -8.088;34973.230
719.867;28848.785;  -10.888;36394.449
720.440;31404.889;  -11.938;36663.008
721.013;31930.521;  -12.818;35102.426
721.587;29388.348;  -10.298;33985.266
722.160;27735.057;  -10.048;33524.965
722.733;26734.020;  -12.108;32987.043
723.306;26636.703;  -10.818;33066.301
723.880;28042.629;   -8.908;33399.500
724.453;26984.844;   -9.878;33468.297
725.026;27596.047;  -11.188;33816.637
725.599;31513.135;  -11.678;32797.996
726.172;31338.500;   -9.618;33187.434
726.745;28002.715;   -8.258;35136.613
727.318;27080.996;  -12.978;35751.730
727.891;26822.803;  -12.148;35890.430
728.463;26584.377;   -8.968;34822.090
729.036;26108.752;  -10.188;32895.086
729.609;26245.148;  -11.788;31823.225
730.182;24804.545;  -11.788;31445.283
730.754;23024.516;  -10.268;32373.223
731.327;22596.818;   -9.998;33676.820
731.900;23804.822;  -12.228;33417.000
732.472;24787.920;  -13.848;31978.498
733.045;24477.615;   -8.698;30368.777
733.617;23042.561;  -10.607;30574.215
734.190;24528.232;  -11.507;31280.975
734.762;25892.912;  -13.647;31674.412
735.334;25796.076;   -9.767;31247.291
735.907;25765.449;   -9.897;29876.211
736.479;25914.326;  -11.637;29808.488
737.051;27790.703;   -9.567;30233.547
737.623;28247.699;   -8.187;31469.086
738.195;27123.420;  -11.187;31784.225
738.768;25690.801;  -12.337;32120.523
739.340;23540.709;  -12.227;32094.342
739.912;22394.691;  -11.057;31312.680
740.484;21721.246;  -10.207;31946.238
741.056;21101.982;  -10.047;32984.059
741.628;22213.209;  -13.627;33897.715
742.199;24206.660;   -7.177;33213.016
742.771;27155.887;  -10.797;31369.113
743.343;28588.818;  -11.997;31865.473
743.915;28121.221;  -12.867;32388.631
744.487;25092.770;   -7.617;31079.568
745.058;21791.418;   -9.557;30570.107
745.630;22112.137;   -9.877;29970.127
746.201;23573.592;  -14.177;29186.766
746.773;24116.420;   -9.237;28805.723
747.344;23226.975;   -9.847;29591.223
747.916;21745.518;  -11.657;31412.201
748.487;22073.566;  -10.587;32194.898
749.059;23471.090;   -8.707;32533.719
749.630;24051.539;  -10.537;32158.518
750.201;23635.660;  -11.687;30855.395
750.773;22446.635;  -11.647;28622.555
751.344;21603.951;   -7.147;28405.732
751.915;22761.832;   -9.757;28461.551
752.486;24010.420;  -12.427;27842.850
753.057;23220.563;  -12.227;27845.008
753.628;23207.990;  -10.417;27728.107
754.199;22346.701;  -11.767;27381.086
754.770;22406.594;  -11.187;25882.203
755.341;22223.545;  -10.507;25886.184
755.912;20729.168;   -9.387;26050.861
756.483;18909.258;  -10.647;26798.779
757.054;19269.316;  -11.837;27048.238
757.625;19328.387;  -12.716;26294.838
758.195;19378.256;   -9.666;26142.076
758.766;19943.457;   -8.656;26392.234
759.337;19285.473;  -12.856;26334.594
759.907;19261.902;  -13.366;27579.652
760.478;19196.273;   -8.576;28352.770
761.048;19761.293;  -10.526;27325.088
761.619;19947.006;  -11.116;26460.428
762.189;18554.189;  -12.136;26029.826
762.760;18029.742;   -9.456;26430.145
763.330;18507.318;   -7.136;26670.902
763.900;18959.154;  -11.786;26603.021
764.471;18359.945;  -11.546;25542.740
765.041;17271.545;   -8.096;24358.459
765.611;16644.268;   -8.876;23991.297
766.181;16560.828;  -12.196;24470.236
766.751;16309.956;  -11.636;24845.975
767.321;16789.910;  -10.156;24533.633
767.891;16701.699;  -11.766;24916.492
768.461;17136.182;  -14.936;24776.771
769.031;18336.713;  -12.356;24757.988
769.601;18904.650;   -7.526;24181.088
770.171;18494.197;  -10.766;23670.387
770.741;17290.189;  -13.176;22960.045
771.311;16777.541;  -10.616;22917.523
771.880;16855.836;   -9.576;23562.941
772.450;16389.184;  -10.336;24216.500
773.020;16400.545;  -13.516;24140.398
773.589;17365.561;  -13.466;24414.857
774.159;17116.855;   -8.686;23858.717
774.729;16126.657;   -9.476;22942.135
775.298;14510.932;  -13.666;22324.033
775.867;14059.391;  -11.716;21140.313
776.437;14434.921;   -9.906;20838.092
777.006;13576.217;  -12.166;20599.510
777.576;12818.461;  -12.356;20508.809
778.145;12952.453;  -11.646;20732.947
778.714;13290.750;   -8.226;21062.465
779.283;14026.022;   -9.556;20949.664
779.853;14714.423;  -14.116;20508.623
780.422;14208.101;  -11.506;20649.082
780.991;13703.202;   -9.556;21527.520
781.560;13389.409;   -9.095;22632.658
782.129;13018.184;  -12.135;23048.277
782.698;13049.682;  -10.865;23438.555
783.267;12987.295;   -9.335;23267.734
783.836;13043.727;  -11.045;22415.133
784.404;13733.866;  -13.865;20443.152
784.973;13256.101;  -13.095;19699.150
785.542;12023.081;  -11.575;19763.828
786.111;11435.704;   -9.705;20341.408
786.679;11986.235;  -12.105;20207.967
787.248;12197.895;  -12.455;19516.465
787.817;11509.582;  -11.535;18900.363
788.385;11620.333;   -9.765;17879.121
788.954;11955.475;  -14.005;17658.301
789.522;11574.436;  -11.955;17788.879
790.090;11654.948;  -10.135;18118.277
790.659;12766.026;  -10.975;18338.736
791.227;12998.960;  -13.375;18508.615
791.795;12330.845;  -12.375;17898.254
792.364;11725.204;  -10.725;17295.133
792.932;11666.288;   -9.715;16822.051
793.500;11714.878;  -12.675;17040.148
794.068;11335.922;  -13.495;17179.787
794.636;10126.596;  -10.885;16664.246
795.204; 9043.112;  -11.045;16524.545
795.772; 9626.588;  -13.175;17274.564
796.340;10993.962;  -12.445;17891.002
796.908;10817.727;   -9.735;17648.561
797.476;10838.450;   -9.815;17064.080
798.044;11475.399;  -13.985;16672.777
798.612;11386.804;  -13.115;17023.996
799.180;10297.511;  -10.185;16561.615
799.747; 9133.560;   -9.055;15962.773
800.315; 8324.474;  -12.385;15296.992
800.883; 8598.881;  -15.035;14801.771
801.450; 9222.772;  -10.365;14534.430
802.018; 9555.651;   -9.855;14173.248
802.585; 9940.968;  -11.905;14029.547
803.153; 9583.408;  -11.585;13836.846
803.720; 8735.394;   -9.095;13567.324
804.287; 8793.056;   -9.135;13360.622
804.855; 9399.977;  -11.604;13681.981
805.422; 9467.688;  -11.794;13536.560
805.989; 9031.309;  -10.734;13355.958
806.556; 8491.475;  -10.444;13747.896
807.124; 8321.551;  -12.764;13987.376
807.691; 8948.639;  -12.964;14038.674
808.258; 9334.099;  -11.134;14120.152
808.825; 9330.993;   -9.854;13860.111
809.392; 8887.394;  -10.504;13268.790
809.959; 8381.782;  -13.054;12680.389
810.526; 8121.205;   -8.294;12427.308
811.093; 7954.325;   -8.394;12030.105
811.659; 7416.478;  -12.304;11653.664
812.226; 7143.945;  -13.944;11637.183
812.793; 7620.419;  -10.484;11611.521
813.360; 7869.902;  -10.144;11885.181
813.926; 7312.348;  -11.684;12770.539
814.493; 6613.202;  -13.644;12677.638
815.060; 6398.919;   -9.724;11974.336
815.626; 6619.665;   -9.854;11594.715
816.193; 6688.866;  -13.254;11579.474
816.759; 6652.172;  -13.204;11666.972
817.325; 6595.343;   -9.434;11325.530
817.892; 6381.821;  -10.134;11105.369
818.458; 6283.959;  -13.474;10843.928
819.024; 6050.183;  -11.854;10714.406
819.591; 6118.558;  -10.244;10469.165
820.157; 6275.066;  -10.704;10235.523
820.723; 6617.749;  -12.324;10847.563
821.289; 7083.721;   -9.444;11040.980
821.855; 7187.953;   -8.374;10357.100
822.421; 6855.763;  -10.234; 9978.918
822.987; 6592.255;  -13.294; 9754.177
823.553; 6569.487;  -10.884;10065.755
824.119; 6251.810;   -8.884;10036.294
824.685; 6079.495;   -6.784;10029.192
825.251; 6019.939;  -12.004;10199.230
825.816; 6250.536;  -11.474; 9820.189
826.382; 6160.678;   -9.174; 9297.248
826.948; 5771.254;   -9.214; 9381.347
827.513; 5410.879;  -10.774; 9450.726
828.079; 5321.470;  -11.924; 9472.444
828.645; 5307.328;  -10.543; 9292.643
829.210; 5290.520;  -10.533; 9065.341
829.776; 5281.099;  -10.753; 9132.620
830.341; 5299.032;  -10.173; 9092.878
830.906; 5464.361;  -10.743; 9078.557
831.472; 5502.663;  -11.113; 8534.535
832.037; 5059.632;  -10.603; 8677.874
832.602; 4904.111;  -13.323; 8628.692
833.167; 5242.241;  -10.823; 8879.031
833.733; 5254.855;  -10.113; 9189.790
834.298; 5097.605;  -13.583; 9052.608
834.863; 4979.117;  -12.703; 8895.087
835.428; 4788.463;  -10.523; 8824.266
835.993; 4599.734;   -6.963; 8845.385
836.558; 4587.752;  -10.763; 8888.563
837.123; 4734.554;   -9.903; 8966.582
837.688; 4665.750;   -9.913; 8617.860
838.253; 4593.493;  -10.283; 8590.699
838.817; 4769.829;  -12.963; 8443.797
839.382; 4963.319;  -14.243; 8799.356
839.947; 4763.599;  -10.733; 8810.595
840.511; 4691.425;   -9.383; 8796.394
841.076; 4758.958;  -12.563; 8347.231
841.641; 4582.179;  -12.953; 8224.330
842.205; 4240.946;   -7.043; 8223.349
842.770; 4170.996;   -8.163; 8622.107
843.334; 4285.343;  -12.503; 8410.386
843.898; 4351.451;  -11.693; 8337.465
844.463; 4269.568;  -10.203; 8506.283
845.027; 4157.542;   -9.533; 8280.962
845.591; 4242.617;  -13.443; 8231.141
846.156; 4197.560;  -13.143; 7969.179
846.720; 3937.421;   -9.433; 7768.278
847.284; 3512.533;  -11.033; 7630.957
847.848; 3320.226;  -10.403; 7472.395
848.412; 3427.766;  -11.553; 7437.394
848.976; 3677.746;   -8.393; 7674.592
849.540; 3785.322;   -8.713; 7836.011
850.104; 3751.373;  -12.463; 7913.669
850.668; 3814.456;  -12.973; 7694.508
851.232; 3806.909;  -10.793; 7756.887
851.796; 3732.706;  -10.662; 7926.545
852.359; 3782.117;  -13.082; 7827.844
852.923; 3570.425;  -12.192; 7641.163
853.487; 3425.651;  -11.912; 7342.501
854.050; 3563.705;  -10.892; 7042.820
854.614; 3524.199;  -13.992; 7151.338
855.177; 3354.454;  -11.732; 7105.077
855.741; 3287.841;   -8.962; 6989.675
856.304; 3249.615;   -9.442; 6596.634
856.868; 3057.002;  -14.192; 6356.272
857.431; 2875.231;  -12.702; 6468.571
857.995; 2958.934;   -9.942; 6373.210
858.558; 3006.176;   -9.112; 6324.448
859.121; 2737.815;  -12.932; 6408.327
859.684; 2531.152;  -13.442; 6347.886
860.247; 2841.574;  -10.632; 6321.264
860.810; 3264.114;  -11.272; 6301.903
861.374; 3352.326;   -9.832; 6607.881
861.937; 3340.160;  -11.762; 6408.200
862.500; 3271.916;   -9.722; 6572.639
863.062; 2953.149;  -10.512; 6387.297
863.625; 2720.935;  -11.232; 6190.836
864.188; 2641.552;  -14.112; 5807.254
864.751; 2592.368;  -11.302; 5682.413
865.314; 2726.352;  -10.112; 5547.492
865.876; 2918.201;  -12.182; 5500.150
866.439; 2979.985;  -10.722; 5415.909
867.002; 2871.740;   -9.252; 5501.567
867.564; 2740.464;   -9.572; 5413.946
868.127; 2590.117;  -13.142; 5160.325
868.689; 2284.704;  -12.902; 5133.183
869.252; 2077.379;   -9.732; 5252.382
869.814; 2074.383;   -9.432; 5297.141
870.377; 2234.725;  -11.552; 5390.919
870.939; 2271.123;   -9.052; 5599.898
871.501; 2184.777;  -10.982; 5248.336
872.063; 2219.916;  -12.292; 4854.235
872.626; 2218.895;  -14.912; 4817.074
873.188; 2279.488;  -13.112; 4987.732
873.750; 2349.893;  -13.442; 4868.651
874.312; 2484.885;   -9.402; 4779.330
874.874; 2681.633;  -11.062; 4866.348
875.436; 2460.989;  -13.931; 4718.887
875.998; 1816.561;   -9.561; 4660.005
876.560; 1283.741;  -11.321; 4462.964
877.122; 1018.519;  -12.221; 4145.042
877.683;  933.479;  -12.191; 4056.481
878.245; 1055.944;  -12.101; 3950.740
878.807; 1278.337;   -8.971; 4058.958
879.369; 1401.840;  -12.071; 3954.677
879.930; 1409.858;  -14.621; 3941.495
880.492; 1346.662;  -10.311; 4067.014
881.053; 1258.914;  -10.901; 3859.633
881.615; 1249.384;  -14.411; 3776.071
882.176; 1282.738;  -13.761; 3734.750
882.738; 1322.351;   -9.181; 3678.489
883.299; 1309.441;  -11.791; 3405.407
883.860; 1243.542;  -13.121; 3351.106
884.422; 1157.629;  -11.211; 3394.044
884.983; 1106.013;  -10.091; 3166.443
885.544; 1097.624;   -8.461; 3189.802
886.105; 1059.389;  -12.361; 3160.360
886.666; 1003.167;  -14.141; 3093.059
887.227;  981.722;  -11.361; 2941.957
887.788;  996.810;  -11.401; 2974.836
888.349;  962.742;  -13.791; 2721.214
888.910;  875.551;  -13.191; 2696.493
889.471;  779.562;   -9.881; 2560.172
890.032;  709.433;   -9.881; 2558.190
890.593;  700.420;  -10.371; 2567.669
891.153;  704.544;  -13.301; 2460.307
891.714;  650.680;  -11.431; 2372.046
892.275;  601.163;  -11.291; 2309.505
892.835;  600.881;  -11.471; 2382.543
893.396;  592.343;  -11.541; 2295.502
893.956;  567.727;  -11.181; 2162.420
894.517;  535.596;  -11.741; 2125.439
895.077;  484.449;  -11.671; 2086.978
895.638;  441.054;  -11.311; 2126.316
896.198;  427.552;   -9.831; 1838.275
896.758;  424.428;   -8.421; 1892.813
897.319;  414.759;  -12.351; 1792.232
897.879;  395.879;  -13.511; 1762.751
898.439;  374.120;  -12.001; 1661.149
898.999;  353.443;  -10.180; 1781.468
899.559;  338.672;  -12.030; 1703.347
900.119;  334.323;  -15.710; 1537.525
900.679;  322.740;   -8.900; 1638.384
901.239;  295.873;   -8.340; 1527.902
901.799;  276.268;  -13.910; 1456.441
902.359;  265.946;  -13.460; 1357.140
902.919;  261.353;  -11.490; 1331.118
903.479;  258.140;  -12.110; 1317.257
904.038;  251.098;  -11.720; 1262.595
904.598;  234.947;  -13.610; 1152.034
905.158;  222.561;  -11.040; 1240.893
905.717;  216.168;  -10.900; 1233.691
906.277;  210.939;  -15.080; 1217.330
906.836;  208.285;  -13.380; 1222.408
907.396;  206.046;  -10.780; 1193.047
907.955;  199.482;   -8.500; 1182.526
908.515;  191.872;  -12.760; 1099.364
909.074;  188.150;  -11.900; 1092.863
909.633;  185.190;   -8.950; 1069.121
910.192;  182.807;   -8.770; 1196.460
910.752;  176.336;  -12.390; 1029.960
911.311;  173.158;  -13.680; 1009.780
911.870;  169.039;  -12.370;  971.460
912.429;  166.087;  -10.900; 1094.080
912.988;  163.231;  -11.690; 1081.060
913.547;  159.553;  -13.240;  940.380
914.106;  158.587;  -11.990;  999.420
914.665;  157.636;   -9.990;  984.020
915.224;  156.018;  -12.880; 1035.760
915.782;  155.618;  -12.350;  922.560
916.341;  157.044;   -9.110; 1049.840
916.900;  153.090;   -9.270;  925.260
917.458;  147.433;  -13.240;  884.220
918.017;  143.350;  -13.550;  942.600
918.576;  142.371;  -12.320;  904.440
919.134;  141.688;  -11.490;  837.980
919.693;  141.970;  -13.670;  893.060
920.251;  140.947;  -15.470;  876.500
920.809;  141.781;  -11.290;  839.580
921.368;  141.456;  -10.210;  885.360
921.926;  140.994;  -12.140;  842.940
922.484;  140.089;  -13.080;  903.360
923.042;  141.555;  -11.720;  880.340
923.601;  141.927;   -7.480;  998.680
924.159;  141.074;  -11.570;  935.560
924.717;  138.657;  -13.840;  841.080
925.275;  142.895;  -10.640;  903.240
925.833;  140.956;  -11.540;  779.320
926.391;  142.050;  -12.960;  938.380
926.949;  141.469;  -14.130;  857.680
927.506;  141.257;  -11.750;  903.500
928.064;  140.783;  -10.250;  877.580
928.622;  139.776;  -13.030;  880.100
929.180;  140.284;  -13.400;  814.180
929.737;  141.993;  -10.700;  808.540
930.295;  142.282;  -10.070;  928.480
930.853;  142.611;  -11.960;  849.100
931.410;  141.299;  -13.120;  821.120
931.968;  142.574;  -10.770;  940.660
932.525;  143.376;  -10.680;  909.380
933.082;  146.103;  -13.130;  811.440
933.640;  152.594;  -13.210;  925.900
934.197;  154.811;  -11.060;  886.360
934.754;  155.382;   -9.580;  897.780
935.312;  155.217;  -14.000;  863.340
935.869;  159.481;  -10.710; 1012.980
936.426;  157.201;   -9.860;  872.800
936.983;  157.394;   -9.710;  889.020
937.540;  155.528;  -13.990;  838.280
938.097;  154.332;  -14.040;  940.120
938.654;  156.497;  -10.310;  898.860
939.211;  155.726;  -10.560;  952.480
939.768;  154.435;  -13.900;  915.420
940.324;  155.463;  -14.760;  904.200
940.881;  159.345;  -10.370;  878.500
941.438;  165.523;   -8.260; 1021.200
941.995;  164.882;  -12.540;  992.560
942.551;  164.256;  -14.670;  875.620
943.108;  165.985;  -10.450;  937.920
943.664;  166.158;  -10.750;  869.340
944.221;  170.330;  -11.550; 1088.140
944.777;  172.353;  -14.770;  869.680
945.334;  173.268;  -12.820;  884.840
945.890;  172.524;  -10.130;  946.480
946.446;  170.765;  -13.470;  947.020
947.003;  171.335;  -12.120;  964.940
947.559;  173.915;   -9.980; 1063.040
948.115;  171.522;   -9.080; 1026.540
948.671;  168.967;  -10.830;  967.300
949.227;  164.983;  -12.440;  859.560
949.783;  163.603;  -12.910;  858.900
950.339;  164.463;  -10.270;  991.000
950.895;  165.149;  -13.630; 1023.840
951.451;  162.798;  -15.100;  925.280
952.007;  164.241;  -11.330;  998.540
952.563;  163.556;  -10.580;  937.780
953.118;  159.219;  -13.440;  904.940
953.674;  155.672;  -12.710;  935.780
954.230;  155.765;  -10.350;  949.640
954.785;  158.901;   -9.190;  936.640
955.341;  158.728;  -11.200;  998.160
955.897;  155.420;  -16.560;  834.660
956.452;  153.128;  -12.570;  953.840
957.008;  151.156;   -7.970; 1083.640
957.563;  150.232;  -11.940; 1009.540
958.118;  149.868;  -13.450;  877.700
958.674;  150.186;  -12.030;  946.780
959.229;  149.705;   -9.410; 1013.980
959.784;  147.873;  -12.000;  832.400
960.339;  144.349;  -14.780; 1001.280
960.894;  137.474;   -9.860;  963.760
961.449;  131.978;   -9.970;  859.960
962.004;  131.039;  -10.900; 1212.840
962.559;  125.264;  -13.150;  860.140
963.114;  123.620;  -13.740;  742.480
963.669;  125.861;   -9.820;  915.500
964.224;  126.060;  -13.890;  874.340
964.779;  125.725;  -12.600;  828.420
965.334;  126.321;  -10.950; 1017.860
965.888;  122.473;  -11.170;  875.360
966.443;  122.393;  -12.540;  972.380
966.998;  121.884;  -15.780;  819.460
967.552;  122.902;   -9.760;  908.380
968.107;  118.157;   -9.060;  868.300
968.661;  116.721;  -11.950;  922.440
969.216;  114.914;  -12.800;  856.280
969.770;  115.420;  -11.210;  917.200
970.324;  114.242;  -11.610;  923.140
970.879;  110.706;  -11.370;  947.180
971.433;  110.209;  -12.540;  952.720
971.987;  108.179;  -11.320;  895.340
972.541;  107.605;  -10.720;  917.100
973.095;  109.279;   -9.680; 1009.460
973.649;  108.587;  -11.440;  809.480
974.203;  108.118;  -11.210;  829.040
974.757;  107.872;  -10.240;  855.220
975.311;  107.280;  -13.720;  872.600
975.865;  107.910;  -13.770;  881.820
976.419;  107.676;  -11.690;  857.400
976.973;  107.955;   -9.510;  849.620
977.526;  107.332;  -12.620;  949.920
978.080;  103.721;  -12.010;  796.780
978.634;  102.964;  -10.170;  921.320
979.187;   99.351;   -9.020;  905.400
979.741;   99.037;   -9.820; 1018.380
980.294;   94.420;  -14.870;  789.160
980.848;   90.997;  -12.380;  717.220
981.401;   90.878;  -10.350;  816.540
981.955;   90.675;  -13.720;  844.300
982.508;   87.913;  -11.490;  746.340
983.061;   88.296;  -10.000;  915.260
983.615;   86.375;  -11.480;  798.800
984.168;   85.093;  -13.220;  770.080
984.721;   85.619;  -13.960;  880.760
985.274;   84.034;  -10.870;  867.500
985.827;   82.044;   -9.790;  834.220
986.380;   80.633;  -13.120;  721.340
986.933;   81.209;  -12.450;  864.800
987.486;   81.009;  -10.210;  861.920
988.039;   80.472;   -8.430;  863.100
988.591;   77.782;  -10.520;  893.260
989.144;   74.415;  -14.860;  737.260
989.697;   73.768;  -13.080;  758.740
990.250;   71.161;  -10.150;  858.100
990.802;   68.855;  -13.430;  755.860
991.355;   69.047;  -12.750;  974.880
991.907;   66.299;  -12.040;  864.320
992.460;   63.552;  -11.330;  753.760
993.012;   62.278;  -13.610;  749.540
993.565;   61.695;  -13.460;  711.360
994.117;   62.807;   -9.360;  950.780
994.669;   60.562;  -11.300;  701.320
995.221;   58.968;  -13.540;  791.920
995.774;   59.378;  -13.430;  787.580
996.326;   58.580;  -12.520;  740.220
996.878;   58.799;  -10.950;  838.420
997.430;   56.755;  -14.300;  699.860
997.982;   55.361;  -13.760;  750.140
998.534;   54.050;  -11.530;  739.060
999.086;   53.451;  -10.310;  738.220
999.638;   51.987;  -12.530;  661.380
1000.190;   51.335;  -11.840;  699.320
1000.741;   50.785;  -10.260;  742.700
1001.293;   50.296;   -8.860;  686.020
1001.845;   49.446;  -13.700;  676.640
1002.396;   50.091;  -12.100;  743.400
1002.948;   49.894;  -12.760;  737.400
1003.500;   48.113;  -10.380;  723.780
1004.051;   48.565;  -11.900;  907.580
1004.603;   47.803;  -12.250;  791.820
1005.154;   44.879;  -13.210;  608.980
1005.705;   43.733;  -10.950;  723.960
1006.257;   42.871;  -13.880;  707.220
1006.808;   42.020;  -12.840;  685.460
1007.359;   42.443;  -10.570;  763.240
1007.910;   40.557;   -9.620;  646.640
1008.461;   39.926;  -13.630;  732.940
1009.013;   39.433;  -17.200;  588.340
1009.564;   40.463;  -10.200;  793.520
1010.115;   38.559;  -12.570;  597.040
1010.665;   37.671;  -15.150;  602.160
1011.216;   37.314;  -14.480;  667.920
1011.767;   37.836;  -11.340;  697.920
1012.318;   37.477;   -9.780;  736.980
1012.869;   36.054;  -12.380;  679.000
1013.419;   36.207;  -15.560;  603.120
1013.970;   36.413;  -11.010;  666.640
1014.521;   35.678;  -11.610;  620.620
1015.071;   35.310;  -13.450;  670.380
1015.622;   35.855;  -13.870;  635.460
1016.172;   35.326;  -11.610;  596.820
1016.723;   34.713;  -12.120;  614.380
1017.273;   34.294;  -13.620;  604.160
1017.823;   34.746;  -14.140;  650.340
1018.374;   34.590;  -12.800;  611.760
1018.924;   33.711;  -12.340;  716.880
1019.474;   34.206;  -11.410;  718.880
1020.024;   32.588;  -14.770;  657.580
1020.574;   34.162;   -9.780;  726.160
1021.124;   33.488;   -8.560;  673.580
1021.674;   31.484;  -15.190;  559.120
1022.224;   33.681;  -13.530;  708.940
1022.774;   32.964;  -13.280;  668.820
1023.324;   33.353;  -10.690;  753.520
1023.874;   34.137;  -10.240;  875.760
1024.423;   31.860;  -12.540;  613.700
1024.973;   31.564;  -10.010;  610.760
1025.523;   30.255;  -10.550;  620.960
1026.072;   30.436;  -13.560;  606.420
1026.622;   28.810;  -15.120;  675.740
1027.172;   31.615;  -11.260;  715.660
1027.721;   29.144;  -11.410;  601.220
1028.270;   30.268;  -13.530;  663.400
1028.820;   30.187;  -13.680;  638.080
1029.369;   30.357;  -13.520;  612.700
1029.918;   29.762;  -10.980;  649.840
1030.468;   29.213;  -13.530;  564.780
1031.017;   29.681;  -13.170;  634.800
1031.566;   29.258;  -12.200;  608.900
1032.115;   29.126;   -9.960;  694.500
1032.664;   27.747;  -13.210;  596.480
1033.213;   28.970;  -12.500;  735.420
1033.762;   28.100;  -11.910;  635.620
1034.311;   27.899;   -9.640;  677.220
1034.860;   27.922;  -13.310;  691.000
1035.408;   28.161;  -11.830;  722.720
1035.957;   28.528;  -12.000;  719.540
1036.506;   25.776;  -11.690;  530.800
1037.055;   29.107;  -10.990;  844.320
1037.603;   27.508;  -15.120;  664.000
1038.152;   25.570;  -12.450;  534.760
1038.700;   26.642;  -10.560;  585.740
1039.249;   26.350;  -11.080;  681.220
1039.797;   25.682;  -12.540;  633.360
1040.345;   26.248;  -11.920;  705.420
1040.894;   25.442;  -11.410;  625.300
1041.442;   24.975;  -14.320;  632.200
1041.990;   24.506;  -16.240;  559.160
1042.538;   24.324;  -11.680;  536.180
1043.087;   24.682;  -10.760;  570.860
1043.635;   25.970;  -11.850;  670.500
1044.183;   24.513;  -15.480;  586.400
1044.731;   24.208;  -11.770;  576.000
1045.279;   23.890;  -13.090;  674.920
1045.827;   25.270;  -12.440;  892.400
1046.374;   23.166;  -13.840;  515.420
1046.922;   22.914;  -13.220;  590.580
1047.470;   24.491;  -10.230;  691.300
1048.018;   23.311;  -14.590;  647.960
1048.565;   24.642;  -12.050;  708.600
1049.113;   22.828;  -11.650;  557.000
1049.660;   22.714;  -10.510;  629.660
1050.208;   23.298;  -13.310;  675.640
1050.755;   22.215;  -15.900;  606.580
1051.303;   23.448;  -11.430;  686.820
1051.850;   22.388;   -8.480;  635.120
1052.397;   19.936;  -15.010;  473.960
1052.945;   21.296;  -13.960;  617.760
1053.492;   23.273;  -13.150;  741.840
1054.039;   23.234;   -9.630;  720.180
1054.586;   21.228;  -13.680;  557.240
1055.133;   22.255;  -14.570;  693.140
1055.680;   22.100;  -13.820;  646.620
1056.227;   21.355;  -11.730;  542.780
1056.774;   21.916;  -12.480;  794.980
1057.321;   19.890;  -13.930;  523.260
1057.868;   20.765;  -11.690;  651.320
1058.415;   20.254;   -9.520;  651.980
1058.961;   20.418;  -13.160;  678.940
1059.508;   20.127;  -12.920;  643.820
1060.055;   20.887;  -11.920;  581.780
1060.601;   20.940;  -11.500;  624.300
1061.148;   20.839;  -14.330;  616.820
1061.694;   19.569;  -16.870;  592.580
1062.241;   20.166;  -10.330;  596.320
1062.787;   20.353;  -10.620;  663.140
1063.334;   21.380;  -10.110;  808.560
1063.880;   19.782;  -13.400;  668.360
1064.426;   19.905;  -10.680;  706.820
1064.972;   18.820;   -9.920;  601.340
1065.518;   17.635;  -10.980;  566.640
1066.065;   18.346;  -14.890;  624.460
1066.611;   18.086;  -12.870;  598.800
1067.157;   18.656;  -12.950;  641.860
1067.703;   18.176;  -13.540;  668.480
1068.249;   17.865;  -13.540;  605.220
1068.794;   18.903;  -12.600;  626.880
1069.340;   16.976;  -10.620;  578.960
1069.886;   18.280;  -12.830;  590.700
1070.432;   16.752;  -14.870;  541.720
1070.977;   17.134;  -11.980;  601.080
1071.523;   17.556;   -8.200;  573.060
1072.068;   16.769;  -12.330;  582.000
1072.614;   16.890;  -16.370;  527.760
1073.160;   17.624;  -11.100;  687.040
1073.705;   16.182;  -10.480;  572.520
1074.250;   16.014;  -14.520;  559.900
1074.796;   17.848;  -11.460;  655.160
1075.341;   17.383;  -11.950;  664.100
1075.886;   16.266;  -11.460;  594.240
1076.431;   16.546;  -13.770;  649.880
1076.976;   16.494;  -12.680;  639.220
1077.521;   16.311;  -13.170;  583.080
1078.067;   14.755;  -10.860;  579.400
1078.612;   15.710;  -13.920;  661.620
1079.156;   15.349;  -13.880;  601.540
1079.701;   15.888;  -13.120;  693.260
1080.246;   16.463;   -9.940;  696.300
1080.791;   15.387;  -14.740;  625.020
1081.336;   15.844;  -13.750;  659.320
1081.880;   15.631;  -13.400;  649.680
1082.425;   14.139;  -12.220;  573.480
1082.970;   16.318;  -11.610;  717.040
1083.514;   14.256;  -13.580;  597.000
1084.059;   13.751;  -12.810;  586.720
1084.603;   14.026;  -12.320;  565.840
1085.147;   14.194;  -13.190;  645.220
1085.692;   14.991;  -12.480;  716.800
1086.236;   13.500;  -13.020;  503.140
1086.780;   15.124;   -9.190;  751.440
1087.325;   14.601;  -12.480;  654.620
1087.869;   14.036;  -12.450;  610.700
1088.413;   14.014;  -12.240;  705.040
1088.957;   13.135;   -9.020;  543.400
1089.501;   14.261;  -10.320;  766.640
1090.045;   13.745;  -12.720;  726.480
1090.589;   12.308;  -13.690;  569.920
1091.133;   13.256;  -10.020;  673.340
1091.676;   13.247;  -12.330;  591.940
1092.220;   12.485;  -14.970;  600.920
1092.764;   13.886;  -12.430;  706.960
1093.307;   12.826;   -9.800;  673.780
1093.851;   12.086;  -14.970;  556.540
1094.395;   13.336;  -15.310;  683.140
1094.938;   12.614;  -10.370;  632.520
1095.482;   12.069;  -11.050;  559.800
1096.025;   13.174;  -11.840;  710.880
1096.568;   13.168;  -12.840;  779.280
1097.112;   10.736;  -14.700;  508.180
1097.655;   12.342;   -8.720;  603.000
1098.198;   10.192;  -13.610;  600.180
1098.741;   11.134;  -13.350;  612.860
1099.285;   12.272;  -11.230;  657.300
1099.828;   10.232;  -11.840;  439.400
1100.371;   11.062;  -10.840;  608.160
1100.914;   11.332;  -14.190;  682.660
1101.457;   11.645;  -11.240;  679.900
1101.999;   10.215;  -11.270;  584.680
1102.542;   11.083;  -11.480;  641.440
1103.085;   10.613;  -11.750;  658.500
1103.628;   11.296;  -11.400;  762.060
1104.170;    9.915;  -10.490;  588.280
1104.713;   10.698;  -10.600;  646.700
1105.256;    9.255;  -14.360;  557.440
1105.798;    9.595;  -13.210;  499.980
1106.341;   11.218;  -10.270;  728.900
1106.883;    9.568;  -12.200;  521.340
1107.425;   10.003;  -13.110;  668.180
1107.968;    9.600;  -12.840;  612.380
1108.510;   10.662;   -6.480;  684.960
1109.052;    8.153;  -13.940;  612.620
1109.594;    8.304;  -13.690;  554.440
1110.136;    9.616;  -11.880;  643.220
1110.679;    8.664;   -9.500;  633.080
1111.221;    9.346;  -14.160;  604.460
1111.763;    7.862;  -13.980;  559.220
1112.304;    8.212;  -13.880;  547.140
1112.846;    9.696;  -12.210;  666.240
1113.388;   11.833;  -11.390;  942.180
1113.930;    9.313;  -14.540;  694.200
1114.472;    7.981;  -12.640;  606.540
1115.013;    7.096;  -11.620;  551.280
1115.555;    6.829;  -13.640;  587.100
1116.097;    6.540;  -15.380;  579.480
1116.638;    8.237;  -12.640;  684.600
1117.180;    8.693;   -9.850;  667.740
1117.721;    6.932;  -13.690;  568.580
1118.262;    8.678;  -12.680;  677.960
1118.804;    8.419;  -12.530;  637.340
1119.345;    7.598;  -11.690;  578.400
1119.886;    8.016;  -13.380;  704.040
1120.427;    6.186;  -14.070;  589.020
1120.969;    6.110;  -13.500;  597.920
1121.510;    5.962;  -11.480;  563.060
1122.051;    6.560;  -12.830;  723.580
1122.592;    5.999;  -14.290;  655.420
1123.133;    5.890;  -12.400;  547.940
1123.673;    6.986;  -10.130;  706.480
1124.214;    5.882;  -12.930;  612.460
1124.755;    6.912;  -14.380;  639.460
1125.296;    6.297;  -14.000;  627.320
1125.836;    7.283;  -10.070;  691.500
1126.377;    6.119;  -12.640;  599.660
1126.918;    6.647;  -12.960;  614.980
1127.458;    5.508;  -13.350;  622.220
1127.999;    6.097;  -10.750;  656.980
1128.539;    5.323;  -12.350;  694.240
1129.079;    4.842;  -14.860;  632.720
1129.620;    4.978;  -13.840;  558.100
1130.160;    4.723;  -12.330;  539.480
1130.700;    5.538;  -14.530;  640.840
1131.240;    5.888;  -12.530;  643.700
1131.781;    5.440;  -14.450;  619.680
1132.321;    5.099;   -9.790;  599.120
1132.861;    4.040;  -14.860;  564.200
1133.401;    3.944;  -14.290;  593.940
1133.941;    5.384;  -11.750;  626.280
1134.481;    4.671;   -9.920;  597.580
1135.020;    3.698;  -12.290;  609.160
1135.560;    4.060;  -11.650;  674.940
1136.100;    2.745;  -16.270;  501.160
1136.640;    3.244;  -10.890;  510.480
1137.179;    3.757;  -14.180;  537.960
1137.719;    4.627;  -16.250;  605.400
1138.258;    4.069;  -14.230;  587.360
1138.798;    4.512;   -9.090;  663.780
1139.337;    3.263;  -15.130;  482.840
1139.877;    4.292;  -13.680;  642.360
1140.416;    5.940;  -11.320;  878.060
1140.955;    3.012;  -10.860;  535.380
1141.494;    3.179;  -12.920;  669.280
1142.034;    2.176;  -13.930;  583.520
1142.573;    3.964;  -11.440;  646.280
1143.112;    2.860;  -12.000;  553.480
1143.651;    2.855;  -13.670;  536.480
1144.190;    3.963;  -12.730;  691.640
1144.729;    3.618;  -14.560;  607.420
1145.267;    3.106;  -11.830;  584.900
1145.806;    3.769;  -12.230;  637.040
1146.345;    2.213;  -14.130;  635.020
1146.884;    2.606;  -11.590;  622.500
1147.422;    1.636;  -12.550;  533.060
1147.961;    3.984;  -11.180;  708.460
1148.500;    3.388;  -11.510;  669.720
1149.038;    3.319;  -11.640;  632.500
1149.577;    2.530;  -10.130;  698.640
1150.115;    0.351;  -13.970;  452.280
1150.653;    2.251;  -14.520;  607.340
1151.192;    3.092;  -12.810;  552.920
1151.730;    2.769;   -9.100;  652.560
1152.268;    1.708;  -12.220;  589.520
1152.806;    1.655;  -14.140;  571.180
1153.344;    0.663;  -12.350;  577.640
1153.882;    2.424;   -8.980;  600.060
1154.421;    0.244;  -15.190;  470.620
1154.958;    0.891;  -15.210;  595.240
1155.496;    2.333;  -12.850;  645.280
1156.034;    1.485;   -9.940;  721.880
1156.572;    1.996;  -13.570;  667.060
1157.110;    0.667;  -14.590;  473.940
1157.647;    1.904;  -13.030;  676.960
1158.185;    0.969;  -12.140;  564.320
1158.723;   -0.562;  -14.390;  509.200
1159.260;    1.543;  -14.090;  701.700
1159.798;    1.653;  -11.920;  658.160
1160.335;    0.314;  -11.110;  631.820

