
Integration time [ms]:   3.276
Averaging Nr. [scans]: 1000
Smoothing Nr. [pixels]: 0
Data measured with spectrometer [name]: 7414430SP
Wave   ;Sample   ;Dark     ;Reference
[nm]   ;[counts] ;[counts] ;[counts] 

288.544;  158.962;    7.793;  793.890
289.143;  161.727;    7.462;  681.602
289.742;  163.814;    8.602;  828.814
290.341;  151.208;    1.321;  789.841
290.940;  140.468;   -0.709;  730.702
291.538;  141.076;    0.881;  881.108
292.137;  140.859;    0.122;  792.581
292.736;  144.164;   -1.929;  975.101
293.335;  139.563;   -8.229;  735.086
293.934;  140.122;   -5.279;  781.677
294.532;  140.216;   -1.369; 1031.958
295.131;  126.457;   -7.641;  834.394
295.730;  126.160;   -8.420;  809.588
296.328;  123.455;   -5.611;  783.442
296.927;  123.994;   -5.781;  779.652
297.525;  125.284;   -6.361;  781.236
298.124;  115.284;  -11.382;  654.009
298.722;  119.288;   -7.641;  761.933
299.321;  117.001;   -6.811;  708.597
299.919;  114.999;   -6.991;  751.918
300.518;  110.936;  -10.362;  689.338
301.116;  111.599;   -9.581;  691.381
301.715;  113.604;   -4.891;  730.222
302.313;  112.274;   -8.801;  704.943
302.911;  106.814;   -8.522;  733.830
303.509;  111.169;   -6.171;  925.627
304.108;  109.733;   -7.311;  760.383
304.706;  109.335;   -8.321;  801.664
305.304;  103.293;  -10.222;  796.707
305.902;  107.584;   -6.021;  784.484
306.500;  104.697;   -4.971;  728.200
307.098;  101.965;   -7.061;  746.560
307.696;  100.660;   -8.801;  780.432
308.294;  100.380;   -6.411;  731.359
308.892;  102.660;   -2.901;  759.769
309.490;   98.782;   -5.041;  712.161
310.088;   96.501;   -5.002;  788.444
310.686;  100.702;   -2.041;  821.749
311.284;   96.769;   -2.351;  766.040
311.882;   95.217;   -4.422;  731.225
312.480;   90.471;   -4.192;  697.167
313.078;   92.358;   -1.172;  808.331
313.675;   93.517;   -2.601;  691.600
314.273;   89.124;   -1.312;  797.837
314.871;   87.108;   -3.942;  589.829
315.468;   85.419;   -2.802;  652.090
316.066;   89.380;   -0.701;  694.427
316.664;   80.875;   -4.362;  656.351
317.261;   85.424;   -2.872;  910.128
317.859;   81.161;   -2.022;  768.735
318.456;   81.016;   -0.531;  830.096
319.054;   77.351;   -3.912;  787.828
319.651;   76.215;   -4.752;  759.928
320.249;   73.624;   -2.602;  810.188
320.846;   72.211;   -0.821;  714.286
321.443;   70.051;   -4.642;  832.135
322.041;   66.677;   -5.002;  812.315
322.638;   64.236;   -3.982;  701.456
323.235;   65.970;   -3.411;  665.683
323.833;   62.490;   -7.361;  740.354
324.430;   57.321;   -8.611;  615.900
325.027;   57.250;   -4.061;  876.855
325.624;   57.844;   -4.031;  644.532
326.221;   56.104;   -7.481;  689.717
326.818;   53.874;   -5.281;  818.332
327.415;   56.810;   -7.460;  748.828
328.012;   56.758;   -5.510;  690.585
328.609;   54.948;   -7.880;  731.389
329.206;   52.313;   -8.331;  778.621
329.803;   52.854;   -5.121;  737.841
330.400;   56.269;   -4.510;  704.260
330.997;   58.244;   -6.441;  817.147
331.594;   55.934;   -8.831;  788.185
332.191;   60.023;   -7.621;  728.722
332.787;   63.485;   -4.591;  844.463
333.384;   63.892;   -7.412;  763.093
333.981;   62.450;   -8.293;  815.687
334.578;   65.758;   -7.052;  708.378
335.174;   68.209;   -3.102;  731.469
335.771;   68.674;   -5.943;  836.456
336.367;   65.164;   -7.393;  710.631
336.964;   67.934;   -4.063;  793.266
337.561;   66.670;   -3.813;  731.112
338.157;   62.316;   -4.654;  911.916
338.754;   60.840;   -7.934;  796.589
339.350;   58.473;   -4.414;  722.493
339.946;   60.082;   -4.664;  773.135
340.543;   52.918;   -6.375;  846.136
341.139;   46.743;   -9.815;  720.836
341.735;   43.089;   -4.526;  772.593
342.332;   42.062;   -4.895;  691.472
342.928;   42.684;   -4.295;  795.394
343.524;   36.366;   -5.476;  761.684
344.120;   30.810;   -5.856;  738.562
344.716;   35.557;   -2.155;  723.717
345.313;   33.803;   -6.275;  795.342
345.909;   27.003;   -8.815;  627.336
346.505;   28.581;   -5.305;  740.247
347.101;   29.114;   -2.674;  827.864
347.697;   29.977;   -4.344;  785.398
348.293;   24.678;   -9.975;  627.244
348.889;   25.432;   -5.774;  745.914
349.485;   24.639;   -5.004;  688.205
350.081;   25.332;   -4.704;  772.592
350.676;   20.575;   -6.635;  691.606
351.272;   24.708;   -4.504;  809.530
351.868;   24.397;   -3.914;  780.497
352.464;   21.933;   -9.044;  723.932
353.059;   18.003;   -8.314;  646.017
353.655;   20.709;   -7.024;  777.063
354.251;   21.970;   -5.343;  759.845
354.846;   16.652;   -8.604;  740.646
355.442;   14.651;   -6.945;  753.071
356.038;   16.434;   -7.564;  751.708
356.633;   16.584;   -5.814;  728.594
357.229;   14.157;   -7.364;  724.757
357.824;   12.408;   -8.024;  703.600
358.420;   11.572;   -9.384;  679.726
359.015;   12.822;   -5.104;  695.357
359.610;   13.566;   -6.854;  763.920
360.206;    7.537;  -10.185;  603.240
360.801;    9.660;   -7.054;  646.503
361.396;   12.485;   -5.034;  725.975
361.992;    7.814;   -8.284;  668.220
362.587;    4.334;   -8.625;  670.160
363.182;    5.920;   -7.674;  689.631
363.777;    7.919;   -5.164;  738.242
364.372;    6.679;   -8.604;  737.314
364.967;    3.538;   -9.055;  680.744
365.563;    7.262;   -6.114;  815.567
366.158;    4.992;   -5.814;  685.161
366.753;    5.616;   -7.854;  649.263
367.348;    3.220;   -7.804;  746.056
367.942;    2.054;   -7.954;  697.298
368.537;    2.590;   -4.984;  754.245
369.132;    2.342;   -8.564;  703.428
369.727;   -1.640;   -8.855;  638.079
370.322;   -1.102;   -6.245;  580.186
370.917;   -1.001;   -6.425;  710.646
371.511;    2.326;   -6.294;  861.834
372.106;   -1.694;   -7.685;  776.964
372.701;   -4.920;   -7.335;  585.988
373.296;    0.699;   -4.564;  863.135
373.890;   -3.950;  -10.235;  647.840
374.485;   -6.553;   -7.885;  691.199
375.079;   -2.723;   -7.324;  738.685
375.674;   -0.938;   -3.494;  812.970
376.268;   -5.192;   -8.525;  691.759
376.863;  -11.148;  -10.086;  580.327
377.457;   -5.545;   -7.025;  662.490
378.052;   -6.377;   -3.585;  764.884
378.646;   -7.574;   -7.595;  741.167
379.240;   -8.573;   -8.335;  721.176
379.835;   -7.778;   -5.785;  636.978
380.429;   -9.593;   -4.335;  562.557
381.023;   -8.949;   -6.805;  779.205
381.617;  -11.707;   -9.195;  680.106
382.212;   -8.645;   -6.905;  685.303
382.806;   -7.087;   -3.745;  760.690
383.400;  -12.047;   -7.745;  672.281
383.994;  -12.296;   -9.765;  664.870
384.588;   -8.859;   -6.564;  697.701
385.182;   -7.849;   -5.344;  726.624
385.776;   -8.460;   -8.514;  706.875
386.370;  -12.613;   -9.555;  681.968
386.964;  -11.902;   -8.715;  684.155
387.558;   -9.127;   -6.174;  598.360
388.152;  -12.603;   -8.725;  681.959
388.745;  -11.600;   -7.965;  814.707
389.339;  -10.028;   -5.924;  747.642
389.933;   -8.448;   -5.524;  695.370
390.527;   -9.726;   -7.114;  859.029
391.120;  -15.936;  -10.725;  595.318
391.714;  -13.164;   -8.035;  711.633
392.308;   -9.853;   -3.574;  780.253
392.901;  -13.387;   -7.245;  642.460
393.495;  -15.896;   -9.285;  595.414
394.089;  -13.739;   -5.895;  760.452
394.682;  -13.803;   -4.295;  697.188
395.275;  -13.833;   -9.875;  719.927
395.869;  -16.153;   -8.485;  667.314
396.462;  -14.411;   -7.455;  616.609
397.056;   -9.919;   -5.424;  776.621
397.649;  -14.389;   -6.605;  731.575
398.242;  -13.040;   -8.224;  712.645
398.836;  -11.822;   -7.474;  766.408
399.429;  -12.288;   -7.094;  631.041
400.022;  -16.663;   -9.475;  665.902
400.615;  -14.005;   -7.145;  805.609
401.208;  -11.847;   -7.174;  691.451
401.802;  -13.996;   -5.515;  699.329
402.395;  -15.410;   -9.875;  683.502
402.988;  -16.603;   -8.845;  696.627
403.581;  -13.806;   -8.874;  646.878
404.174;  -10.312;   -5.324;  686.568
404.767;  -13.595;   -9.575;  638.583
405.360;  -17.835;  -10.965;  621.445
405.953;  -11.866;   -8.764;  759.034
406.545;  -10.511;   -7.514;  725.342
407.138;  -14.002;  -10.025;  618.350
407.731;  -13.690;  -10.034;  613.303
408.324;   -9.568;   -9.374;  660.554
408.917;  -10.136;   -6.534;  681.864
409.509;  -11.854;   -8.004;  740.396
410.102;  -14.482;   -9.875;  643.948
410.695;   -8.612;   -8.604;  665.758
411.287;   -9.398;   -6.794;  599.821
411.880;  -11.064;   -9.334;  585.421
412.472;  -13.442;  -10.254;  613.092
413.065;  -11.381;   -6.714;  629.408
413.657;   -8.660;   -7.234;  576.678
414.250;   -8.790;  -10.544;  646.681
414.842;  -10.529;   -9.744;  676.353
415.434;   -8.458;   -6.994;  570.463
416.027;   -4.424;   -5.893;  652.196
416.619;   -6.326;   -7.264;  713.400
417.211;   -6.440;  -10.374;  599.352
417.804;   -3.312;   -7.993;  628.499
418.396;   -7.544;   -7.234;  607.643
418.988;   -4.464;   -9.443;  659.238
419.580;   -8.741;  -10.724;  568.276
420.172;   -6.442;  -10.323;  536.196
420.764;   -2.063;   -8.793;  672.482
421.356;   -2.823;  -11.143;  636.898
421.948;   -4.616;   -8.293;  677.661
422.540;    1.132;   -7.893;  680.027
423.132;    0.735;   -7.082;  600.641
423.724;   -2.417;   -8.653;  561.267
424.316;   -0.823;  -10.213;  621.345
424.908;    2.370;   -9.762;  591.517
425.500;    2.935;   -5.572;  647.978
426.092;    4.110;   -8.422;  648.268
426.683;    2.705;   -9.283;  684.836
427.275;    4.883;   -7.852;  641.471
427.867;    7.012;   -5.272;  668.948
428.458;    8.078;   -7.682;  732.344
429.050;    5.670;  -10.612;  680.749
429.642;    7.037;   -9.882;  743.124
430.233;    8.659;   -6.962;  569.356
430.825;    9.621;   -6.842;  724.809
431.416;    7.285;   -9.672;  698.241
432.008;   10.460;   -6.552;  651.723
432.599;   11.526;   -6.891;  656.073
433.190;    8.249;  -10.912;  637.670
433.782;    7.914;  -11.172;  590.395
434.373;   15.330;   -6.061;  884.765
434.964;   14.153;   -8.251;  602.920
435.556;   11.604;   -9.722;  634.537
436.147;   14.128;   -9.082;  758.490
436.738;   13.322;   -8.041;  701.099
437.329;   19.777;   -7.341;  721.723
437.920;   12.071;   -8.162;  666.688
438.511;   12.026;  -11.802;  564.526
439.103;   18.934;  -10.191;  623.998
439.694;   20.905;   -7.601;  681.583
440.285;   21.748;   -8.541;  764.432
440.876;   19.488;   -9.751;  845.738
441.466;   18.793;   -9.401;  575.162
442.057;   24.571;   -7.760;  665.814
442.648;   23.680;   -9.971;  746.255
443.239;   21.248;  -11.001;  620.477
443.830;   26.197;   -7.990;  704.958
444.421;   28.872;   -7.910;  655.474
445.011;   24.624;   -8.131;  693.619
445.602;   24.117;   -7.111;  743.126
446.193;   25.453;  -10.920;  488.117
446.783;   30.512;   -6.500;  640.397
447.374;   25.940;   -8.671;  692.759
447.964;   26.677;  -10.781;  713.770
448.555;   34.918;   -9.650;  822.742
449.145;   32.217;   -8.660;  662.853
449.736;   32.804;   -8.990;  803.179
450.326;   31.923;   -9.500;  713.626
450.917;   36.923;   -8.680;  675.324
451.507;   36.300;   -7.520;  600.661
452.097;   36.960;   -8.590;  746.267
452.688;   38.031;  -11.340;  742.160
453.278;   37.813;  -10.100;  566.840
453.868;   41.257;   -6.019;  793.550
454.458;   40.642;   -9.440;  651.141
455.048;   41.313;  -10.560;  711.783
455.639;   41.850;  -11.799;  567.096
456.229;   45.704;   -6.899;  710.694
456.819;   48.029;   -7.389;  751.158
457.409;   48.181;  -11.119;  773.993
457.999;   49.995;   -9.289;  737.505
458.589;   50.065;   -6.139;  686.606
459.179;   50.212;   -8.729;  717.658
459.769;   48.125;   -9.789;  627.099
460.358;   52.962;  -10.259;  797.262
460.948;   52.524;   -7.299;  689.503
461.538;   55.228;  -10.289;  660.677
462.128;   52.569;  -11.269;  664.934
462.717;   59.205;   -9.368;  710.326
463.307;   61.850;   -7.908;  705.846
463.897;   58.450;   -9.599;  656.942
464.486;   57.456;   -9.769;  837.128
465.076;   61.426;   -8.048;  733.776
465.666;   65.229;   -9.358;  652.900
466.255;   63.521;   -7.919;  785.651
466.845;   63.211;  -11.689;  666.749
467.434;   65.519;   -7.818;  725.873
468.023;   66.150;   -7.678;  658.357
468.613;   63.802;  -10.939;  713.946
469.202;   68.737;  -10.118;  646.507
469.791;   72.611;   -9.108;  737.811
470.381;   74.324;   -6.058;  742.813
470.970;   74.917;  -10.428;  711.099
471.559;   73.639;  -10.268;  733.291
472.148;   77.225;   -8.448;  675.737
472.738;   79.835;   -6.917;  765.466
473.327;   79.268;  -11.978;  637.529
473.916;   77.926;  -11.888;  737.446
474.505;   81.764;   -9.437;  751.703
475.094;   86.251;   -6.747;  806.570
475.683;   85.645;   -9.367;  797.699
476.272;   86.731;  -12.637;  730.632
476.861;   89.268;  -10.027;  706.754
477.449;   95.466;   -8.716;  728.487
478.038;   89.999;   -9.577;  692.513
478.627;   91.544;   -9.718;  714.852
479.216;   96.866;   -8.947;  769.441
479.805;  101.077;   -6.256;  783.375
480.393;  100.174;   -7.937; 1008.945
480.982;  100.360;   -7.717;  874.501
481.571;  105.856;   -9.266;  858.333
482.159;  107.435;   -7.636;  705.386
482.748;  107.420;   -9.667;  821.385
483.336;  111.485;  -10.376;  858.209
483.925;  112.260;   -7.147;  774.373
484.513;  118.881;   -7.996;  758.962
485.102;  115.659;  -10.027;  810.965
485.690;  123.800;  -10.446; 1011.050
486.278;  125.649;   -8.446;  979.329
486.867;  126.846;   -6.356;  809.662
487.455;  128.127;   -9.136;  898.229
488.043;  130.425;  -10.646;  748.361
488.631;  138.309;   -7.456; 1005.079
489.220;  142.966;   -6.636;  908.626
489.808;  143.869;  -11.036;  741.415
490.396;  150.857;  -10.246;  914.645
490.984;  157.539;   -8.556;  830.161
491.572;  168.356;   -5.886;  940.315
492.160;  176.111;   -9.486;  919.081
492.748;  186.162;  -10.976;  884.341
493.336;  208.037;   -8.776; 1019.693
493.924;  237.539;   -5.465;  958.077
494.512;  272.955;   -9.986; 1066.638
495.100;  313.607;  -10.636; 1103.280
495.687;  375.174;  -10.885; 1206.373
496.275;  452.949;   -8.126; 1150.796
496.863;  533.150;  -10.586; 1281.171
497.451;  642.752;  -11.926; 1386.805
498.038;  747.051;  -10.885; 1556.729
498.626;  867.185;   -6.315; 1741.407
499.214; 1066.964;   -7.326; 2016.609
499.801; 1296.129;  -11.906; 2220.633
500.389; 1592.018;  -10.466; 2312.494
500.976; 1875.948;   -5.236; 2744.849
501.564; 2335.181;   -8.936; 3148.565
502.151; 2973.075;  -13.176; 3515.999
502.738; 3345.774;  -10.646; 3971.274
503.326; 3767.904;   -9.525; 4403.796
503.913; 4234.690;  -10.856; 5161.749
504.500; 4635.686;  -11.586; 5986.420
505.088; 5194.353;  -10.336; 6381.201
505.675; 6077.524;   -6.355; 6925.547
506.262; 6700.175;   -9.046; 7619.060
506.849; 7084.382;  -10.416; 8733.969
507.436; 7530.400;  -10.305; 9790.121
508.023; 7944.142;   -5.496; 9985.472
508.610; 8059.636;   -7.856;10434.618
509.197; 9030.901;  -10.097;11198.435
509.784;10334.581;  -10.886;12391.194
510.371;11743.416;   -9.315;13603.713
510.958;12806.796;   -9.936;14426.586
511.545;13287.779;   -9.326;15243.775
512.132;13536.960;  -10.075;15945.876
512.719;14035.697;   -7.796;16340.369
513.305;15240.814;  -10.606;18011.766
513.892;16838.016;  -11.486;19754.971
514.479;18229.430;   -9.126;20967.805
515.066;19692.971;   -6.026;22299.793
515.652;19857.174;   -8.466;22908.660
516.239;20387.404;  -10.886;23798.875
516.825;21691.229;  -11.496;25567.275
517.412;23202.422;   -5.796;28154.959
517.998;24391.980;  -10.506;28344.111
518.585;25157.439;  -10.076;27134.219
519.171;24860.617;   -8.315;27268.576
519.758;25472.352;   -8.596;28964.129
520.344;27894.605;   -8.466;30664.494
520.930;26997.557;  -11.006;32550.605
521.516;25563.072;  -10.495;35422.895
522.103;27227.229;   -5.526;38280.004
522.689;29420.740;   -8.746;37835.117
523.275;30349.258;  -11.376;37288.613
523.861;31927.980;  -11.156;37281.395
524.447;31368.643;   -8.135;37846.949
525.033;30834.027;   -7.896;38321.949
525.619;29545.143;  -12.476;38579.285
526.205;27361.459;   -9.516;40622.875
526.791;27623.865;   -6.926;42258.836
527.377;30291.631;   -8.346;42966.902
527.963;34631.387;   -8.717;42018.949
528.549;37698.969;  -11.016;42476.828
529.135;36593.426;   -8.536;41854.852
529.721;36439.668;   -9.666;41237.711
530.306;35393.191;  -10.066;41259.445
530.892;36242.781;  -11.356;41506.047
531.478;38430.156;   -6.596;43559.613
532.063;40415.602;   -8.836;47695.563
532.649;38650.715;  -10.047;50808.324
533.235;38322.527;   -9.746;51787.500
533.820;40566.559;   -6.566;52145.035
534.406;42108.969;  -10.817;51133.488
534.991;43752.598;   -9.416;49996.805
535.576;42327.105;   -9.036;48882.852
536.162;39703.688;   -6.156;46942.285
536.747;39848.938;  -11.607;45711.746
537.333;42348.395;  -11.787;48510.180
537.918;43001.840;  -12.437;50439.891
538.503;42075.941;   -7.196;50863.711
539.088;41489.746;  -10.556;50906.922
539.673;40815.492;   -8.767;52621.965
540.259;35723.406;  -10.026;52368.094
540.844;32749.883;   -7.416;50879.109
541.429;32790.230;   -9.467;52077.777
542.014;35684.695;   -9.527;52716.695
542.599;42679.891;   -9.946;52363.281
543.184;46611.320;   -7.927;53187.137
543.769;47421.109;   -9.297;54697.605
544.354;47991.961;  -10.127;53913.914
544.938;45612.734;   -9.267;49680.164
545.523;43290.449;   -6.506;47386.277
546.108;44932.547;   -9.787;49151.949
546.693;46106.020;  -11.587;51384.637
547.278;46512.270;  -10.986;51853.254
547.862;46517.168;   -8.206;51173.750
548.447;44210.414;  -10.067;51691.395
549.031;44207.492;   -9.637;52456.703
549.616;44960.539;   -9.926;52714.516
550.201;44230.008;   -6.347;52414.598
550.785;45244.816;   -7.917;52355.059
551.370;46160.094;  -10.867;54589.453
551.954;48266.719;   -9.047;58267.348
552.538;47721.492;   -7.827;59062.176
553.123;45855.602;  -10.287;58115.285
553.707;45114.730;  -12.178;56556.285
554.291;42483.645;   -8.717;56201.668
554.876;43497.813;   -7.457;55335.762
555.460;45549.531;  -10.387;54155.703
556.044;47043.980;   -9.618;53721.484
556.628;48127.230;  -11.567;53731.016
557.212;48794.043;   -8.097;54312.531
557.796;50074.188;  -11.077;53797.773
558.380;47897.746;  -11.108;56145.984
558.964;46269.023;   -9.057;57277.930
559.548;43929.926;   -6.977;56459.641
560.132;40630.980;  -11.457;54434.543
560.716;41815.188;  -11.378;54800.617
561.300;44108.055;   -9.577;57606.945
561.884;42844.738;   -7.127;58972.445
562.467;41117.695;   -7.118;57327.570
563.051;39680.832;  -13.358;54962.434
563.635;37793.668;  -10.178;52594.473
564.219;39686.449;   -7.837;50610.410
564.802;43581.207;  -11.398;49551.180
565.386;44108.734;  -12.788;48370.953
565.969;45336.977;   -9.077;48178.871
566.553;44005.625;   -6.207;49957.305
567.136;42111.031;   -8.568;50369.594
567.720;43068.891;  -11.868;49492.004
568.303;44226.340;   -8.268;50616.352
568.887;43697.754;   -8.698;50727.148
569.470;41743.559;   -6.808;51698.379
570.053;39614.375;  -13.188;52122.078
570.637;37118.473;  -12.037;52536.438
571.220;36886.430;   -8.577;51186.098
571.803;37090.184;   -8.498;51032.762
572.386;39116.043;  -10.498;49609.887
572.969;39900.090;   -9.388;48285.926
573.552;40251.801;   -8.338;47624.285
574.135;39693.992;   -8.518;45498.641
574.718;37066.117;  -13.628;41970.434
575.301;37378.883;  -10.893;41447.137
575.884;37691.648;   -8.158;40923.836
576.467;41387.660;  -10.328;45267.723
577.050;40880.750;  -13.058;48175.543
577.633;39668.813;   -9.458;47729.328
578.216;36326.980;   -8.928;47579.793
578.799;33704.328;   -9.358;47820.996
579.381;35030.594;  -11.388;48115.551
579.964;35943.051;  -11.718;47333.766
580.547;34690.539;   -8.588;46668.969
581.129;34923.867;   -8.859;44466.141
581.712;36708.324;  -10.729;44164.922
582.294;36698.195;  -11.118;46477.855
582.877;37317.719;   -5.218;48244.254
583.459;37272.566;   -8.679;47437.895
584.042;38427.684;  -10.709;46943.219
584.624;36301.281;  -11.669;46792.227
585.206;35221.504;   -8.218;46557.250
585.789;36665.746;  -10.569;45793.773
586.371;37294.336;  -11.859;43836.391
586.953;37860.461;  -10.719;42972.492
587.536;39171.129;   -7.198;42487.211
588.118;38499.387;   -8.720;42086.414
588.700;37490.859;  -10.439;43389.930
589.282;34903.645;   -9.198;43646.039
589.864;32697.117;   -9.199;43438.109
590.446;32472.766;  -11.319;43151.926
591.028;32112.225;  -11.159;42781.867
591.610;32649.025;  -11.779;42839.098
592.192;33706.969;   -7.668;42820.402
592.774;32678.744;  -11.949;40724.277
593.356;30687.506;  -12.129;39874.789
593.937;30283.346;  -10.669;39980.648
594.519;32979.270;   -6.509;42069.633
595.101;33283.668;  -10.849;42976.031
595.683;32120.223;  -11.679;44084.441
596.264;31399.797;   -9.049;43478.797
596.846;30938.295;   -8.849;43803.672
597.427;30934.896;   -9.570;42986.934
598.009;32779.617;  -12.620;42832.219
598.591;32906.531;  -10.039;42580.086
599.172;34866.602;  -10.369;43061.805
599.753;36852.754;   -9.140;41691.469
600.335;36223.734;  -11.430;40692.520
600.916;33718.781;   -9.939;39982.422
601.498;30543.451;   -8.479;40318.617
602.079;30190.014;  -10.920;40670.609
602.660;29920.328;  -11.480;41450.898
603.241;30596.057;  -11.699;41137.738
603.823;30941.057;   -9.579;38868.797
604.404;30482.908;  -10.620;38182.785
604.985;33362.039;  -10.450;38078.047
605.566;34360.563;   -9.129;38056.633
606.147;35146.035;   -7.510;37020.418
606.728;33880.281;  -10.660;37883.359
607.309;32100.189;  -11.740;38748.273
607.890;32206.631;   -9.759;38850.230
608.471;30818.260;   -8.250;37457.918
609.051;30762.992;   -9.240;36066.457
609.632;30978.273;  -12.120;35991.074
610.213;30684.750;   -9.110;37402.641
610.794;31678.818;   -8.030;38383.363
611.374;30216.969;   -8.110;40562.387
611.955;29885.512;  -13.560;38533.727
612.536;30967.924;  -11.400;36951.789
613.116;30518.180;   -8.070;37197.891
613.697;31334.613;  -10.830;38411.125
614.277;31051.412;  -11.641;38673.938
614.858;30317.604;  -13.310;37075.863
615.438;30301.953;   -7.460;35092.906
616.019;28461.363;   -7.601;33666.301
616.599;29223.270;  -12.020;34189.023
617.179;28963.420;  -11.780;36952.047
617.760;27898.883;   -8.570;39582.574
618.340;28387.322;  -11.471;38943.977
618.920;29094.441;  -11.170;37594.156
619.500;29936.762;  -11.071;37866.938
620.080;30317.246;   -7.750;37869.043
620.660;30560.957;  -12.711;36868.617
621.241;31355.480;  -10.211;36352.309
621.821;30887.391;  -10.961;35459.520
622.401;31014.486;   -7.720;35207.414
622.980;32873.117;   -8.981;35980.422
623.560;31647.754;   -9.331;37351.328
624.140;27367.793;   -9.850;34388.582
624.720;23358.029;   -7.451;32368.764
625.300;22829.441;   -9.070;32638.629
625.880;27115.129;  -12.601;34599.035
626.459;30244.061;  -11.751;36831.738
627.039;30145.209;   -9.281;38299.098
627.619;29518.850;   -8.801;38289.574
628.198;29920.900;  -12.071;37220.695
628.778;30712.928;   -9.461;37632.563
629.357;31352.275;   -8.491;38003.012
629.937;30753.865;   -9.721;38402.039
630.516;31202.504;   -9.951;37868.801
631.096;32204.559;  -11.731;35760.410
631.675;34457.246;   -8.572;35225.219
632.254;34627.879;  -11.282;35130.289
632.834;33465.504;  -13.322;35794.570
633.413;34290.816;  -10.301;35788.922
633.992;34359.598;   -8.582;34532.863
634.571;35303.652;   -8.352;33590.113
635.151;34507.266;  -11.912;34943.863
635.730;32246.645;  -10.511;35352.523
636.309;31930.357;   -7.731;35366.605
636.888;31403.652;   -9.952;36165.637
637.467;30927.600;  -11.672;37515.902
638.046;29486.504;   -8.901;39288.695
638.625;28776.988;   -7.912;38279.699
639.204;28008.957;  -10.022;37741.598
639.782;29273.016;  -12.252;38364.551
640.361;31404.613;  -10.041;36740.621
640.940;31266.010;  -11.161;34950.082
641.519;30524.234;   -9.701;34137.398
642.097;31704.146;  -11.271;35654.258
642.676;31869.252;   -8.651;35637.957
643.255;30944.070;   -8.711;36567.074
643.833;30520.984;   -9.581;37809.434
644.412;31176.521;  -13.711;37337.293
644.990;32490.490;  -11.811;37018.531
645.569;35293.902;   -9.411;36518.469
646.147;36016.043;  -10.291;36186.430
646.726;34083.746;  -12.401;36267.688
647.304;32465.525;  -10.411;36647.625
647.882;33228.531;   -9.651;39286.742
648.461;33267.723;   -9.631;39157.703
649.039;30794.506;  -11.881;35412.883
649.617;30441.160;   -9.661;34744.918
650.195;31110.568;   -9.301;35403.098
650.773;30370.934;  -10.511;35053.797
651.352;30140.371;  -11.521;33756.816
651.930;28879.752;  -12.211;31868.773
652.508;27879.543;   -9.171;33121.551
653.086;29197.547;   -9.371;33564.793
653.663;31555.324;  -13.161;34054.668
654.241;30597.379;  -13.031;35693.309
654.819;28685.326;   -9.371;36422.906
655.397;29335.553;  -10.511;38213.484
655.975;29609.008;  -10.371;39507.625
656.553;30168.150;  -10.051;39498.223
657.130;30946.496;  -10.061;40395.480
657.708;27953.322;   -9.561;39242.020
658.286;25248.111;  -11.511;38920.020
658.863;25702.012;  -10.261;40202.898
659.441;28511.982;   -7.531;39677.938
660.018;31242.443;   -9.501;40413.355
660.596;31999.539;  -13.301;39931.414
661.173;34790.789;  -11.211;39604.531
661.750;34168.449;   -9.951;39700.070
662.328;31249.809;   -9.390;39292.809
662.905;29928.506;  -11.330;38235.648
663.482;27198.529;   -9.050;36212.305
664.060;24756.842;   -8.240;35944.945
664.637;28498.129;  -10.050;35170.785
665.214;33158.883;  -11.760;34197.523
665.791;32265.084;  -10.530;34549.520
666.368;32238.801;   -9.690;35118.578
666.945;32562.922;   -9.320;36019.418
667.522;33156.793;  -11.860;36048.438
668.099;32064.125;  -10.770;36243.914
668.676;32035.246;   -6.260;35958.875
669.253;34476.969;   -7.000;37384.730
669.830;34900.637;  -10.190;36779.629
670.407;33693.836;   -9.550;35231.289
670.984;32988.363;   -9.260;35544.270
671.560;31483.625;   -9.280;35466.867
672.137;29772.750;  -11.810;34280.863
672.714;29731.883;  -11.490;34632.863
673.290;30340.605;   -7.740;35135.422
673.867;30829.793;  -10.660;36114.480
674.443;30336.977;  -12.230;36152.859
675.020;28932.318;  -10.450;35327.238
675.596;27509.398;   -9.260;35795.176
676.173;28349.805;  -10.780;35430.355
676.749;29053.215;  -13.690;33549.516
677.326;30201.061;  -11.980;32210.012
677.902;28415.182;   -8.630;32068.871
678.478;26399.322;  -10.730;32583.891
679.054;27834.471;  -10.520;32088.928
679.631;29184.727;  -11.920;30978.848
680.207;30288.775;   -7.490;33160.887
680.783;31626.887;   -9.860;35570.363
681.359;32264.037;  -13.380;36125.184
681.935;30916.768;  -12.480;35240.922
682.511;31580.840;   -7.900;34429.961
683.087;32307.428;   -7.710;34463.680
683.663;33116.973;  -11.480;34648.898
684.239;32597.674;  -14.090;34546.457
684.815;33493.676;   -7.560;35586.375
685.390;33575.477;   -9.910;35821.895
685.966;33333.723;  -11.159;35085.871
686.542;34063.789;  -11.169;34198.230
687.118;32526.762;   -5.959;32847.707
687.693;32457.088;  -10.329;32794.027
688.269;32102.059;  -12.059;33072.367
688.844;32534.330;  -10.909;33141.664
689.420;33621.363;   -8.019;33965.742
689.995;30563.008;   -8.399;34655.523
690.571;30068.877;  -10.949;33576.742
691.146;29455.869;   -9.619;32657.219
691.722;27262.516;   -8.999;32526.979
692.297;26170.576;  -11.589;33014.617
692.872;26805.207;  -11.739;34012.254
693.448;27153.619;  -11.059;34237.434
694.023;29145.791;  -10.139;34142.672
694.598;31423.568;   -9.029;34132.031
695.173;31320.324;  -13.319;34205.250
695.748;28682.197;  -10.169;32882.488
696.323;26010.084;   -8.339;32864.906
696.898;25464.895;   -8.169;33170.004
697.473;28748.039;  -12.309;32432.984
698.048;28723.682;  -10.989;31649.303
698.623;27617.869;   -9.329;30778.141
699.198;29313.426;   -9.849;31140.119
699.773;30743.127;  -12.329;31764.299
700.348;30613.779;  -10.389;31780.816
700.922;28762.539;   -9.269;32046.375
701.497;26870.131;   -9.329;32603.574
702.072;28378.621;  -10.789;34799.871
702.646;28244.582;  -10.839;35793.172
703.221;28761.219;   -9.099;35201.590
703.795;29456.617;  -10.939;34764.527
704.370;28164.494;  -12.859;34307.367
704.944;29640.639;  -11.559;33509.887
705.519;30779.297;   -7.939;31388.584
706.093;32613.969;  -10.499;31340.104
706.668;33495.848;  -11.289;32630.281
707.242;32570.691;  -11.509;32728.779
707.816;31101.137;   -9.639;32947.238
708.390;30491.311;  -11.429;33277.855
708.965;31452.838;  -11.869;33834.336
709.539;31413.131;  -11.689;33709.273
710.113;31072.199;  -10.478;33044.313
710.687;28618.678;  -10.228;31953.992
711.261;27912.166;  -13.698;30505.949
711.835;27665.447;  -13.378;30262.369
712.409;27095.707;   -9.698;31254.447
712.983;26478.869;  -11.898;32754.986
713.557;25172.035;  -15.138;34018.824
714.131;26661.693;  -14.098;34579.625
714.704;27018.035;   -9.958;33890.262
715.278;26224.445;  -10.028;33531.102
715.852;25261.443;  -11.148;33601.660
716.425;24781.586;   -9.068;33515.117
716.999;26360.006;  -10.038;33185.555
717.573;26938.313;   -9.798;33905.996
718.146;27820.623;  -12.378;35199.293
718.720;28352.148;  -11.918;35060.551
719.293;27423.365;   -8.088;34973.230
719.867;26498.334;  -10.888;36394.449
720.440;26931.072;  -11.938;36663.008
721.013;28612.885;  -12.818;35102.426
721.587;30185.689;  -10.298;33985.266
722.160;30210.836;  -10.048;33524.965
722.733;28522.711;  -12.108;32987.043
723.306;26488.881;  -10.818;33066.301
723.880;27039.742;   -8.908;33399.500
724.453;26076.145;   -9.878;33468.297
725.026;25550.047;  -11.188;33816.637
725.599;25917.133;  -11.678;32797.996
726.172;25718.822;   -9.618;33187.434
726.745;26725.240;   -8.258;35136.613
727.318;29254.617;  -12.978;35751.730
727.891;31072.088;  -12.148;35890.430
728.463;32386.188;   -8.968;34822.090
729.036;32610.879;  -10.188;32895.086
729.609;30211.324;  -11.788;31823.225
730.182;28251.639;  -11.788;31445.283
730.754;27421.314;  -10.268;32373.223
731.327;27166.322;   -9.998;33676.820
731.900;26162.807;  -12.228;33417.000
732.472;25223.182;  -13.848;31978.498
733.045;25101.303;   -8.698;30368.777
733.617;24633.473;  -10.607;30574.215
734.190;23314.029;  -11.507;31280.975
734.762;23809.547;  -13.647;31674.412
735.334;25354.229;   -9.767;31247.291
735.907;25775.295;   -9.897;29876.211
736.479;23572.264;  -11.637;29808.488
737.051;22582.207;   -9.567;30233.547
737.623;23520.936;   -8.187;31469.086
738.195;25468.752;  -11.187;31784.225
738.768;25946.998;  -12.337;32120.523
739.340;25336.449;  -12.227;32094.342
739.912;24774.889;  -11.057;31312.680
740.484;25457.131;  -10.207;31946.238
741.056;26769.191;  -10.047;32984.059
741.628;26512.713;  -13.627;33897.715
742.199;26892.088;   -7.177;33213.016
742.771;25151.180;  -10.797;31369.113
743.343;23672.695;  -11.997;31865.473
743.915;23815.477;  -12.867;32388.631
744.487;24282.268;   -7.617;31079.568
745.058;25633.020;   -9.557;30570.107
745.630;25698.365;   -9.877;29970.127
746.201;24624.543;  -14.177;29186.766
746.773;24165.309;   -9.237;28805.723
747.344;24214.400;   -9.847;29591.223
747.916;24216.432;  -11.657;31412.201
748.487;23864.934;  -10.587;32194.898
749.059;23791.262;   -8.707;32533.719
749.630;22918.930;  -10.537;32158.518
750.201;23173.357;  -11.687;30855.395
750.773;23315.342;  -11.647;28622.555
751.344;24545.469;   -7.147;28405.732
751.915;24416.809;   -9.757;28461.551
752.486;24186.607;  -12.427;27842.850
753.057;22775.131;  -12.227;27845.008
753.628;22295.406;  -10.417;27728.107
754.199;22362.848;  -11.767;27381.086
754.770;21757.473;  -11.187;25882.203
755.341;21092.174;  -10.507;25886.184
755.912;21276.354;   -9.387;26050.861
756.483;21760.910;  -10.647;26798.779
757.054;21622.338;  -11.837;27048.238
757.625;19885.547;  -12.716;26294.838
758.195;19094.746;   -9.666;26142.076
758.766;19994.799;   -8.656;26392.234
759.337;19898.717;  -12.856;26334.594
759.907;19258.867;  -13.366;27579.652
760.478;18417.986;   -8.576;28352.770
761.048;19083.984;  -10.526;27325.088
761.619;19699.230;  -11.116;26460.428
762.189;19264.469;  -12.136;26029.826
762.760;19245.852;   -9.456;26430.145
763.330;19475.004;   -7.136;26670.902
763.900;19598.291;  -11.786;26603.021
764.471;18906.820;  -11.546;25542.740
765.041;18537.320;   -8.096;24358.459
765.611;18526.625;   -8.876;23991.297
766.181;18513.545;  -12.196;24470.236
766.751;19295.295;  -11.636;24845.975
767.321;19597.383;  -10.156;24533.633
767.891;19478.783;  -11.766;24916.492
768.461;19220.543;  -14.936;24776.771
769.031;18408.068;  -12.356;24757.988
769.601;18134.998;   -7.526;24181.088
770.171;18371.514;  -10.766;23670.387
770.741;18848.207;  -13.176;22960.045
771.311;18498.150;  -10.616;22917.523
771.880;17231.168;   -9.576;23562.941
772.450;16659.313;  -10.336;24216.500
773.020;16913.664;  -13.516;24140.398
773.589;16825.920;  -13.466;24414.857
774.159;16373.979;   -8.686;23858.717
774.729;15783.657;   -9.476;22942.135
775.298;15721.854;  -13.666;22324.033
775.867;15679.595;  -11.716;21140.313
776.437;15096.650;   -9.906;20838.092
777.006;14938.986;  -12.166;20599.510
777.576;16283.266;  -12.356;20508.809
778.145;15802.955;  -11.646;20732.947
778.714;14339.932;   -8.226;21062.465
779.283;13724.064;   -9.556;20949.664
779.853;13502.347;  -14.116;20508.623
780.422;13783.204;  -11.506;20649.082
780.991;14202.261;   -9.556;21527.520
781.560;14933.878;   -9.095;22632.658
782.129;13933.356;  -12.135;23048.277
782.698;12600.261;  -10.865;23438.555
783.267;11966.722;   -9.335;23267.734
783.836;12383.112;  -11.045;22415.133
784.404;13162.956;  -13.865;20443.152
784.973;13395.289;  -13.095;19699.150
785.542;13296.747;  -11.575;19763.828
786.111;13109.936;   -9.705;20341.408
786.679;12961.777;  -12.105;20207.967
787.248;12691.724;  -12.455;19516.465
787.817;12595.115;  -11.535;18900.363
788.385;12426.455;   -9.765;17879.121
788.954;12219.182;  -14.005;17658.301
789.522;12041.973;  -11.955;17788.879
790.090;11222.625;  -10.135;18118.277
790.659;10313.919;  -10.975;18338.736
791.227;10340.195;  -13.375;18508.615
791.795;10733.041;  -12.375;17898.254
792.364;10961.686;  -10.725;17295.133
792.932;11314.414;   -9.715;16822.051
793.500;11064.837;  -12.675;17040.148
794.068;11288.827;  -13.495;17179.787
794.636;11319.160;  -10.885;16664.246
795.204;10934.570;  -11.045;16524.545
795.772;10974.273;  -13.175;17274.564
796.340;10774.545;  -12.445;17891.002
796.908;10938.937;   -9.735;17648.561
797.476;11408.743;   -9.815;17064.080
798.044;11194.532;  -13.985;16672.777
798.612;10715.147;  -13.115;17023.996
799.180; 9879.231;  -10.185;16561.615
799.747; 9466.188;   -9.055;15962.773
800.315; 9647.852;  -12.385;15296.992
800.883; 9060.313;  -15.035;14801.771
801.450; 8369.716;  -10.365;14534.430
802.018; 8069.870;   -9.855;14173.248
802.585; 7960.365;  -11.905;14029.547
803.153; 8109.378;  -11.585;13836.846
803.720; 7876.481;   -9.095;13567.324
804.287; 7774.453;   -9.135;13360.622
804.855; 7965.413;  -11.604;13681.981
805.422; 8300.577;  -11.794;13536.560
805.989; 8477.740;  -10.734;13355.958
806.556; 8384.391;  -10.444;13747.896
807.124; 8649.133;  -12.764;13987.376
807.691; 9121.122;  -12.964;14038.674
808.258; 9130.889;  -11.134;14120.152
808.825; 9097.213;   -9.854;13860.111
809.392; 8722.389;  -10.504;13268.790
809.959; 8048.792;  -13.054;12680.389
810.526; 7315.350;   -8.294;12427.308
811.093; 6599.469;   -8.394;12030.105
811.659; 6318.027;  -12.304;11653.664
812.226; 6446.758;  -13.944;11637.183
812.793; 6795.715;  -10.484;11611.521
813.360; 6921.133;  -10.144;11885.181
813.926; 6944.016;  -11.684;12770.539
814.493; 6823.506;  -13.644;12677.638
815.060; 6646.979;   -9.724;11974.336
815.626; 6798.222;   -9.854;11594.715
816.193; 6898.430;  -13.254;11579.474
816.759; 6320.979;  -13.204;11666.972
817.325; 5876.019;   -9.434;11325.530
817.892; 5738.586;  -10.134;11105.369
818.458; 5870.621;  -13.474;10843.928
819.024; 6306.671;  -11.854;10714.406
819.591; 6444.865;  -10.244;10469.165
820.157; 6211.891;  -10.704;10235.523
820.723; 6180.022;  -12.324;10847.563
821.289; 6087.273;   -9.444;11040.980
821.855; 6116.834;   -8.374;10357.100
822.421; 6424.468;  -10.234; 9978.918
822.987; 6402.201;  -13.294; 9754.177
823.553; 6063.619;  -10.884;10065.755
824.119; 5814.021;   -8.884;10036.294
824.685; 5376.265;   -6.784;10029.192
825.251; 5282.614;  -12.004;10199.230
825.816; 5081.845;  -11.474; 9820.189
826.382; 4911.138;   -9.174; 9297.248
826.948; 5172.749;   -9.214; 9381.347
827.513; 5579.708;  -10.774; 9450.726
828.079; 5697.242;  -11.924; 9472.444
828.645; 5539.772;  -10.543; 9292.643
829.210; 5434.881;  -10.533; 9065.341
829.776; 5338.827;  -10.753; 9132.620
830.341; 5482.598;  -10.173; 9092.878
830.906; 5521.843;  -10.743; 9078.557
831.472; 5299.267;  -11.113; 8534.535
832.037; 4953.139;  -10.603; 8677.874
832.602; 4852.814;  -13.323; 8628.692
833.167; 4663.859;  -10.823; 8879.031
833.733; 4536.766;  -10.113; 9189.790
834.298; 4423.892;  -13.583; 9052.608
834.863; 4628.776;  -12.703; 8895.087
835.428; 4880.039;  -10.523; 8824.266
835.993; 4845.609;   -6.963; 8845.385
836.558; 4826.918;  -10.763; 8888.563
837.123; 4969.028;   -9.903; 8966.582
837.688; 5347.176;   -9.913; 8617.860
838.253; 5421.986;  -10.283; 8590.699
838.817; 5088.833;  -12.963; 8443.797
839.382; 4966.333;  -14.243; 8799.356
839.947; 5109.713;  -10.733; 8810.595
840.511; 5148.646;   -9.383; 8796.394
841.076; 5029.876;  -12.563; 8347.231
841.641; 4873.245;  -12.953; 8224.330
842.205; 4736.163;   -7.043; 8223.349
842.770; 4520.662;   -8.163; 8622.107
843.334; 4662.734;  -12.503; 8410.386
843.898; 4849.229;  -11.693; 8337.465
844.463; 4441.927;  -10.203; 8506.283
845.027; 4104.168;   -9.533; 8280.962
845.591; 4131.906;  -13.443; 8231.141
846.156; 4226.840;  -13.143; 7969.179
846.720; 4049.563;   -9.433; 7768.278
847.284; 3917.596;  -11.033; 7630.957
847.848; 3902.602;  -10.403; 7472.395
848.412; 3760.949;  -11.553; 7437.394
848.976; 3689.767;   -8.393; 7674.592
849.540; 3657.725;   -8.713; 7836.011
850.104; 3642.398;  -12.463; 7913.669
850.668; 3736.826;  -12.973; 7694.508
851.232; 3716.449;  -10.793; 7756.887
851.796; 3733.592;  -10.662; 7926.545
852.359; 3821.481;  -13.082; 7827.844
852.923; 3784.479;  -12.192; 7641.163
853.487; 3792.500;  -11.912; 7342.501
854.050; 3632.640;  -10.892; 7042.820
854.614; 3646.802;  -13.992; 7151.338
855.177; 3714.504;  -11.732; 7105.077
855.741; 3591.958;   -8.962; 6989.675
856.304; 3439.840;   -9.442; 6596.634
856.868; 3303.823;  -14.192; 6356.272
857.431; 3240.331;  -12.702; 6468.571
857.995; 3243.399;   -9.942; 6373.210
858.558; 3333.956;   -9.112; 6324.448
859.121; 3233.270;  -12.932; 6408.327
859.684; 3096.007;  -13.442; 6347.886
860.247; 3063.243;  -10.632; 6321.264
860.810; 3013.013;  -11.272; 6301.903
861.374; 2916.588;   -9.832; 6607.881
861.937; 2812.738;  -11.762; 6408.200
862.500; 2797.383;   -9.722; 6572.639
863.062; 2777.346;  -10.512; 6387.297
863.625; 2773.770;  -11.232; 6190.836
864.188; 2819.343;  -14.112; 5807.254
864.751; 2832.755;  -11.302; 5682.413
865.314; 2711.595;  -10.112; 5547.492
865.876; 2525.466;  -12.182; 5500.150
866.439; 2355.408;  -10.722; 5415.909
867.002; 2238.986;   -9.252; 5501.567
867.564; 2289.864;   -9.572; 5413.946
868.127; 2338.683;  -13.142; 5160.325
868.689; 2418.878;  -12.902; 5133.183
869.252; 2532.713;   -9.732; 5252.382
869.814; 2465.194;   -9.432; 5297.141
870.377; 2353.667;  -11.552; 5390.919
870.939; 2336.137;   -9.052; 5599.898
871.501; 2289.438;  -10.982; 5248.336
872.063; 2187.948;  -12.292; 4854.235
872.626; 2133.730;  -14.912; 4817.074
873.188; 2042.717;  -13.112; 4987.732
873.750; 2015.690;  -13.442; 4868.651
874.312; 1995.653;   -9.402; 4779.330
874.874; 1953.265;  -11.062; 4866.348
875.436; 1833.406;  -13.931; 4718.887
875.998; 1722.011;   -9.561; 4660.005
876.560; 1773.921;  -11.321; 4462.964
877.122; 1958.155;  -12.221; 4145.042
877.683; 2214.732;  -12.191; 4056.481
878.245; 2280.621;  -12.101; 3950.740
878.807; 2146.490;   -8.971; 4058.958
879.369; 1740.500;  -12.071; 3954.677
879.930; 1244.116;  -14.621; 3941.495
880.492;  954.342;  -10.311; 4067.014
881.053;  927.145;  -10.901; 3859.633
881.615; 1007.097;  -14.411; 3776.071
882.176; 1065.110;  -13.761; 3734.750
882.738; 1075.451;   -9.181; 3678.489
883.299; 1105.087;  -11.791; 3405.407
883.860; 1157.824;  -13.121; 3351.106
884.422; 1159.646;  -11.211; 3394.044
884.983; 1124.817;  -10.091; 3166.443
885.544; 1112.310;   -8.461; 3189.802
886.105; 1079.684;  -12.361; 3160.360
886.666; 1036.243;  -14.141; 3093.059
887.227; 1015.479;  -11.361; 2941.957
887.788;  978.904;  -11.401; 2974.836
888.349;  901.047;  -13.791; 2721.214
888.910;  866.149;  -13.191; 2696.493
889.471;  837.911;   -9.881; 2560.172
890.032;  846.320;   -9.881; 2558.190
890.593;  845.459;  -10.371; 2567.669
891.153;  766.843;  -13.301; 2460.307
891.714;  667.073;  -11.431; 2372.046
892.275;  620.985;  -11.291; 2309.505
892.835;  632.369;  -11.471; 2382.543
893.396;  631.017;  -11.541; 2295.502
893.956;  610.458;  -11.181; 2162.420
894.517;  574.820;  -11.741; 2125.439
895.077;  526.535;  -11.671; 2086.978
895.638;  488.234;  -11.311; 2126.316
896.198;  478.380;   -9.831; 1838.275
896.758;  466.106;   -8.421; 1892.813
897.319;  443.684;  -12.351; 1792.232
897.879;  424.847;  -13.511; 1762.751
898.439;  395.998;  -12.001; 1661.149
898.999;  376.854;  -10.180; 1781.468
899.559;  372.066;  -12.030; 1703.347
900.119;  363.838;  -15.710; 1537.525
900.679;  349.324;   -8.900; 1638.384
901.239;  328.527;   -8.340; 1527.902
901.799;  301.291;  -13.910; 1456.441
902.359;  278.512;  -13.460; 1357.140
902.919;  271.184;  -11.490; 1331.118
903.479;  273.089;  -12.110; 1317.257
904.038;  268.351;  -11.720; 1262.595
904.598;  261.527;  -13.610; 1152.034
905.158;  250.126;  -11.040; 1240.893
905.717;  236.042;  -10.900; 1233.691
906.277;  226.052;  -15.080; 1217.330
906.836;  222.589;  -13.380; 1222.408
907.396;  219.255;  -10.780; 1193.047
907.955;  213.430;   -8.500; 1182.526
908.515;  207.568;  -12.760; 1099.364
909.074;  206.560;  -11.900; 1092.863
909.633;  205.606;   -8.950; 1069.121
910.192;  204.111;   -8.770; 1196.460
910.752;  195.934;  -12.390; 1029.960
911.311;  184.024;  -13.680; 1009.780
911.870;  174.505;  -12.370;  971.460
912.429;  170.144;  -10.900; 1094.080
912.988;  167.054;  -11.690; 1081.060
913.547;  162.561;  -13.240;  940.380
914.106;  158.827;  -11.990;  999.420
914.665;  155.366;   -9.990;  984.020
915.224;  151.669;  -12.880; 1035.760
915.782;  150.504;  -12.350;  922.560
916.341;  150.599;   -9.110; 1049.840
916.900;  149.415;   -9.270;  925.260
917.458;  149.397;  -13.240;  884.220
918.017;  147.400;  -13.550;  942.600
918.576;  145.924;  -12.320;  904.440
919.134;  144.678;  -11.490;  837.980
919.693;  143.987;  -13.670;  893.060
920.251;  142.790;  -15.470;  876.500
920.809;  142.015;  -11.290;  839.580
921.368;  142.537;  -10.210;  885.360
921.926;  140.304;  -12.140;  842.940
922.484;  137.319;  -13.080;  903.360
923.042;  136.793;  -11.720;  880.340
923.601;  137.344;   -7.480;  998.680
924.159;  135.021;  -11.570;  935.560
924.717;  133.083;  -13.840;  841.080
925.275;  132.493;  -10.640;  903.240
925.833;  131.967;  -11.540;  779.320
926.391;  133.672;  -12.960;  938.380
926.949;  132.741;  -14.130;  857.680
927.506;  133.365;  -11.750;  903.500
928.064;  132.842;  -10.250;  877.580
928.622;  132.832;  -13.030;  880.100
929.180;  134.521;  -13.400;  814.180
929.737;  136.810;  -10.700;  808.540
930.295;  141.010;  -10.070;  928.480
930.853;  140.334;  -11.960;  849.100
931.410;  139.684;  -13.120;  821.120
931.968;  142.238;  -10.770;  940.660
932.525;  142.959;  -10.680;  909.380
933.082;  143.338;  -13.130;  811.440
933.640;  143.363;  -13.210;  925.900
934.197;  141.853;  -11.060;  886.360
934.754;  142.467;   -9.580;  897.780
935.312;  143.811;  -14.000;  863.340
935.869;  145.497;  -10.710; 1012.980
936.426;  143.297;   -9.860;  872.800
936.983;  144.369;   -9.710;  889.020
937.540;  144.374;  -13.990;  838.280
938.097;  148.755;  -14.040;  940.120
938.654;  152.928;  -10.310;  898.860
939.211;  153.353;  -10.560;  952.480
939.768;  154.013;  -13.900;  915.420
940.324;  155.419;  -14.760;  904.200
940.881;  158.132;  -10.370;  878.500
941.438;  163.885;   -8.260; 1021.200
941.995;  163.251;  -12.540;  992.560
942.551;  162.259;  -14.670;  875.620
943.108;  163.762;  -10.450;  937.920
943.664;  164.433;  -10.750;  869.340
944.221;  167.859;  -11.550; 1088.140
944.777;  167.806;  -14.770;  869.680
945.334;  165.551;  -12.820;  884.840
945.890;  160.158;  -10.130;  946.480
946.446;  157.593;  -13.470;  947.020
947.003;  157.982;  -12.120;  964.940
947.559;  158.747;   -9.980; 1063.040
948.115;  155.383;   -9.080; 1026.540
948.671;  153.119;  -10.830;  967.300
949.227;  151.739;  -12.440;  859.560
949.783;  151.694;  -12.910;  858.900
950.339;  155.365;  -10.270;  991.000
950.895;  156.538;  -13.630; 1023.840
951.451;  156.276;  -15.100;  925.280
952.007;  154.317;  -11.330;  998.540
952.563;  151.414;  -10.580;  937.780
953.118;  149.452;  -13.440;  904.940
953.674;  147.691;  -12.710;  935.780
954.230;  149.693;  -10.350;  949.640
954.785;  152.974;   -9.190;  936.640
955.341;  155.696;  -11.200;  998.160
955.897;  150.361;  -16.560;  834.660
956.452;  148.441;  -12.570;  953.840
957.008;  146.765;   -7.970; 1083.640
957.563;  142.557;  -11.940; 1009.540
958.118;  137.282;  -13.450;  877.700
958.674;  136.136;  -12.030;  946.780
959.229;  136.792;   -9.410; 1013.980
959.784;  137.706;  -12.000;  832.400
960.339;  137.823;  -14.780; 1001.280
960.894;  134.840;   -9.860;  963.760
961.449;  131.667;   -9.970;  859.960
962.004;  132.130;  -10.900; 1212.840
962.559;  128.957;  -13.150;  860.140
963.114;  128.040;  -13.740;  742.480
963.669;  127.013;   -9.820;  915.500
964.224;  126.541;  -13.890;  874.340
964.779;  124.655;  -12.600;  828.420
965.334;  126.885;  -10.950; 1017.860
965.888;  124.837;  -11.170;  875.360
966.443;  125.594;  -12.540;  972.380
966.998;  122.525;  -15.780;  819.460
967.552;  120.960;   -9.760;  908.380
968.107;  119.049;   -9.060;  868.300
968.661;  118.856;  -11.950;  922.440
969.216;  116.884;  -12.800;  856.280
969.770;  113.989;  -11.210;  917.200
970.324;  114.300;  -11.610;  923.140
970.879;  115.370;  -11.370;  947.180
971.433;  117.482;  -12.540;  952.720
971.987;  116.039;  -11.320;  895.340
972.541;  113.670;  -10.720;  917.100
973.095;  113.907;   -9.680; 1009.460
973.649;  109.726;  -11.440;  809.480
974.203;  107.874;  -11.210;  829.040
974.757;  107.222;  -10.240;  855.220
975.311;  108.180;  -13.720;  872.600
975.865;  106.882;  -13.770;  881.820
976.419;  104.287;  -11.690;  857.400
976.973;  102.064;   -9.510;  849.620
977.526;  100.583;  -12.620;  949.920
978.080;   97.957;  -12.010;  796.780
978.634;   97.988;  -10.170;  921.320
979.187;   96.549;   -9.020;  905.400
979.741;   98.420;   -9.820; 1018.380
980.294;   95.606;  -14.870;  789.160
980.848;   94.512;  -12.380;  717.220
981.401;   95.537;  -10.350;  816.540
981.955;   94.247;  -13.720;  844.300
982.508;   89.879;  -11.490;  746.340
983.061;   89.435;  -10.000;  915.260
983.615;   87.852;  -11.480;  798.800
984.168;   86.014;  -13.220;  770.080
984.721;   84.891;  -13.960;  880.760
985.274;   83.610;  -10.870;  867.500
985.827;   81.270;   -9.790;  834.220
986.380;   78.925;  -13.120;  721.340
986.933;   78.910;  -12.450;  864.800
987.486;   78.565;  -10.210;  861.920
988.039;   78.835;   -8.430;  863.100
988.591;   77.836;  -10.520;  893.260
989.144;   75.471;  -14.860;  737.260
989.697;   73.226;  -13.080;  758.740
990.250;   73.387;  -10.150;  858.100
990.802;   70.421;  -13.430;  755.860
991.355;   70.765;  -12.750;  974.880
991.907;   69.174;  -12.040;  864.320
992.460;   67.583;  -11.330;  753.760
993.012;   66.710;  -13.610;  749.540
993.565;   64.604;  -13.460;  711.360
994.117;   65.454;   -9.360;  950.780
994.669;   62.334;  -11.300;  701.320
995.221;   62.749;  -13.540;  791.920
995.774;   61.198;  -13.430;  787.580
996.326;   59.232;  -12.520;  740.220
996.878;   58.773;  -10.950;  838.420
997.430;   56.283;  -14.300;  699.860
997.982;   55.575;  -13.760;  750.140
998.534;   54.469;  -11.530;  739.060
999.086;   53.985;  -10.310;  738.220
999.638;   52.554;  -12.530;  661.380
1000.190;   51.531;  -11.840;  699.320
1000.741;   51.439;  -10.260;  742.700
1001.293;   50.819;   -8.860;  686.020
1001.845;   50.574;  -13.700;  676.640
1002.396;   50.292;  -12.100;  743.400
1002.948;   49.179;  -12.760;  737.400
1003.500;   47.152;  -10.380;  723.780
1004.051;   48.068;  -11.900;  907.580
1004.603;   46.999;  -12.250;  791.820
1005.154;   42.918;  -13.210;  608.980
1005.705;   43.339;  -10.950;  723.960
1006.257;   42.230;  -13.880;  707.220
1006.808;   42.043;  -12.840;  685.460
1007.359;   41.056;  -10.570;  763.240
1007.910;   40.497;   -9.620;  646.640
1008.461;   40.269;  -13.630;  732.940
1009.013;   38.981;  -17.200;  588.340
1009.564;   39.890;  -10.200;  793.520
1010.115;   38.064;  -12.570;  597.040
1010.665;   37.997;  -15.150;  602.160
1011.216;   37.543;  -14.480;  667.920
1011.767;   37.234;  -11.340;  697.920
1012.318;   37.855;   -9.780;  736.980
1012.869;   37.099;  -12.380;  679.000
1013.419;   35.970;  -15.560;  603.120
1013.970;   36.288;  -11.010;  666.640
1014.521;   36.048;  -11.610;  620.620
1015.071;   35.821;  -13.450;  670.380
1015.622;   35.363;  -13.870;  635.460
1016.172;   34.113;  -11.610;  596.820
1016.723;   34.159;  -12.120;  614.380
1017.273;   34.011;  -13.620;  604.160
1017.823;   34.442;  -14.140;  650.340
1018.374;   32.462;  -12.800;  611.760
1018.924;   33.594;  -12.340;  716.880
1019.474;   34.156;  -11.410;  718.880
1020.024;   32.282;  -14.770;  657.580
1020.574;   32.691;   -9.780;  726.160
1021.124;   33.708;   -8.560;  673.580
1021.674;   32.514;  -15.190;  559.120
1022.224;   32.818;  -13.530;  708.940
1022.774;   32.541;  -13.280;  668.820
1023.324;   32.656;  -10.690;  753.520
1023.874;   33.967;  -10.240;  875.760
1024.423;   31.361;  -12.540;  613.700
1024.973;   31.377;  -10.010;  610.760
1025.523;   31.245;  -10.550;  620.960
1026.072;   30.838;  -13.560;  606.420
1026.622;   30.548;  -15.120;  675.740
1027.172;   30.920;  -11.260;  715.660
1027.721;   30.020;  -11.410;  601.220
1028.270;   30.298;  -13.530;  663.400
1028.820;   29.749;  -13.680;  638.080
1029.369;   29.629;  -13.520;  612.700
1029.918;   29.436;  -10.980;  649.840
1030.468;   29.420;  -13.530;  564.780
1031.017;   29.510;  -13.170;  634.800
1031.566;   28.385;  -12.200;  608.900
1032.115;   29.099;   -9.960;  694.500
1032.664;   27.518;  -13.210;  596.480
1033.213;   28.705;  -12.500;  735.420
1033.762;   28.025;  -11.910;  635.620
1034.311;   28.920;   -9.640;  677.220
1034.860;   28.306;  -13.310;  691.000
1035.408;   28.055;  -11.830;  722.720
1035.957;   27.620;  -12.000;  719.540
1036.506;   25.991;  -11.690;  530.800
1037.055;   28.492;  -10.990;  844.320
1037.603;   27.109;  -15.120;  664.000
1038.152;   25.170;  -12.450;  534.760
1038.700;   25.888;  -10.560;  585.740
1039.249;   25.780;  -11.080;  681.220
1039.797;   25.851;  -12.540;  633.360
1040.345;   25.361;  -11.920;  705.420
1040.894;   25.608;  -11.410;  625.300
1041.442;   25.506;  -14.320;  632.200
1041.990;   23.853;  -16.240;  559.160
1042.538;   23.878;  -11.680;  536.180
1043.087;   24.278;  -10.760;  570.860
1043.635;   25.840;  -11.850;  670.500
1044.183;   24.474;  -15.480;  586.400
1044.731;   24.165;  -11.770;  576.000
1045.279;   23.295;  -13.090;  674.920
1045.827;   25.875;  -12.440;  892.400
1046.374;   23.069;  -13.840;  515.420
1046.922;   22.848;  -13.220;  590.580
1047.470;   24.259;  -10.230;  691.300
1048.018;   24.129;  -14.590;  647.960
1048.565;   24.100;  -12.050;  708.600
1049.113;   22.384;  -11.650;  557.000
1049.660;   22.578;  -10.510;  629.660
1050.208;   23.242;  -13.310;  675.640
1050.755;   21.963;  -15.900;  606.580
1051.303;   22.456;  -11.430;  686.820
1051.850;   22.018;   -8.480;  635.120
1052.397;   20.524;  -15.010;  473.960
1052.945;   21.299;  -13.960;  617.760
1053.492;   22.398;  -13.150;  741.840
1054.039;   22.895;   -9.630;  720.180
1054.586;   21.511;  -13.680;  557.240
1055.133;   21.905;  -14.570;  693.140
1055.680;   21.452;  -13.820;  646.620
1056.227;   20.803;  -11.730;  542.780
1056.774;   22.560;  -12.480;  794.980
1057.321;   19.520;  -13.930;  523.260
1057.868;   20.530;  -11.690;  651.320
1058.415;   20.173;   -9.520;  651.980
1058.961;   21.392;  -13.160;  678.940
1059.508;   19.699;  -12.920;  643.820
1060.055;   19.655;  -11.920;  581.780
1060.601;   20.413;  -11.500;  624.300
1061.148;   19.814;  -14.330;  616.820
1061.694;   18.766;  -16.870;  592.580
1062.241;   18.797;  -10.330;  596.320
1062.787;   19.504;  -10.620;  663.140
1063.334;   20.729;  -10.110;  808.560
1063.880;   19.255;  -13.400;  668.360
1064.426;   18.684;  -10.680;  706.820
1064.972;   18.338;   -9.920;  601.340
1065.518;   17.973;  -10.980;  566.640
1066.065;   19.388;  -14.890;  624.460
1066.611;   17.377;  -12.870;  598.800
1067.157;   18.522;  -12.950;  641.860
1067.703;   18.218;  -13.540;  668.480
1068.249;   17.421;  -13.540;  605.220
1068.794;   17.506;  -12.600;  626.880
1069.340;   16.697;  -10.620;  578.960
1069.886;   17.090;  -12.830;  590.700
1070.432;   16.594;  -14.870;  541.720
1070.977;   16.393;  -11.980;  601.080
1071.523;   17.254;   -8.200;  573.060
1072.068;   16.663;  -12.330;  582.000
1072.614;   16.522;  -16.370;  527.760
1073.160;   16.548;  -11.100;  687.040
1073.705;   15.870;  -10.480;  572.520
1074.250;   15.881;  -14.520;  559.900
1074.796;   16.827;  -11.460;  655.160
1075.341;   16.244;  -11.950;  664.100
1075.886;   15.709;  -11.460;  594.240
1076.431;   16.019;  -13.770;  649.880
1076.976;   15.454;  -12.680;  639.220
1077.521;   14.605;  -13.170;  583.080
1078.067;   14.845;  -10.860;  579.400
1078.612;   15.448;  -13.920;  661.620
1079.156;   15.154;  -13.880;  601.540
1079.701;   15.891;  -13.120;  693.260
1080.246;   15.641;   -9.940;  696.300
1080.791;   15.647;  -14.740;  625.020
1081.336;   14.534;  -13.750;  659.320
1081.880;   14.526;  -13.400;  649.680
1082.425;   14.249;  -12.220;  573.480
1082.970;   14.961;  -11.610;  717.040
1083.514;   13.661;  -13.580;  597.000
1084.059;   13.024;  -12.810;  586.720
1084.603;   13.812;  -12.320;  565.840
1085.147;   14.681;  -13.190;  645.220
1085.692;   14.616;  -12.480;  716.800
1086.236;   12.230;  -13.020;  503.140
1086.780;   14.546;   -9.190;  751.440
1087.325;   14.235;  -12.480;  654.620
1087.869;   13.455;  -12.450;  610.700
1088.413;   13.531;  -12.240;  705.040
1088.957;   12.059;   -9.020;  543.400
1089.501;   13.733;  -10.320;  766.640
1090.045;   12.817;  -12.720;  726.480
1090.589;   10.933;  -13.690;  569.920
1091.133;   13.314;  -10.020;  673.340
1091.676;   12.417;  -12.330;  591.940
1092.220;   12.734;  -14.970;  600.920
1092.764;   12.504;  -12.430;  706.960
1093.307;   12.870;   -9.800;  673.780
1093.851;   11.272;  -14.970;  556.540
1094.395;   11.813;  -15.310;  683.140
1094.938;   11.200;  -10.370;  632.520
1095.482;   11.070;  -11.050;  559.800
1096.025;   12.456;  -11.840;  710.880
1096.568;   12.042;  -12.840;  779.280
1097.112;    9.797;  -14.700;  508.180
1097.655;   11.847;   -8.720;  603.000
1098.198;   10.525;  -13.610;  600.180
1098.741;   10.350;  -13.350;  612.860
1099.285;   11.918;  -11.230;  657.300
1099.828;    8.992;  -11.840;  439.400
1100.371;   11.126;  -10.840;  608.160
1100.914;   10.343;  -14.190;  682.660
1101.457;   10.045;  -11.240;  679.900
1101.999;    9.119;  -11.270;  584.680
1102.542;   10.427;  -11.480;  641.440
1103.085;   10.254;  -11.750;  658.500
1103.628;    9.759;  -11.400;  762.060
1104.170;    9.350;  -10.490;  588.280
1104.713;   10.281;  -10.600;  646.700
1105.256;    9.076;  -14.360;  557.440
1105.798;    8.653;  -13.210;  499.980
1106.341;   10.412;  -10.270;  728.900
1106.883;    9.131;  -12.200;  521.340
1107.425;    9.243;  -13.110;  668.180
1107.968;    8.078;  -12.840;  612.380
1108.510;    9.469;   -6.480;  684.960
1109.052;    8.512;  -13.940;  612.620
1109.594;    8.546;  -13.690;  554.440
1110.136;    8.398;  -11.880;  643.220
1110.679;    7.770;   -9.500;  633.080
1111.221;    8.510;  -14.160;  604.460
1111.763;    8.582;  -13.980;  559.220
1112.304;    7.409;  -13.880;  547.140
1112.846;    8.066;  -12.210;  666.240
1113.388;   10.808;  -11.390;  942.180
1113.930;    7.844;  -14.540;  694.200
1114.472;    6.841;  -12.640;  606.540
1115.013;    6.204;  -11.620;  551.280
1115.555;    7.149;  -13.640;  587.100
1116.097;    6.236;  -15.380;  579.480
1116.638;    6.920;  -12.640;  684.600
1117.180;    7.316;   -9.850;  667.740
1117.721;    7.114;  -13.690;  568.580
1118.262;    8.204;  -12.680;  677.960
1118.804;    6.660;  -12.530;  637.340
1119.345;    6.657;  -11.690;  578.400
1119.886;    7.135;  -13.380;  704.040
1120.427;    6.763;  -14.070;  589.020
1120.969;    5.666;  -13.500;  597.920
1121.510;    5.687;  -11.480;  563.060
1122.051;    6.150;  -12.830;  723.580
1122.592;    5.883;  -14.290;  655.420
1123.133;    4.285;  -12.400;  547.940
1123.673;    5.759;  -10.130;  706.480
1124.214;    6.218;  -12.930;  612.460
1124.755;    6.271;  -14.380;  639.460
1125.296;    5.343;  -14.000;  627.320
1125.836;    5.964;  -10.070;  691.500
1126.377;    5.314;  -12.640;  599.660
1126.918;    5.979;  -12.960;  614.980
1127.458;    4.224;  -13.350;  622.220
1127.999;    5.744;  -10.750;  656.980
1128.539;    5.957;  -12.350;  694.240
1129.079;    4.836;  -14.860;  632.720
1129.620;    4.025;  -13.840;  558.100
1130.160;    4.245;  -12.330;  539.480
1130.700;    4.911;  -14.530;  640.840
1131.240;    5.978;  -12.530;  643.700
1131.781;    4.120;  -14.450;  619.680
1132.321;    4.432;   -9.790;  599.120
1132.861;    3.972;  -14.860;  564.200
1133.401;    3.189;  -14.290;  593.940
1133.941;    4.116;  -11.750;  626.280
1134.481;    3.794;   -9.920;  597.580
1135.020;    3.667;  -12.290;  609.160
1135.560;    4.228;  -11.650;  674.940
1136.100;    2.760;  -16.270;  501.160
1136.640;    3.687;  -10.890;  510.480
1137.179;    3.437;  -14.180;  537.960
1137.719;    3.153;  -16.250;  605.400
1138.258;    2.230;  -14.230;  587.360
1138.798;    3.701;   -9.090;  663.780
1139.337;    2.169;  -15.130;  482.840
1139.877;    3.089;  -13.680;  642.360
1140.416;    4.109;  -11.320;  878.060
1140.955;    2.659;  -10.860;  535.380
1141.494;    3.630;  -12.920;  669.280
1142.034;    1.539;  -13.930;  583.520
1142.573;    3.294;  -11.440;  646.280
1143.112;    2.702;  -12.000;  553.480
1143.651;    2.538;  -13.670;  536.480
1144.190;    2.680;  -12.730;  691.640
1144.729;    1.973;  -14.560;  607.420
1145.267;    2.114;  -11.830;  584.900
1145.806;    3.565;  -12.230;  637.040
1146.345;    1.727;  -14.130;  635.020
1146.884;    1.275;  -11.590;  622.500
1147.422;    1.213;  -12.550;  533.060
1147.961;    3.169;  -11.180;  708.460
1148.500;    3.207;  -11.510;  669.720
1149.038;    1.922;  -11.640;  632.500
1149.577;    2.444;  -10.130;  698.640
1150.115;    0.934;  -13.970;  452.280
1150.653;    2.219;  -14.520;  607.340
1151.192;    1.417;  -12.810;  552.920
1151.730;    1.020;   -9.100;  652.560
1152.268;    1.413;  -12.220;  589.520
1152.806;    1.051;  -14.140;  571.180
1153.344;   -0.468;  -12.350;  577.640
1153.882;    1.185;   -8.980;  600.060
1154.421;    0.022;  -15.190;  470.620
1154.958;    0.545;  -15.210;  595.240
1155.496;    1.388;  -12.850;  645.280
1156.034;    0.927;   -9.940;  721.880
1156.572;    1.656;  -13.570;  667.060
1157.110;    0.025;  -14.590;  473.940
1157.647;    0.774;  -13.030;  676.960
1158.185;    0.031;  -12.140;  564.320
1158.723;   -0.792;  -14.390;  509.200
1159.260;    0.743;  -14.090;  701.700
1159.798;    0.053;  -11.920;  658.160
1160.335;   -0.637;  -11.110;  631.820

