
Integration time [ms]:   3.276
Averaging Nr. [scans]: 1000
Smoothing Nr. [pixels]: 0
Data measured with spectrometer [name]: 7414430SP
Wave   ;Sample   ;Dark     ;Reference
[nm]   ;[counts] ;[counts] ;[counts] 

288.544;  158.226;    7.793;  793.890
289.143;  162.052;    7.462;  681.602
289.742;  162.328;    8.602;  828.814
290.341;  148.818;    1.321;  789.841
290.940;  139.468;   -0.709;  730.702
291.538;  140.895;    0.881;  881.108
292.137;  138.563;    0.122;  792.581
292.736;  142.144;   -1.929;  975.101
293.335;  138.977;   -8.229;  735.086
293.934;  139.400;   -5.279;  781.677
294.532;  138.120;   -1.369; 1031.958
295.131;  124.313;   -7.641;  834.394
295.730;  124.849;   -8.420;  809.588
296.328;  123.697;   -5.611;  783.442
296.927;  122.440;   -5.781;  779.652
297.525;  122.901;   -6.361;  781.236
298.124;  114.552;  -11.382;  654.009
298.722;  118.830;   -7.641;  761.933
299.321;  116.180;   -6.811;  708.597
299.919;  113.039;   -6.991;  751.918
300.518;  110.853;  -10.362;  689.338
301.116;  112.212;   -9.581;  691.381
301.715;  111.785;   -4.891;  730.222
302.313;  109.973;   -8.801;  704.943
302.911;  106.549;   -8.522;  733.830
303.509;  111.779;   -6.171;  925.627
304.108;  109.440;   -7.311;  760.383
304.706;  108.396;   -8.321;  801.664
305.304;  103.105;  -10.222;  796.707
305.902;  108.614;   -6.021;  784.484
306.500;  102.949;   -4.971;  728.200
307.098;  101.294;   -7.061;  746.560
307.696;   99.945;   -8.801;  780.432
308.294;  101.390;   -6.411;  731.359
308.892;  102.152;   -2.901;  759.769
309.490;   98.147;   -5.041;  712.161
310.088;   96.121;   -5.002;  788.444
310.686;  101.427;   -2.041;  821.749
311.284;   96.392;   -2.351;  766.040
311.882;   93.778;   -4.422;  731.225
312.480;   90.421;   -4.192;  697.167
313.078;   92.738;   -1.172;  808.331
313.675;   93.411;   -2.601;  691.600
314.273;   87.266;   -1.312;  797.837
314.871;   87.236;   -3.942;  589.829
315.468;   85.480;   -2.802;  652.090
316.066;   88.736;   -0.701;  694.427
316.664;   80.520;   -4.362;  656.351
317.261;   84.656;   -2.872;  910.128
317.859;   81.076;   -2.022;  768.735
318.456;   80.169;   -0.531;  830.096
319.054;   76.918;   -3.912;  787.828
319.651;   75.476;   -4.752;  759.928
320.249;   74.770;   -2.602;  810.188
320.846;   71.890;   -0.821;  714.286
321.443;   69.459;   -4.642;  832.135
322.041;   66.938;   -5.002;  812.315
322.638;   64.469;   -3.982;  701.456
323.235;   65.689;   -3.411;  665.683
323.833;   62.152;   -7.361;  740.354
324.430;   57.942;   -8.611;  615.900
325.027;   58.088;   -4.061;  876.855
325.624;   58.110;   -4.031;  644.532
326.221;   55.277;   -7.481;  689.717
326.818;   54.491;   -5.281;  818.332
327.415;   57.855;   -7.460;  748.828
328.012;   56.822;   -5.510;  690.585
328.609;   54.500;   -7.880;  731.389
329.206;   52.669;   -8.331;  778.621
329.803;   52.737;   -5.121;  737.841
330.400;   56.166;   -4.510;  704.260
330.997;   57.451;   -6.441;  817.147
331.594;   56.492;   -8.831;  788.185
332.191;   61.507;   -7.621;  728.722
332.787;   64.617;   -4.591;  844.463
333.384;   64.155;   -7.412;  763.093
333.981;   62.927;   -8.293;  815.687
334.578;   66.605;   -7.052;  708.378
335.174;   68.417;   -3.102;  731.469
335.771;   68.018;   -5.943;  836.456
336.367;   65.153;   -7.393;  710.631
336.964;   69.342;   -4.063;  793.266
337.561;   67.190;   -3.813;  731.112
338.157;   62.571;   -4.654;  911.916
338.754;   61.319;   -7.934;  796.589
339.350;   59.812;   -4.414;  722.493
339.946;   59.896;   -4.664;  773.135
340.543;   52.511;   -6.375;  846.136
341.139;   47.623;   -9.815;  720.836
341.735;   44.852;   -4.526;  772.593
342.332;   42.681;   -4.895;  691.472
342.928;   43.196;   -4.295;  795.394
343.524;   36.668;   -5.476;  761.684
344.120;   33.474;   -5.856;  738.562
344.716;   36.052;   -2.155;  723.717
345.313;   34.155;   -6.275;  795.342
345.909;   28.353;   -8.815;  627.336
346.505;   30.449;   -5.305;  740.247
347.101;   31.391;   -2.674;  827.864
347.697;   30.763;   -4.344;  785.398
348.293;   25.835;   -9.975;  627.244
348.889;   27.133;   -5.774;  745.914
349.485;   25.280;   -5.004;  688.205
350.081;   25.590;   -4.704;  772.592
350.676;   21.757;   -6.635;  691.606
351.272;   26.350;   -4.504;  809.530
351.868;   24.882;   -3.914;  780.497
352.464;   22.611;   -9.044;  723.932
353.059;   19.042;   -8.314;  646.017
353.655;   23.031;   -7.024;  777.063
354.251;   23.326;   -5.343;  759.845
354.846;   17.825;   -8.604;  740.646
355.442;   15.505;   -6.945;  753.071
356.038;   16.852;   -7.564;  751.708
356.633;   18.176;   -5.814;  728.594
357.229;   15.082;   -7.364;  724.757
357.824;   13.769;   -8.024;  703.600
358.420;   12.917;   -9.384;  679.726
359.015;   13.734;   -5.104;  695.357
359.610;   14.201;   -6.854;  763.920
360.206;    8.828;  -10.185;  603.240
360.801;   11.713;   -7.054;  646.503
361.396;   13.792;   -5.034;  725.975
361.992;    8.321;   -8.284;  668.220
362.587;    6.085;   -8.625;  670.160
363.182;    8.331;   -7.674;  689.631
363.777;    8.649;   -5.164;  738.242
364.372;    8.381;   -8.604;  737.314
364.967;    4.678;   -9.055;  680.744
365.563;    8.667;   -6.114;  815.567
366.158;    6.069;   -5.814;  685.161
366.753;    5.102;   -7.854;  649.263
367.348;    4.562;   -7.804;  746.056
367.942;    4.947;   -7.954;  697.298
368.537;    4.002;   -4.984;  754.245
369.132;    3.718;   -8.564;  703.428
369.727;    0.095;   -8.855;  638.079
370.322;    1.737;   -6.245;  580.186
370.917;    0.908;   -6.425;  710.646
371.511;    3.517;   -6.294;  861.834
372.106;    0.475;   -7.685;  776.964
372.701;   -3.053;   -7.335;  585.988
373.296;    2.608;   -4.564;  863.135
373.890;   -2.817;  -10.235;  647.840
374.485;   -3.964;   -7.885;  691.199
375.079;   -0.037;   -7.324;  738.685
375.674;    1.193;   -3.494;  812.970
376.268;   -4.313;   -8.525;  691.759
376.863;   -9.269;  -10.086;  580.327
377.457;   -2.071;   -7.025;  662.490
378.052;   -4.952;   -3.585;  764.884
378.646;   -5.895;   -7.595;  741.167
379.240;   -5.477;   -8.335;  721.176
379.835;   -5.939;   -5.785;  636.978
380.429;   -7.516;   -4.335;  562.557
381.023;   -7.516;   -6.805;  779.205
381.617;   -9.172;   -9.195;  680.106
382.212;   -5.781;   -6.905;  685.303
382.806;   -5.350;   -3.745;  760.690
383.400;   -9.820;   -7.745;  672.281
383.994;  -10.323;   -9.765;  664.870
384.588;   -6.663;   -6.564;  697.701
385.182;   -5.801;   -5.344;  726.624
385.776;   -7.058;   -8.514;  706.875
386.370;   -9.813;   -9.555;  681.968
386.964;   -8.468;   -8.715;  684.155
387.558;   -7.292;   -6.174;  598.360
388.152;  -10.798;   -8.725;  681.959
388.745;   -8.655;   -7.965;  814.707
389.339;   -6.784;   -5.924;  747.642
389.933;   -6.745;   -5.524;  695.370
390.527;   -8.918;   -7.114;  859.029
391.120;  -13.987;  -10.725;  595.318
391.714;  -10.498;   -8.035;  711.633
392.308;   -7.431;   -3.574;  780.253
392.901;  -11.141;   -7.245;  642.460
393.495;  -12.157;   -9.285;  595.414
394.089;  -10.714;   -5.895;  760.452
394.682;  -12.013;   -4.295;  697.188
395.275;  -12.671;   -9.875;  719.927
395.869;  -13.673;   -8.485;  667.314
396.462;  -11.205;   -7.455;  616.609
397.056;   -8.121;   -5.424;  776.621
397.649;  -13.038;   -6.605;  731.575
398.242;  -10.043;   -8.224;  712.645
398.836;   -9.170;   -7.474;  766.408
399.429;  -10.251;   -7.094;  631.041
400.022;  -14.331;   -9.475;  665.902
400.615;  -11.181;   -7.145;  805.609
401.208;   -8.881;   -7.174;  691.451
401.802;  -10.988;   -5.515;  699.329
402.395;  -13.029;   -9.875;  683.502
402.988;  -13.023;   -8.845;  696.627
403.581;   -9.853;   -8.874;  646.878
404.174;   -7.709;   -5.324;  686.568
404.767;  -11.272;   -9.575;  638.583
405.360;  -13.304;  -10.965;  621.445
405.953;   -8.195;   -8.764;  759.034
406.545;   -7.083;   -7.514;  725.342
407.138;  -12.297;  -10.025;  618.350
407.731;  -10.769;  -10.034;  613.303
408.324;   -6.038;   -9.374;  660.554
408.917;   -8.034;   -6.534;  681.864
409.509;   -9.982;   -8.004;  740.396
410.102;  -11.628;   -9.875;  643.948
410.695;   -5.420;   -8.604;  665.758
411.287;   -6.472;   -6.794;  599.821
411.880;   -8.220;   -9.334;  585.421
412.472;  -11.087;  -10.254;  613.092
413.065;   -7.018;   -6.714;  629.408
413.657;   -5.365;   -7.234;  576.678
414.250;   -6.577;  -10.544;  646.681
414.842;   -7.005;   -9.744;  676.353
415.434;   -4.905;   -6.994;  570.463
416.027;   -1.318;   -5.893;  652.196
416.619;   -3.595;   -7.264;  713.400
417.211;   -3.498;  -10.374;  599.352
417.804;    0.209;   -7.993;  628.499
418.396;   -3.617;   -7.234;  607.643
418.988;   -1.789;   -9.443;  659.238
419.580;   -5.029;  -10.724;  568.276
420.172;   -2.888;  -10.323;  536.196
420.764;    0.902;   -8.793;  672.482
421.356;    0.000;  -11.143;  636.898
421.948;   -1.593;   -8.293;  677.661
422.540;    4.144;   -7.893;  680.027
423.132;    3.402;   -7.082;  600.641
423.724;    0.066;   -8.653;  561.267
424.316;    2.787;  -10.213;  621.345
424.908;    5.669;   -9.762;  591.517
425.500;    6.084;   -5.572;  647.978
426.092;    6.786;   -8.422;  648.268
426.683;    6.567;   -9.283;  684.836
427.275;    8.848;   -7.852;  641.471
427.867;    9.842;   -5.272;  668.948
428.458;   10.556;   -7.682;  732.344
429.050;    9.641;  -10.612;  680.749
429.642;   11.437;   -9.882;  743.124
430.233;   11.785;   -6.962;  569.356
430.825;   12.805;   -6.842;  724.809
431.416;   10.342;   -9.672;  698.241
432.008;   14.742;   -6.552;  651.723
432.599;   14.526;   -6.891;  656.073
433.190;   12.595;  -10.912;  637.670
433.782;   11.798;  -11.172;  590.395
434.373;   19.153;   -6.061;  884.765
434.964;   18.027;   -8.251;  602.920
435.556;   14.917;   -9.722;  634.537
436.147;   17.927;   -9.082;  758.490
436.738;   18.265;   -8.041;  701.099
437.329;   22.839;   -7.341;  721.723
437.920;   15.956;   -8.162;  666.688
438.511;   16.098;  -11.802;  564.526
439.103;   23.125;  -10.191;  623.998
439.694;   24.343;   -7.601;  681.583
440.285;   25.018;   -8.541;  764.432
440.876;   23.189;   -9.751;  845.738
441.466;   23.248;   -9.401;  575.162
442.057;   28.958;   -7.760;  665.814
442.648;   26.886;   -9.971;  746.255
443.239;   25.496;  -11.001;  620.477
443.830;   30.558;   -7.990;  704.958
444.421;   32.401;   -7.910;  655.474
445.011;   28.433;   -8.131;  693.619
445.602;   27.825;   -7.111;  743.126
446.193;   30.837;  -10.920;  488.117
446.783;   34.812;   -6.500;  640.397
447.374;   29.698;   -8.671;  692.759
447.964;   31.223;  -10.781;  713.770
448.555;   39.637;   -9.650;  822.742
449.145;   35.981;   -8.660;  662.853
449.736;   36.563;   -8.990;  803.179
450.326;   36.784;   -9.500;  713.626
450.917;   41.082;   -8.680;  675.324
451.507;   40.445;   -7.520;  600.661
452.097;   41.030;   -8.590;  746.267
452.688;   42.640;  -11.340;  742.160
453.278;   42.830;  -10.100;  566.840
453.868;   46.874;   -6.019;  793.550
454.458;   43.767;   -9.440;  651.141
455.048;   44.312;  -10.560;  711.783
455.639;   47.251;  -11.799;  567.096
456.229;   50.851;   -6.899;  710.694
456.819;   52.320;   -7.389;  751.158
457.409;   52.552;  -11.119;  773.993
457.999;   55.017;   -9.289;  737.505
458.589;   54.740;   -6.139;  686.606
459.179;   54.330;   -8.729;  717.658
459.769;   53.147;   -9.789;  627.099
460.358;   57.768;  -10.259;  797.262
460.948;   58.363;   -7.299;  689.503
461.538;   59.963;  -10.289;  660.677
462.128;   57.441;  -11.269;  664.934
462.717;   64.557;   -9.368;  710.326
463.307;   67.585;   -7.908;  705.846
463.897;   63.504;   -9.599;  656.942
464.486;   61.977;   -9.769;  837.128
465.076;   67.794;   -8.048;  733.776
465.666;   70.329;   -9.358;  652.900
466.255;   67.837;   -7.919;  785.651
466.845;   68.351;  -11.689;  666.749
467.434;   70.802;   -7.818;  725.873
468.023;   71.561;   -7.678;  658.357
468.613;   69.345;  -10.939;  713.946
469.202;   74.354;  -10.118;  646.507
469.791;   78.305;   -9.108;  737.811
470.381;   79.697;   -6.058;  742.813
470.970;   79.155;  -10.428;  711.099
471.559;   79.522;  -10.268;  733.291
472.148;   83.268;   -8.448;  675.737
472.738;   85.024;   -6.917;  765.466
473.327;   84.836;  -11.978;  637.529
473.916;   84.184;  -11.888;  737.446
474.505;   88.314;   -9.437;  751.703
475.094;   92.216;   -6.747;  806.570
475.683;   90.907;   -9.367;  797.699
476.272;   92.487;  -12.637;  730.632
476.861;   95.485;  -10.027;  706.754
477.449;  102.075;   -8.716;  728.487
478.038;   95.653;   -9.577;  692.513
478.627;   97.523;   -9.718;  714.852
479.216;  103.740;   -8.947;  769.441
479.805;  107.101;   -6.256;  783.375
480.393;  106.958;   -7.937; 1008.945
480.982;  106.339;   -7.717;  874.501
481.571;  113.034;   -9.266;  858.333
482.159;  113.242;   -7.636;  705.386
482.748;  113.686;   -9.667;  821.385
483.336;  118.012;  -10.376;  858.209
483.925;  119.312;   -7.147;  774.373
484.513;  125.868;   -7.996;  758.962
485.102;  122.637;  -10.027;  810.965
485.690;  131.282;  -10.446; 1011.050
486.278;  133.346;   -8.446;  979.329
486.867;  134.611;   -6.356;  809.662
487.455;  135.892;   -9.136;  898.229
488.043;  138.782;  -10.646;  748.361
488.631;  147.259;   -7.456; 1005.079
489.220;  151.408;   -6.636;  908.626
489.808;  151.320;  -11.036;  741.415
490.396;  160.241;  -10.246;  914.645
490.984;  167.212;   -8.556;  830.161
491.572;  179.804;   -5.886;  940.315
492.160;  185.717;   -9.486;  919.081
492.748;  198.179;  -10.976;  884.341
493.336;  220.872;   -8.776; 1019.693
493.924;  251.631;   -5.465;  958.077
494.512;  289.044;   -9.986; 1066.638
495.100;  333.276;  -10.636; 1103.280
495.687;  400.082;  -10.885; 1206.373
496.275;  484.587;   -8.126; 1150.796
496.863;  566.156;  -10.586; 1281.171
497.451;  682.371;  -11.926; 1386.805
498.038;  793.406;  -10.885; 1556.729
498.626;  920.337;   -6.315; 1741.407
499.214; 1132.145;   -7.326; 2016.609
499.801; 1381.296;  -11.906; 2220.633
500.389; 1701.025;  -10.466; 2312.494
500.976; 1987.532;   -5.236; 2744.849
501.564; 2491.419;   -8.936; 3148.565
502.151; 3175.289;  -13.176; 3515.999
502.738; 3586.338;  -10.646; 3971.274
503.326; 3995.358;   -9.525; 4403.796
503.913; 4462.040;  -10.856; 5161.749
504.500; 4973.530;  -11.586; 5986.420
505.088; 5573.168;  -10.336; 6381.201
505.675; 6466.707;   -6.355; 6925.547
506.262; 7062.367;   -9.046; 7619.060
506.849; 7473.298;  -10.416; 8733.969
507.436; 7974.345;  -10.305; 9790.121
508.023; 8395.970;   -5.496; 9985.472
508.610; 8521.719;   -7.856;10434.618
509.197; 9513.949;  -10.097;11198.435
509.784;10961.449;  -10.886;12391.194
510.371;12528.969;   -9.315;13603.713
510.958;13734.014;   -9.936;14426.586
511.545;14372.953;   -9.326;15243.775
512.132;14588.382;  -10.075;15945.876
512.719;15093.276;   -7.796;16340.369
513.305;16488.916;  -10.606;18011.766
513.892;18166.379;  -11.486;19754.971
514.479;19465.730;   -9.126;20967.805
515.066;20982.377;   -6.026;22299.793
515.652;21167.051;   -8.466;22908.660
516.239;21683.895;  -10.886;23798.875
516.825;23282.686;  -11.496;25567.275
517.412;25035.949;   -5.796;28154.959
517.998;26351.246;  -10.506;28344.111
518.585;27208.791;  -10.076;27134.219
519.171;26729.105;   -8.315;27268.576
519.758;27463.461;   -8.596;28964.129
520.344;30190.873;   -8.466;30664.494
520.930;29277.730;  -11.006;32550.605
521.516;27726.674;  -10.495;35422.895
522.103;29850.895;   -5.526;38280.004
522.689;32490.391;   -8.746;37835.117
523.275;33554.430;  -11.376;37288.613
523.861;35578.918;  -11.156;37281.395
524.447;35078.672;   -8.135;37846.949
525.033;35423.684;   -7.896;38321.949
525.619;36473.477;  -12.476;38579.285
526.205;36482.965;   -9.516;40622.875
526.791;35990.969;   -6.926;42258.836
527.377;35840.129;   -8.346;42966.902
527.963;37753.621;   -8.717;42018.949
528.549;39462.922;  -11.016;42476.828
529.135;37722.727;   -8.536;41854.852
529.721;37532.156;   -9.666;41237.711
530.306;36707.242;  -10.066;41259.445
530.892;37837.781;  -11.356;41506.047
531.478;39890.473;   -6.596;43559.613
532.063;42047.965;   -8.836;47695.563
532.649;40400.707;  -10.047;50808.324
533.235;40332.617;   -9.746;51787.500
533.820;42788.023;   -6.566;52145.035
534.406;44607.637;  -10.817;51133.488
534.991;46726.695;   -9.416;49996.805
535.576;45348.352;   -9.036;48882.852
536.162;42547.652;   -6.156;46942.285
536.747;43104.871;  -11.607;45711.746
537.333;46168.609;  -11.787;48510.180
537.918;47069.070;  -12.437;50439.891
538.503;46360.160;   -7.196;50863.711
539.088;46901.449;  -10.556;50906.922
539.673;48129.699;   -8.767;52621.965
540.259;44915.520;  -10.026;52368.094
540.844;44301.297;   -7.416;50879.109
541.429;43778.090;   -9.467;52077.777
542.014;42977.543;   -9.527;52716.695
542.599;46457.313;   -9.946;52363.281
543.184;47997.961;   -7.927;53187.137
543.769;48241.258;   -9.297;54697.605
544.354;48621.023;  -10.127;53913.914
544.938;46194.613;   -9.267;49680.164
545.523;44131.051;   -6.506;47386.277
546.108;46335.539;   -9.787;49151.949
546.693;47388.336;  -11.587;51384.637
547.278;47749.426;  -10.986;51853.254
547.862;48143.047;   -8.206;51173.750
548.447;46272.258;  -10.067;51691.395
549.031;46125.500;   -9.637;52456.703
549.616;46530.035;   -9.926;52714.516
550.201;45517.355;   -6.347;52414.598
550.785;46541.504;   -7.917;52355.059
551.370;47651.906;  -10.867;54589.453
551.954;50159.301;   -9.047;58267.348
552.538;49344.684;   -7.827;59062.176
553.123;47166.660;  -10.287;58115.285
553.707;46029.371;  -12.178;56556.285
554.291;43121.070;   -8.717;56201.668
554.876;44417.316;   -7.457;55335.762
555.460;46951.918;  -10.387;54155.703
556.044;48580.102;   -9.618;53721.484
556.628;49349.008;  -11.567;53731.016
557.212;50255.438;   -8.097;54312.531
557.796;52078.949;  -11.077;53797.773
558.380;49852.375;  -11.108;56145.984
558.964;47677.664;   -9.057;57277.930
559.548;45340.961;   -6.977;56459.641
560.132;41935.289;  -11.457;54434.543
560.716;43203.891;  -11.378;54800.617
561.300;45258.160;   -9.577;57606.945
561.884;43963.789;   -7.127;58972.445
562.467;42655.383;   -7.118;57327.570
563.051;40957.777;  -13.358;54962.434
563.635;38834.379;  -10.178;52594.473
564.219;40768.879;   -7.837;50610.410
564.802;44555.598;  -11.398;49551.180
565.386;45150.023;  -12.788;48370.953
565.969;46268.348;   -9.077;48178.871
566.553;45247.578;   -6.207;49957.305
567.136;43439.574;   -8.568;50369.594
567.720;44621.066;  -11.868;49492.004
568.303;45788.496;   -8.268;50616.352
568.887;44948.805;   -8.698;50727.148
569.470;42622.633;   -6.808;51698.379
570.053;40205.363;  -13.188;52122.078
570.637;37656.684;  -12.037;52536.438
571.220;37792.504;   -8.577;51186.098
571.803;37971.250;   -8.498;51032.762
572.386;40275.852;  -10.498;49609.887
572.969;41325.355;   -9.388;48285.926
573.552;41985.301;   -8.338;47624.285
574.135;41241.754;   -8.518;45498.641
574.718;37957.914;  -13.628;41970.434
575.301;37832.703;  -10.893;41447.137
575.884;37707.492;   -8.158;40923.836
576.467;41746.695;  -10.328;45267.723
577.050;41903.430;  -13.058;48175.543
577.633;40725.961;   -9.458;47729.328
578.216;37204.035;   -8.928;47579.793
578.799;34651.184;   -9.358;47820.996
579.381;36037.359;  -11.388;48115.551
579.964;36252.148;  -11.718;47333.766
580.547;34979.551;   -8.588;46668.969
581.129;35771.195;   -8.859;44466.141
581.712;37714.711;  -10.729;44164.922
582.294;37254.961;  -11.118;46477.855
582.877;37968.801;   -5.218;48244.254
583.459;38339.375;   -8.679;47437.895
584.042;39534.859;  -10.709;46943.219
584.624;37540.363;  -11.669;46792.227
585.206;36185.781;   -8.218;46557.250
585.789;37165.410;  -10.569;45793.773
586.371;37923.777;  -11.859;43836.391
586.953;38970.148;  -10.719;42972.492
587.536;40232.602;   -7.198;42487.211
588.118;39110.125;   -8.720;42086.414
588.700;37754.371;  -10.439;43389.930
589.282;35182.336;   -9.198;43646.039
589.864;33015.691;   -9.199;43438.109
590.446;32965.512;  -11.319;43151.926
591.028;32478.996;  -11.159;42781.867
591.610;32616.188;  -11.779;42839.098
592.192;33933.238;   -7.668;42820.402
592.774;33148.688;  -11.949;40724.277
593.356;31230.902;  -12.129;39874.789
593.937;31161.396;  -10.669;39980.648
594.519;33783.113;   -6.509;42069.633
595.101;33869.375;  -10.849;42976.031
595.683;32438.205;  -11.679;44084.441
596.264;31538.240;   -9.049;43478.797
596.846;31159.533;   -8.849;43803.672
597.427;31249.816;   -9.570;42986.934
598.009;33260.824;  -12.620;42832.219
598.591;33081.434;  -10.039;42580.086
599.172;35173.027;  -10.369;43061.805
599.753;37424.453;   -9.140;41691.469
600.335;36883.238;  -11.430;40692.520
600.916;34383.035;   -9.939;39982.422
601.498;31311.760;   -8.479;40318.617
602.079;30894.752;  -10.920;40670.609
602.660;30445.578;  -11.480;41450.898
603.241;31124.488;  -11.699;41137.738
603.823;31526.418;   -9.579;38868.797
604.404;31252.773;  -10.620;38182.785
604.985;34164.563;  -10.450;38078.047
605.566;34824.527;   -9.129;38056.633
606.147;35752.836;   -7.510;37020.418
606.728;34430.898;  -10.660;37883.359
607.309;32519.867;  -11.740;38748.273
607.890;32241.727;   -9.759;38850.230
608.471;30846.988;   -8.250;37457.918
609.051;31019.938;   -9.240;36066.457
609.632;30701.256;  -12.120;35991.074
610.213;30352.646;   -9.110;37402.641
610.794;31590.633;   -8.030;38383.363
611.374;30339.893;   -8.110;40562.387
611.955;30190.889;  -13.560;38533.727
612.536;31275.105;  -11.400;36951.789
613.116;30751.387;   -8.070;37197.891
613.697;31378.441;  -10.830;38411.125
614.277;31014.641;  -11.641;38673.938
614.858;30390.080;  -13.310;37075.863
615.438;30410.309;   -7.460;35092.906
616.019;28661.873;   -7.601;33666.301
616.599;29466.406;  -12.020;34189.023
617.179;29455.990;  -11.780;36952.047
617.760;28387.490;   -8.570;39582.574
618.340;28705.141;  -11.471;38943.977
618.920;29086.949;  -11.170;37594.156
619.500;30019.879;  -11.071;37866.938
620.080;30617.193;   -7.750;37869.043
620.660;30870.609;  -12.711;36868.617
621.241;31628.299;  -10.211;36352.309
621.821;31126.043;  -10.961;35459.520
622.401;31214.512;   -7.720;35207.414
622.980;32996.785;   -8.981;35980.422
623.560;31569.957;   -9.331;37351.328
624.140;27285.455;   -9.850;34388.582
624.720;23433.219;   -7.451;32368.764
625.300;23152.115;   -9.070;32638.629
625.880;27225.912;  -12.601;34599.035
626.459;30378.334;  -11.751;36831.738
627.039;30433.703;   -9.281;38299.098
627.619;29655.420;   -8.801;38289.574
628.198;29962.109;  -12.071;37220.695
628.778;30845.348;   -9.461;37632.563
629.357;31540.254;   -8.491;38003.012
629.937;31153.650;   -9.721;38402.039
630.516;31812.162;   -9.951;37868.801
631.096;32928.547;  -11.731;35760.410
631.675;35168.211;   -8.572;35225.219
632.254;35160.816;  -11.282;35130.289
632.834;33935.828;  -13.322;35794.570
633.413;34611.223;  -10.301;35788.922
633.992;34491.008;   -8.582;34532.863
634.571;35098.609;   -8.352;33590.113
635.151;34398.961;  -11.912;34943.863
635.730;32193.363;  -10.511;35352.523
636.309;31965.539;   -7.731;35366.605
636.888;31717.523;   -9.952;36165.637
637.467;31048.875;  -11.672;37515.902
638.046;29470.045;   -8.901;39288.695
638.625;28738.941;   -7.912;38279.699
639.204;27941.457;  -10.022;37741.598
639.782;29264.488;  -12.252;38364.551
640.361;31332.971;  -10.041;36740.621
640.940;31041.453;  -11.161;34950.082
641.519;30585.445;   -9.701;34137.398
642.097;31750.689;  -11.271;35654.258
642.676;31815.885;   -8.651;35637.957
643.255;30736.176;   -8.711;36567.074
643.833;30396.260;   -9.581;37809.434
644.412;31247.127;  -13.711;37337.293
644.990;32669.730;  -11.811;37018.531
645.569;35425.691;   -9.411;36518.469
646.147;35945.090;  -10.291;36186.430
646.726;33949.863;  -12.401;36267.688
647.304;32557.609;  -10.411;36647.625
647.882;33100.094;   -9.651;39286.742
648.461;32833.988;   -9.631;39157.703
649.039;30545.189;  -11.881;35412.883
649.617;30434.646;   -9.661;34744.918
650.195;30921.043;   -9.301;35403.098
650.773;30249.775;  -10.511;35053.797
651.352;30180.191;  -11.521;33756.816
651.930;29100.783;  -12.211;31868.773
652.508;28108.225;   -9.171;33121.551
653.086;29512.006;   -9.371;33564.793
653.663;31743.889;  -13.161;34054.668
654.241;30422.551;  -13.031;35693.309
654.819;28361.811;   -9.371;36422.906
655.397;29105.912;  -10.511;38213.484
655.975;29477.863;  -10.371;39507.625
656.553;30371.768;  -10.051;39498.223
657.130;30949.885;  -10.061;40395.480
657.708;27837.965;   -9.561;39242.020
658.286;25121.408;  -11.511;38920.020
658.863;25722.203;  -10.261;40202.898
659.441;28673.064;   -7.531;39677.938
660.018;31152.492;   -9.501;40413.355
660.596;31768.637;  -13.301;39931.414
661.173;34521.785;  -11.211;39604.531
661.750;33533.938;   -9.951;39700.070
662.328;30817.619;   -9.390;39292.809
662.905;29462.195;  -11.330;38235.648
663.482;26662.070;   -9.050;36212.305
664.060;24450.951;   -8.240;35944.945
664.637;28380.518;  -10.050;35170.785
665.214;32998.363;  -11.760;34197.523
665.791;31914.654;  -10.530;34549.520
666.368;31656.889;   -9.690;35118.578
666.945;32146.488;   -9.320;36019.418
667.522;32860.387;  -11.860;36048.438
668.099;32084.455;  -10.770;36243.914
668.676;32552.758;   -6.260;35958.875
669.253;34784.520;   -7.000;37384.730
669.830;34952.750;  -10.190;36779.629
670.407;33585.750;   -9.550;35231.289
670.984;32772.164;   -9.260;35544.270
671.560;31240.855;   -9.280;35466.867
672.137;29652.283;  -11.810;34280.863
672.714;29629.752;  -11.490;34632.863
673.290;30365.750;   -7.740;35135.422
673.867;30748.043;  -10.660;36114.480
674.443;30118.131;  -12.230;36152.859
675.020;28698.717;  -10.450;35327.238
675.596;27267.605;   -9.260;35795.176
676.173;28114.652;  -10.780;35430.355
676.749;28753.736;  -13.690;33549.516
677.326;29794.291;  -11.980;32210.012
677.902;27846.844;   -8.630;32068.871
678.478;25911.354;  -10.730;32583.891
679.054;27681.678;  -10.520;32088.928
679.631;29184.576;  -11.920;30978.848
680.207;30561.471;   -7.490;33160.887
680.783;31710.275;   -9.860;35570.363
681.359;32215.225;  -13.380;36125.184
681.935;31202.914;  -12.480;35240.922
682.511;31943.771;   -7.900;34429.961
683.087;32467.127;   -7.710;34463.680
683.663;32985.309;  -11.480;34648.898
684.239;32532.666;  -14.090;34546.457
684.815;33328.508;   -7.560;35586.375
685.390;33342.844;   -9.910;35821.895
685.966;33011.180;  -11.159;35085.871
686.542;33673.227;  -11.169;34198.230
687.118;32249.832;   -5.959;32847.707
687.693;32294.449;  -10.329;32794.027
688.269;31467.666;  -12.059;33072.367
688.844;31975.258;  -10.909;33141.664
689.420;33312.078;   -8.019;33965.742
689.995;30215.725;   -8.399;34655.523
690.571;29257.885;  -10.949;33576.742
691.146;28549.563;   -9.619;32657.219
691.722;26524.879;   -8.999;32526.979
692.297;25734.629;  -11.589;33014.617
692.872;26641.617;  -11.739;34012.254
693.448;26896.723;  -11.059;34237.434
694.023;28525.641;  -10.139;34142.672
694.598;30559.811;   -9.029;34132.031
695.173;30249.953;  -13.319;34205.250
695.748;27607.313;  -10.169;32882.488
696.323;25276.213;   -8.339;32864.906
696.898;25093.408;   -8.169;33170.004
697.473;28343.002;  -12.309;32432.984
698.048;28308.715;  -10.989;31649.303
698.623;27266.010;   -9.329;30778.141
699.198;28729.895;   -9.849;31140.119
699.773;30029.561;  -12.329;31764.299
700.348;30060.674;  -10.389;31780.816
700.922;28446.357;   -9.269;32046.375
701.497;26758.219;   -9.329;32603.574
702.072;28342.951;  -10.789;34799.871
702.646;28205.914;  -10.839;35793.172
703.221;28686.596;   -9.099;35201.590
703.795;29139.283;  -10.939;34764.527
704.370;27709.627;  -12.859;34307.367
704.944;29086.551;  -11.559;33509.887
705.519;30225.770;   -7.939;31388.584
706.093;32069.518;  -10.499;31340.104
706.668;33042.297;  -11.289;32630.281
707.242;31853.426;  -11.509;32728.779
707.816;30380.613;   -9.639;32947.238
708.390;30173.223;  -11.429;33277.855
708.965;31202.068;  -11.869;33834.336
709.539;31259.377;  -11.689;33709.273
710.113;30728.504;  -10.478;33044.313
710.687;28006.059;  -10.228;31953.992
711.261;27161.949;  -13.698;30505.949
711.835;26820.252;  -13.378;30262.369
712.409;26386.115;   -9.698;31254.447
712.983;25989.518;  -11.898;32754.986
713.557;25041.090;  -15.138;34018.824
714.131;26503.623;  -14.098;34579.625
714.704;26550.885;   -9.958;33890.262
715.278;25714.553;  -10.028;33531.102
715.852;24690.838;  -11.148;33601.660
716.425;24179.924;   -9.068;33515.117
716.999;25684.406;  -10.038;33185.555
717.573;26400.242;   -9.798;33905.996
718.146;27513.352;  -12.378;35199.293
718.720;28054.973;  -11.918;35060.551
719.293;27209.996;   -8.088;34973.230
719.867;26369.172;  -10.888;36394.449
720.440;27190.584;  -11.938;36663.008
721.013;28891.514;  -12.818;35102.426
721.587;30430.037;  -10.298;33985.266
722.160;30329.896;  -10.048;33524.965
722.733;28217.520;  -12.108;32987.043
723.306;25869.383;  -10.818;33066.301
723.880;26275.453;   -8.908;33399.500
724.453;25329.480;   -9.878;33468.297
725.026;25266.711;  -11.188;33816.637
725.599;25627.486;  -11.678;32797.996
726.172;25207.740;   -9.618;33187.434
726.745;26040.900;   -8.258;35136.613
727.318;28637.168;  -12.978;35751.730
727.891;30710.064;  -12.148;35890.430
728.463;32056.447;   -8.968;34822.090
729.036;32280.510;  -10.188;32895.086
729.609;29801.270;  -11.788;31823.225
730.182;28013.357;  -11.788;31445.283
730.754;27218.568;  -10.268;32373.223
731.327;26917.709;   -9.998;33676.820
731.900;26049.242;  -12.228;33417.000
732.472;25160.094;  -13.848;31978.498
733.045;25033.779;   -8.698;30368.777
733.617;24473.615;  -10.607;30574.215
734.190;23059.229;  -11.507;31280.975
734.762;23364.393;  -13.647;31674.412
735.334;24538.498;   -9.767;31247.291
735.907;24638.592;   -9.897;29876.211
736.479;22600.961;  -11.637;29808.488
737.051;22130.689;   -9.567;30233.547
737.623;23163.205;   -8.187;31469.086
738.195;25010.010;  -11.187;31784.225
738.768;25354.879;  -12.337;32120.523
739.340;24610.912;  -12.227;32094.342
739.912;24093.932;  -11.057;31312.680
740.484;24941.549;  -10.207;31946.238
741.056;26077.682;  -10.047;32984.059
741.628;25737.643;  -13.627;33897.715
742.199;26415.475;   -7.177;33213.016
742.771;24909.051;  -10.797;31369.113
743.343;23527.045;  -11.997;31865.473
743.915;23640.777;  -12.867;32388.631
744.487;24175.133;   -7.617;31079.568
745.058;25362.436;   -9.557;30570.107
745.630;25028.676;   -9.877;29970.127
746.201;23788.607;  -14.177;29186.766
746.773;23512.955;   -9.237;28805.723
747.344;23721.131;   -9.847;29591.223
747.916;23719.797;  -11.657;31412.201
748.487;23279.381;  -10.587;32194.898
749.059;23265.744;   -8.707;32533.719
749.630;22390.490;  -10.537;32158.518
750.201;22572.727;  -11.687;30855.395
750.773;22638.832;  -11.647;28622.555
751.344;23905.338;   -7.147;28405.732
751.915;23868.861;   -9.757;28461.551
752.486;23538.152;  -12.427;27842.850
753.057;22067.551;  -12.227;27845.008
753.628;21558.178;  -10.417;27728.107
754.199;21568.156;  -11.767;27381.086
754.770;21046.656;  -11.187;25882.203
755.341;20719.791;  -10.507;25886.184
755.912;21171.963;   -9.387;26050.861
756.483;21517.174;  -10.647;26798.779
757.054;21072.221;  -11.837;27048.238
757.625;19269.514;  -12.716;26294.838
758.195;18644.248;   -9.666;26142.076
758.766;19650.641;   -8.656;26392.234
759.337;19469.271;  -12.856;26334.594
759.907;18754.797;  -13.366;27579.652
760.478;17957.801;   -8.576;28352.770
761.048;18516.373;  -10.526;27325.088
761.619;19094.500;  -11.116;26460.428
762.189;18649.074;  -12.136;26029.826
762.760;18549.611;   -9.456;26430.145
763.330;18763.924;   -7.136;26670.902
763.900;18841.230;  -11.786;26603.021
764.471;18209.408;  -11.546;25542.740
765.041;18021.643;   -8.096;24358.459
765.611;18193.363;   -8.876;23991.297
766.181;18205.443;  -12.196;24470.236
766.751;18863.742;  -11.636;24845.975
767.321;19078.816;  -10.156;24533.633
767.891;18891.920;  -11.766;24916.492
768.461;18523.520;  -14.936;24776.771
769.031;17592.111;  -12.356;24757.988
769.601;17259.059;   -7.526;24181.088
770.171;17645.285;  -10.766;23670.387
770.741;18324.459;  -13.176;22960.045
771.311;18050.752;  -10.616;22917.523
771.880;16737.223;   -9.576;23562.941
772.450;16111.385;  -10.336;24216.500
773.020;16377.621;  -13.516;24140.398
773.589;16336.563;  -13.466;24414.857
774.159;15823.270;   -8.686;23858.717
774.729;15115.083;   -9.476;22942.135
775.298;15039.760;  -13.666;22324.033
775.867;15116.908;  -11.716;21140.313
776.437;14649.755;   -9.906;20838.092
777.006;14543.314;  -12.166;20599.510
777.576;15882.674;  -12.356;20508.809
778.145;15290.144;  -11.646;20732.947
778.714;13958.727;   -8.226;21062.465
779.283;13401.696;   -9.556;20949.664
779.853;13212.409;  -14.116;20508.623
780.422;13558.886;  -11.506;20649.082
780.991;14036.067;   -9.556;21527.520
781.560;14665.602;   -9.095;22632.658
782.129;13598.518;  -12.135;23048.277
782.698;12340.237;  -10.865;23438.555
783.267;11737.769;   -9.335;23267.734
783.836;12029.707;  -11.045;22415.133
784.404;12740.227;  -13.865;20443.152
784.973;13037.807;  -13.095;19699.150
785.542;12994.405;  -11.575;19763.828
786.111;12815.615;   -9.705;20341.408
786.679;12628.197;  -12.105;20207.967
787.248;12287.412;  -12.455;19516.465
787.817;12125.891;  -11.535;18900.363
788.385;11963.798;   -9.765;17879.121
788.954;11828.078;  -14.005;17658.301
789.522;11673.740;  -11.955;17788.879
790.090;10815.135;  -10.135;18118.277
790.659; 9986.761;  -10.975;18338.736
791.227;10076.333;  -13.375;18508.615
791.795;10492.587;  -12.375;17898.254
792.364;10741.963;  -10.725;17295.133
792.932;11070.945;   -9.715;16822.051
793.500;10848.640;  -12.675;17040.148
794.068;11150.648;  -13.495;17179.787
794.636;11196.690;  -10.885;16664.246
795.204;10819.137;  -11.045;16524.545
795.772;10802.806;  -13.175;17274.564
796.340;10551.038;  -12.445;17891.002
796.908;10658.108;   -9.735;17648.561
797.476;11006.553;   -9.815;17064.080
798.044;10798.573;  -13.985;16672.777
798.612;10374.791;  -13.115;17023.996
799.180; 9516.321;  -10.185;16561.615
799.747; 9131.557;   -9.055;15962.773
800.315; 9323.393;  -12.385;15296.992
800.883; 8733.570;  -15.035;14801.771
801.450; 8040.158;  -10.365;14534.430
802.018; 7734.436;   -9.855;14173.248
802.585; 7648.348;  -11.905;14029.547
803.153; 7810.184;  -11.585;13836.846
803.720; 7605.238;   -9.095;13567.324
804.287; 7503.552;   -9.135;13360.622
804.855; 7666.816;  -11.604;13681.981
805.422; 8058.957;  -11.794;13536.560
805.989; 8297.159;  -10.734;13355.958
806.556; 8203.494;  -10.444;13747.896
807.124; 8442.745;  -12.764;13987.376
807.691; 8835.421;  -12.964;14038.674
808.258; 8854.312;  -11.134;14120.152
808.825; 8825.911;   -9.854;13860.111
809.392; 8423.251;  -10.504;13268.790
809.959; 7718.542;  -13.054;12680.389
810.526; 7014.728;   -8.294;12427.308
811.093; 6353.666;   -8.394;12030.105
811.659; 6115.745;  -12.304;11653.664
812.226; 6257.824;  -13.944;11637.183
812.793; 6588.010;  -10.484;11611.521
813.360; 6687.636;  -10.144;11885.181
813.926; 6681.500;  -11.684;12770.539
814.493; 6598.768;  -13.644;12677.638
815.060; 6484.506;   -9.724;11974.336
815.626; 6616.069;   -9.854;11594.715
816.193; 6626.095;  -13.254;11579.474
816.759; 6050.253;  -13.204;11666.972
817.325; 5659.605;   -9.434;11325.530
817.892; 5551.222;  -10.134;11105.369
818.458; 5705.232;  -13.474;10843.928
819.024; 6124.617;  -11.854;10714.406
819.591; 6228.909;  -10.244;10469.165
820.157; 6010.421;  -10.704;10235.523
820.723; 5966.455;  -12.324;10847.563
821.289; 5856.589;   -9.444;11040.980
821.855; 5880.651;   -8.374;10357.100
822.421; 6157.751;  -10.234; 9978.918
822.987; 6147.711;  -13.294; 9754.177
823.553; 5890.543;  -10.884;10065.755
824.119; 5678.073;   -8.884;10036.294
824.685; 5245.170;   -6.784;10029.192
825.251; 5145.246;  -12.004;10199.230
825.816; 4902.761;  -11.474; 9820.189
826.382; 4720.660;   -9.174; 9297.248
826.948; 4984.536;   -9.214; 9381.347
827.513; 5381.590;  -10.774; 9450.726
828.079; 5476.783;  -11.924; 9472.444
828.645; 5304.701;  -10.543; 9292.643
829.210; 5176.539;  -10.533; 9065.341
829.776; 5092.600;  -10.753; 9132.620
830.341; 5234.577;  -10.173; 9092.878
830.906; 5286.525;  -10.743; 9078.557
831.472; 5108.938;  -11.113; 8534.535
832.037; 4798.056;  -10.603; 8677.874
832.602; 4696.678;  -13.323; 8628.692
833.167; 4520.374;  -10.823; 8879.031
833.733; 4421.287;  -10.113; 9189.790
834.298; 4298.657;  -13.583; 9052.608
834.863; 4460.098;  -12.703; 8895.087
835.428; 4664.613;  -10.523; 8824.266
835.993; 4600.683;   -6.963; 8845.385
836.558; 4586.304;  -10.763; 8888.563
837.123; 4769.013;   -9.903; 8966.582
837.688; 5171.099;   -9.913; 8617.860
838.253; 5230.699;  -10.283; 8590.699
838.817; 4904.275;  -12.963; 8443.797
839.382; 4799.245;  -14.243; 8799.356
839.947; 4925.710;  -10.733; 8810.595
840.511; 4920.518;   -9.383; 8796.394
841.076; 4786.430;  -12.563; 8347.231
841.641; 4660.504;  -12.953; 8224.330
842.205; 4547.999;   -7.043; 8223.349
842.770; 4357.310;   -8.163; 8622.107
843.334; 4518.622;  -12.503; 8410.386
843.898; 4675.600;  -11.693; 8337.465
844.463; 4254.968;  -10.203; 8506.283
845.027; 3948.360;   -9.533; 8280.962
845.591; 3970.779;  -13.443; 8231.141
846.156; 4026.399;  -13.143; 7969.179
846.720; 3847.307;   -9.433; 7768.278
847.284; 3740.042;  -11.033; 7630.957
847.848; 3731.480;  -10.403; 7472.395
848.412; 3589.466;  -11.553; 7437.394
848.976; 3524.436;   -8.393; 7674.592
849.540; 3515.678;   -8.713; 7836.011
850.104; 3495.460;  -12.463; 7913.669
850.668; 3562.945;  -12.973; 7694.508
851.232; 3543.366;  -10.793; 7756.887
851.796; 3578.588;  -10.662; 7926.545
852.359; 3668.267;  -13.082; 7827.844
852.923; 3625.906;  -12.192; 7641.163
853.487; 3608.583;  -11.912; 7342.501
854.050; 3455.799;  -10.892; 7042.820
854.614; 3495.911;  -13.992; 7151.338
855.177; 3552.704;  -11.732; 7105.077
855.741; 3420.792;   -8.962; 6989.675
856.304; 3277.340;   -9.442; 6596.634
856.868; 3147.175;  -14.192; 6356.272
857.431; 3091.995;  -12.702; 6468.571
857.995; 3099.424;   -9.942; 6373.210
858.558; 3184.374;   -9.112; 6324.448
859.121; 3083.634;  -12.932; 6408.327
859.684; 2939.122;  -13.442; 6347.886
860.247; 2897.736;  -10.632; 6321.264
860.810; 2844.092;  -11.272; 6301.903
861.374; 2754.925;   -9.832; 6607.881
861.937; 2652.519;  -11.762; 6408.200
862.500; 2644.292;   -9.722; 6572.639
863.062; 2624.180;  -10.512; 6387.297
863.625; 2609.511;  -11.232; 6190.836
864.188; 2638.771;  -14.112; 5807.254
864.751; 2650.746;  -11.302; 5682.413
865.314; 2542.873;  -10.112; 5547.492
865.876; 2378.823;  -12.182; 5500.150
866.439; 2217.635;  -10.722; 5415.909
867.002; 2114.579;   -9.252; 5501.567
867.564; 2162.304;   -9.572; 5413.946
868.127; 2207.517;  -13.142; 5160.325
868.689; 2279.447;  -12.902; 5133.183
869.252; 2372.301;   -9.732; 5252.382
869.814; 2304.139;   -9.432; 5297.141
870.377; 2212.394;  -11.552; 5390.919
870.939; 2205.777;   -9.052; 5599.898
871.501; 2152.157;  -10.982; 5248.336
872.063; 2044.292;  -12.292; 4854.235
872.626; 1985.290;  -14.912; 4817.074
873.188; 1899.068;  -13.112; 4987.732
873.750; 1869.214;  -13.442; 4868.651
874.312; 1833.082;   -9.402; 4779.330
874.874; 1791.026;  -11.062; 4866.348
875.436; 1688.918;  -13.931; 4718.887
875.998; 1576.557;   -9.561; 4660.005
876.560; 1560.243;  -11.321; 4462.964
877.122; 1620.984;  -12.221; 4145.042
877.683; 1730.566;  -12.191; 4056.481
878.245; 1766.814;  -12.101; 3950.740
878.807; 1790.066;   -8.971; 4058.958
879.369; 1739.287;  -12.071; 3954.677
879.930; 1612.932;  -14.621; 3941.495
880.492; 1528.307;  -10.311; 4067.014
881.053; 1523.435;  -10.901; 3859.633
881.615; 1508.358;  -14.411; 3776.071
882.176; 1446.303;  -13.761; 3734.750
882.738; 1376.122;   -9.181; 3678.489
883.299; 1359.235;  -11.791; 3405.407
883.860; 1370.705;  -13.121; 3351.106
884.422; 1326.735;  -11.211; 3394.044
884.983; 1247.973;  -10.091; 3166.443
885.544; 1207.331;   -8.461; 3189.802
886.105; 1154.187;  -12.361; 3160.360
886.666; 1092.859;  -14.141; 3093.059
887.227; 1059.887;  -11.361; 2941.957
887.788; 1006.314;  -11.401; 2974.836
888.349;  917.793;  -13.791; 2721.214
888.910;  879.885;  -13.191; 2696.493
889.471;  846.526;   -9.881; 2560.172
890.032;  851.525;   -9.881; 2558.190
890.593;  848.475;  -10.371; 2567.669
891.153;  770.502;  -13.301; 2460.307
891.714;  670.121;  -11.431; 2372.046
892.275;  624.330;  -11.291; 2309.505
892.835;  635.315;  -11.471; 2382.543
893.396;  624.330;  -11.541; 2295.502
893.956;  597.308;  -11.181; 2162.420
894.517;  561.706;  -11.741; 2125.439
895.077;  516.332;  -11.671; 2086.978
895.638;  480.910;  -11.311; 2126.316
896.198;  467.759;   -9.831; 1838.275
896.758;  455.532;   -8.421; 1892.813
897.319;  435.580;  -12.351; 1792.232
897.879;  416.316;  -13.511; 1762.751
898.439;  386.494;  -12.001; 1661.149
898.999;  365.457;  -10.180; 1781.468
899.559;  359.611;  -12.030; 1703.347
900.119;  352.390;  -15.710; 1537.525
900.679;  339.203;   -8.900; 1638.384
901.239;  318.717;   -8.340; 1527.902
901.799;  292.613;  -13.910; 1456.441
902.359;  272.179;  -13.460; 1357.140
902.919;  265.005;  -11.490; 1331.118
903.479;  265.003;  -12.110; 1317.257
904.038;  259.867;  -11.720; 1262.595
904.598;  252.970;  -13.610; 1152.034
905.158;  242.863;  -11.040; 1240.893
905.717;  227.161;  -10.900; 1233.691
906.277;  218.290;  -15.080; 1217.330
906.836;  216.933;  -13.380; 1222.408
907.396;  213.227;  -10.780; 1193.047
907.955;  206.007;   -8.500; 1182.526
908.515;  201.834;  -12.760; 1099.364
909.074;  201.240;  -11.900; 1092.863
909.633;  200.376;   -8.950; 1069.121
910.192;  197.229;   -8.770; 1196.460
910.752;  187.584;  -12.390; 1029.960
911.311;  178.487;  -13.680; 1009.780
911.870;  168.899;  -12.370;  971.460
912.429;  163.758;  -10.900; 1094.080
912.988;  161.722;  -11.690; 1081.060
913.547;  159.278;  -13.240;  940.380
914.106;  157.929;  -11.990;  999.420
914.665;  155.008;   -9.990;  984.020
915.224;  153.346;  -12.880; 1035.760
915.782;  152.194;  -12.350;  922.560
916.341;  151.758;   -9.110; 1049.840
916.900;  148.781;   -9.270;  925.260
917.458;  147.313;  -13.240;  884.220
918.017;  146.427;  -13.550;  942.600
918.576;  144.361;  -12.320;  904.440
919.134;  141.928;  -11.490;  837.980
919.693;  140.188;  -13.670;  893.060
920.251;  140.015;  -15.470;  876.500
920.809;  139.235;  -11.290;  839.580
921.368;  139.369;  -10.210;  885.360
921.926;  136.595;  -12.140;  842.940
922.484;  134.365;  -13.080;  903.360
923.042;  133.796;  -11.720;  880.340
923.601;  133.131;   -7.480;  998.680
924.159;  131.820;  -11.570;  935.560
924.717;  130.056;  -13.840;  841.080
925.275;  130.095;  -10.640;  903.240
925.833;  128.067;  -11.540;  779.320
926.391;  129.793;  -12.960;  938.380
926.949;  129.812;  -14.130;  857.680
927.506;  129.674;  -11.750;  903.500
928.064;  129.583;  -10.250;  877.580
928.622;  129.386;  -13.030;  880.100
929.180;  131.981;  -13.400;  814.180
929.737;  133.681;  -10.700;  808.540
930.295;  136.319;  -10.070;  928.480
930.853;  136.038;  -11.960;  849.100
931.410;  136.553;  -13.120;  821.120
931.968;  139.625;  -10.770;  940.660
932.525;  138.496;  -10.680;  909.380
933.082;  138.137;  -13.130;  811.440
933.640;  139.001;  -13.210;  925.900
934.197;  138.402;  -11.060;  886.360
934.754;  138.158;   -9.580;  897.780
935.312;  139.501;  -14.000;  863.340
935.869;  141.596;  -10.710; 1012.980
936.426;  140.503;   -9.860;  872.800
936.983;  140.440;   -9.710;  889.020
937.540;  141.114;  -13.990;  838.280
938.097;  146.113;  -14.040;  940.120
938.654;  148.955;  -10.310;  898.860
939.211;  149.065;  -10.560;  952.480
939.768;  148.675;  -13.900;  915.420
940.324;  151.428;  -14.760;  904.200
940.881;  154.766;  -10.370;  878.500
941.438;  158.499;   -8.260; 1021.200
941.995;  157.146;  -12.540;  992.560
942.551;  157.869;  -14.670;  875.620
943.108;  159.639;  -10.450;  937.920
943.664;  158.252;  -10.750;  869.340
944.221;  162.756;  -11.550; 1088.140
944.777;  162.206;  -14.770;  869.680
945.334;  160.788;  -12.820;  884.840
945.890;  156.158;  -10.130;  946.480
946.446;  152.150;  -13.470;  947.020
947.003;  153.379;  -12.120;  964.940
947.559;  154.990;   -9.980; 1063.040
948.115;  150.524;   -9.080; 1026.540
948.671;  148.267;  -10.830;  967.300
949.227;  148.365;  -12.440;  859.560
949.783;  148.450;  -12.910;  858.900
950.339;  151.602;  -10.270;  991.000
950.895;  152.861;  -13.630; 1023.840
951.451;  151.885;  -15.100;  925.280
952.007;  150.990;  -11.330;  998.540
952.563;  146.441;  -10.580;  937.780
953.118;  143.505;  -13.440;  904.940
953.674;  143.528;  -12.710;  935.780
954.230;  145.636;  -10.350;  949.640
954.785;  149.651;   -9.190;  936.640
955.341;  150.664;  -11.200;  998.160
955.897;  145.862;  -16.560;  834.660
956.452;  144.995;  -12.570;  953.840
957.008;  141.571;   -7.970; 1083.640
957.563;  138.060;  -11.940; 1009.540
958.118;  134.324;  -13.450;  877.700
958.674;  132.816;  -12.030;  946.780
959.229;  133.181;   -9.410; 1013.980
959.784;  132.634;  -12.000;  832.400
960.339;  133.968;  -14.780; 1001.280
960.894;  131.344;   -9.860;  963.760
961.449;  128.683;   -9.970;  859.960
962.004;  128.496;  -10.900; 1212.840
962.559;  126.273;  -13.150;  860.140
963.114;  124.638;  -13.740;  742.480
963.669;  122.865;   -9.820;  915.500
964.224;  121.484;  -13.890;  874.340
964.779;  121.574;  -12.600;  828.420
965.334;  123.014;  -10.950; 1017.860
965.888;  121.440;  -11.170;  875.360
966.443;  121.967;  -12.540;  972.380
966.998;  119.550;  -15.780;  819.460
967.552;  118.826;   -9.760;  908.380
968.107;  116.208;   -9.060;  868.300
968.661;  115.630;  -11.950;  922.440
969.216;  114.069;  -12.800;  856.280
969.770;  110.892;  -11.210;  917.200
970.324;  111.187;  -11.610;  923.140
970.879;  111.567;  -11.370;  947.180
971.433;  114.459;  -12.540;  952.720
971.987;  112.422;  -11.320;  895.340
972.541;  111.226;  -10.720;  917.100
973.095;  110.261;   -9.680; 1009.460
973.649;  107.131;  -11.440;  809.480
974.203;  104.016;  -11.210;  829.040
974.757;  103.829;  -10.240;  855.220
975.311;  103.715;  -13.720;  872.600
975.865;  103.995;  -13.770;  881.820
976.419;  101.221;  -11.690;  857.400
976.973;   98.454;   -9.510;  849.620
977.526;   97.745;  -12.620;  949.920
978.080;   95.782;  -12.010;  796.780
978.634;   95.623;  -10.170;  921.320
979.187;   93.910;   -9.020;  905.400
979.741;   95.368;   -9.820; 1018.380
980.294;   93.519;  -14.870;  789.160
980.848;   92.602;  -12.380;  717.220
981.401;   92.477;  -10.350;  816.540
981.955;   91.894;  -13.720;  844.300
982.508;   87.469;  -11.490;  746.340
983.061;   87.270;  -10.000;  915.260
983.615;   85.035;  -11.480;  798.800
984.168;   83.203;  -13.220;  770.080
984.721;   83.067;  -13.960;  880.760
985.274;   81.234;  -10.870;  867.500
985.827;   79.525;   -9.790;  834.220
986.380;   77.836;  -13.120;  721.340
986.933;   77.248;  -12.450;  864.800
987.486;   75.772;  -10.210;  861.920
988.039;   76.169;   -8.430;  863.100
988.591;   75.296;  -10.520;  893.260
989.144;   73.617;  -14.860;  737.260
989.697;   72.306;  -13.080;  758.740
990.250;   71.195;  -10.150;  858.100
990.802;   68.519;  -13.430;  755.860
991.355;   69.545;  -12.750;  974.880
991.907;   67.510;  -12.040;  864.320
992.460;   65.476;  -11.330;  753.760
993.012;   64.406;  -13.610;  749.540
993.565;   63.301;  -13.460;  711.360
994.117;   64.455;   -9.360;  950.780
994.669;   60.169;  -11.300;  701.320
995.221;   59.707;  -13.540;  791.920
995.774;   59.111;  -13.430;  787.580
996.326;   57.252;  -12.520;  740.220
996.878;   57.193;  -10.950;  838.420
997.430;   54.299;  -14.300;  699.860
997.982;   53.280;  -13.760;  750.140
998.534;   53.341;  -11.530;  739.060
999.086;   51.946;  -10.310;  738.220
999.638;   51.197;  -12.530;  661.380
1000.190;   50.081;  -11.840;  699.320
1000.741;   49.740;  -10.260;  742.700
1001.293;   49.527;   -8.860;  686.020
1001.845;   48.827;  -13.700;  676.640
1002.396;   48.613;  -12.100;  743.400
1002.948;   48.184;  -12.760;  737.400
1003.500;   46.251;  -10.380;  723.780
1004.051;   46.805;  -11.900;  907.580
1004.603;   44.881;  -12.250;  791.820
1005.154;   41.807;  -13.210;  608.980
1005.705;   41.395;  -10.950;  723.960
1006.257;   40.619;  -13.880;  707.220
1006.808;   40.741;  -12.840;  685.460
1007.359;   39.918;  -10.570;  763.240
1007.910;   38.386;   -9.620;  646.640
1008.461;   38.213;  -13.630;  732.940
1009.013;   37.278;  -17.200;  588.340
1009.564;   39.126;  -10.200;  793.520
1010.115;   36.354;  -12.570;  597.040
1010.665;   36.648;  -15.150;  602.160
1011.216;   35.663;  -14.480;  667.920
1011.767;   36.631;  -11.340;  697.920
1012.318;   35.700;   -9.780;  736.980
1012.869;   35.482;  -12.380;  679.000
1013.419;   34.590;  -15.560;  603.120
1013.970;   35.710;  -11.010;  666.640
1014.521;   34.135;  -11.610;  620.620
1015.071;   34.163;  -13.450;  670.380
1015.622;   34.648;  -13.870;  635.460
1016.172;   33.892;  -11.610;  596.820
1016.723;   33.203;  -12.120;  614.380
1017.273;   32.090;  -13.620;  604.160
1017.823;   33.316;  -14.140;  650.340
1018.374;   32.630;  -12.800;  611.760
1018.924;   32.106;  -12.340;  716.880
1019.474;   32.097;  -11.410;  718.880
1020.024;   31.291;  -14.770;  657.580
1020.574;   32.104;   -9.780;  726.160
1021.124;   31.988;   -8.560;  673.580
1021.674;   30.526;  -15.190;  559.120
1022.224;   31.535;  -13.530;  708.940
1022.774;   31.586;  -13.280;  668.820
1023.324;   31.469;  -10.690;  753.520
1023.874;   32.307;  -10.240;  875.760
1024.423;   30.478;  -12.540;  613.700
1024.973;   29.715;  -10.010;  610.760
1025.523;   29.051;  -10.550;  620.960
1026.072;   29.400;  -13.560;  606.420
1026.622;   29.433;  -15.120;  675.740
1027.172;   30.505;  -11.260;  715.660
1027.721;   29.108;  -11.410;  601.220
1028.270;   29.433;  -13.530;  663.400
1028.820;   29.342;  -13.680;  638.080
1029.369;   27.816;  -13.520;  612.700
1029.918;   28.204;  -10.980;  649.840
1030.468;   27.521;  -13.530;  564.780
1031.017;   28.070;  -13.170;  634.800
1031.566;   27.227;  -12.200;  608.900
1032.115;   27.801;   -9.960;  694.500
1032.664;   26.906;  -13.210;  596.480
1033.213;   28.143;  -12.500;  735.420
1033.762;   27.109;  -11.910;  635.620
1034.311;   26.645;   -9.640;  677.220
1034.860;   26.998;  -13.310;  691.000
1035.408;   27.167;  -11.830;  722.720
1035.957;   27.480;  -12.000;  719.540
1036.506;   25.152;  -11.690;  530.800
1037.055;   27.308;  -10.990;  844.320
1037.603;   25.890;  -15.120;  664.000
1038.152;   24.194;  -12.450;  534.760
1038.700;   24.582;  -10.560;  585.740
1039.249;   24.918;  -11.080;  681.220
1039.797;   25.008;  -12.540;  633.360
1040.345;   24.908;  -11.920;  705.420
1040.894;   24.561;  -11.410;  625.300
1041.442;   23.782;  -14.320;  632.200
1041.990;   23.249;  -16.240;  559.160
1042.538;   23.661;  -11.680;  536.180
1043.087;   22.572;  -10.760;  570.860
1043.635;   24.143;  -11.850;  670.500
1044.183;   23.440;  -15.480;  586.400
1044.731;   22.766;  -11.770;  576.000
1045.279;   23.424;  -13.090;  674.920
1045.827;   24.864;  -12.440;  892.400
1046.374;   22.211;  -13.840;  515.420
1046.922;   22.231;  -13.220;  590.580
1047.470;   22.742;  -10.230;  691.300
1048.018;   22.893;  -14.590;  647.960
1048.565;   23.138;  -12.050;  708.600
1049.113;   21.661;  -11.650;  557.000
1049.660;   21.194;  -10.510;  629.660
1050.208;   21.648;  -13.310;  675.640
1050.755;   20.704;  -15.900;  606.580
1051.303;   23.166;  -11.430;  686.820
1051.850;   20.844;   -8.480;  635.120
1052.397;   19.494;  -15.010;  473.960
1052.945;   20.305;  -13.960;  617.760
1053.492;   22.662;  -13.150;  741.840
1054.039;   21.511;   -9.630;  720.180
1054.586;   20.184;  -13.680;  557.240
1055.133;   21.426;  -14.570;  693.140
1055.680;   21.346;  -13.820;  646.620
1056.227;   19.247;  -11.730;  542.780
1056.774;   21.110;  -12.480;  794.980
1057.321;   19.139;  -13.930;  523.260
1057.868;   19.796;  -11.690;  651.320
1058.415;   18.777;   -9.520;  651.980
1058.961;   19.305;  -13.160;  678.940
1059.508;   19.838;  -12.920;  643.820
1060.055;   19.762;  -11.920;  581.780
1060.601;   19.769;  -11.500;  624.300
1061.148;   18.065;  -14.330;  616.820
1061.694;   18.279;  -16.870;  592.580
1062.241;   18.910;  -10.330;  596.320
1062.787;   18.235;  -10.620;  663.140
1063.334;   19.866;  -10.110;  808.560
1063.880;   18.562;  -13.400;  668.360
1064.426;   18.974;  -10.680;  706.820
1064.972;   18.205;   -9.920;  601.340
1065.518;   16.200;  -10.980;  566.640
1066.065;   17.851;  -14.890;  624.460
1066.611;   17.419;  -12.870;  598.800
1067.157;   17.072;  -12.950;  641.860
1067.703;   17.085;  -13.540;  668.480
1068.249;   16.983;  -13.540;  605.220
1068.794;   17.804;  -12.600;  626.880
1069.340;   16.015;  -10.620;  578.960
1069.886;   16.627;  -12.830;  590.700
1070.432;   16.385;  -14.870;  541.720
1070.977;   15.978;  -11.980;  601.080
1071.523;   16.038;   -8.200;  573.060
1072.068;   16.835;  -12.330;  582.000
1072.614;   16.174;  -16.370;  527.760
1073.160;   16.421;  -11.100;  687.040
1073.705;   15.419;  -10.480;  572.520
1074.250;   14.671;  -14.520;  559.900
1074.796;   15.828;  -11.460;  655.160
1075.341;   16.455;  -11.950;  664.100
1075.886;   15.224;  -11.460;  594.240
1076.431;   14.459;  -13.770;  649.880
1076.976;   14.991;  -12.680;  639.220
1077.521;   14.418;  -13.170;  583.080
1078.067;   13.055;  -10.860;  579.400
1078.612;   14.386;  -13.920;  661.620
1079.156;   14.710;  -13.880;  601.540
1079.701;   14.698;  -13.120;  693.260
1080.246;   14.312;   -9.940;  696.300
1080.791;   13.774;  -14.740;  625.020
1081.336;   14.760;  -13.750;  659.320
1081.880;   14.378;  -13.400;  649.680
1082.425;   13.029;  -12.220;  573.480
1082.970;   14.231;  -11.610;  717.040
1083.514;   13.603;  -13.580;  597.000
1084.059;   13.336;  -12.810;  586.720
1084.603;   12.940;  -12.320;  565.840
1085.147;   13.083;  -13.190;  645.220
1085.692;   13.798;  -12.480;  716.800
1086.236;   12.025;  -13.020;  503.140
1086.780;   13.701;   -9.190;  751.440
1087.325;   12.352;  -12.480;  654.620
1087.869;   12.627;  -12.450;  610.700
1088.413;   12.865;  -12.240;  705.040
1088.957;   11.286;   -9.020;  543.400
1089.501;   12.572;  -10.320;  766.640
1090.045;   12.026;  -12.720;  726.480
1090.589;   10.929;  -13.690;  569.920
1091.133;   11.730;  -10.020;  673.340
1091.676;   11.755;  -12.330;  591.940
1092.220;   11.086;  -14.970;  600.920
1092.764;   12.424;  -12.430;  706.960
1093.307;   11.646;   -9.800;  673.780
1093.851;    9.910;  -14.970;  556.540
1094.395;   11.635;  -15.310;  683.140
1094.938;   11.011;  -10.370;  632.520
1095.482;   10.809;  -11.050;  559.800
1096.025;   11.217;  -11.840;  710.880
1096.568;   11.563;  -12.840;  779.280
1097.112;    9.750;  -14.700;  508.180
1097.655;   10.368;   -8.720;  603.000
1098.198;    9.069;  -13.610;  600.180
1098.741;    9.842;  -13.350;  612.860
1099.285;   11.248;  -11.230;  657.300
1099.828;    8.360;  -11.840;  439.400
1100.371;    9.686;  -10.840;  608.160
1100.914;   10.166;  -14.190;  682.660
1101.457;   10.461;  -11.240;  679.900
1101.999;    8.017;  -11.270;  584.680
1102.542;    9.067;  -11.480;  641.440
1103.085;    9.840;  -11.750;  658.500
1103.628;   10.093;  -11.400;  762.060
1104.170;    9.313;  -10.490;  588.280
1104.713;    9.178;  -10.600;  646.700
1105.256;    7.899;  -14.360;  557.440
1105.798;    7.674;  -13.210;  499.980
1106.341;    9.247;  -10.270;  728.900
1106.883;    7.413;  -12.200;  521.340
1107.425;    8.335;  -13.110;  668.180
1107.968;    8.012;  -12.840;  612.380
1108.510;    8.300;   -6.480;  684.960
1109.052;    6.903;  -13.940;  612.620
1109.594;    7.575;  -13.690;  554.440
1110.136;    8.626;  -11.880;  643.220
1110.679;    7.394;   -9.500;  633.080
1111.221;    7.724;  -14.160;  604.460
1111.763;    7.261;  -13.980;  559.220
1112.304;    7.470;  -13.880;  547.140
1112.846;    7.612;  -12.210;  666.240
1113.388;   10.055;  -11.390;  942.180
1113.930;    7.525;  -14.540;  694.200
1114.472;    7.065;  -12.640;  606.540
1115.013;    4.765;  -11.620;  551.280
1115.555;    6.400;  -13.640;  587.100
1116.097;    5.528;  -15.380;  579.480
1116.638;    6.992;  -12.640;  684.600
1117.180;    6.528;   -9.850;  667.740
1117.721;    5.621;  -13.690;  568.580
1118.262;    7.165;  -12.680;  677.960
1118.804;    7.072;  -12.530;  637.340
1119.345;    5.673;  -11.690;  578.400
1119.886;    6.711;  -13.380;  704.040
1120.427;    5.213;  -14.070;  589.020
1120.969;    5.264;  -13.500;  597.920
1121.510;    5.165;  -11.480;  563.060
1122.051;    4.678;  -12.830;  723.580
1122.592;    4.835;  -14.290;  655.420
1123.133;    4.413;  -12.400;  547.940
1123.673;    5.293;  -10.130;  706.480
1124.214;    4.840;  -12.930;  612.460
1124.755;    4.614;  -14.380;  639.460
1125.296;    5.334;  -14.000;  627.320
1125.836;    5.181;  -10.070;  691.500
1126.377;    4.531;  -12.640;  599.660
1126.918;    4.626;  -12.960;  614.980
1127.458;    4.421;  -13.350;  622.220
1127.999;    4.513;  -10.750;  656.980
1128.539;    5.187;  -12.350;  694.240
1129.079;    4.186;  -14.860;  632.720
1129.620;    3.789;  -13.840;  558.100
1130.160;    3.437;  -12.330;  539.480
1130.700;    4.334;  -14.530;  640.840
1131.240;    4.568;  -12.530;  643.700
1131.781;    4.006;  -14.450;  619.680
1132.321;    3.517;   -9.790;  599.120
1132.861;    2.657;  -14.860;  564.200
1133.401;    3.344;  -14.290;  593.940
1133.941;    3.897;  -11.750;  626.280
1134.481;    2.161;   -9.920;  597.580
1135.020;    2.454;  -12.290;  609.160
1135.560;    3.553;  -11.650;  674.940
1136.100;    2.893;  -16.270;  501.160
1136.640;    2.431;  -10.890;  510.480
1137.179;    2.423;  -14.180;  537.960
1137.719;    2.383;  -16.250;  605.400
1138.258;    3.007;  -14.230;  587.360
1138.798;    3.270;   -9.090;  663.780
1139.337;    1.428;  -15.130;  482.840
1139.877;    2.944;  -13.680;  642.360
1140.416;    4.993;  -11.320;  878.060
1140.955;    0.871;  -10.860;  535.380
1141.494;    2.088;  -12.920;  669.280
1142.034;    2.178;  -13.930;  583.520
1142.573;    3.958;  -11.440;  646.280
1143.112;    1.273;  -12.000;  553.480
1143.651;    1.493;  -13.670;  536.480
1144.190;    2.771;  -12.730;  691.640
1144.729;    2.227;  -14.560;  607.420
1145.267;    1.550;  -11.830;  584.900
1145.806;    2.648;  -12.230;  637.040
1146.345;    1.330;  -14.130;  635.020
1146.884;    1.718;  -11.590;  622.500
1147.422;    1.232;  -12.550;  533.060
1147.961;    2.290;  -11.180;  708.460
1148.500;    2.083;  -11.510;  669.720
1149.038;    2.226;  -11.640;  632.500
1149.577;    1.330;  -10.130;  698.640
1150.115;   -0.926;  -13.970;  452.280
1150.653;    1.425;  -14.520;  607.340
1151.192;    1.173;  -12.810;  552.920
1151.730;    0.757;   -9.100;  652.560
1152.268;    0.115;  -12.220;  589.520
1152.806;    0.207;  -14.140;  571.180
1153.344;    0.122;  -12.350;  577.640
1153.882;   -0.045;   -8.980;  600.060
1154.421;   -0.749;  -15.190;  470.620
1154.958;    0.073;  -15.210;  595.240
1155.496;    1.875;  -12.850;  645.280
1156.034;    0.579;   -9.940;  721.880
1156.572;    1.502;  -13.570;  667.060
1157.110;   -0.701;  -14.590;  473.940
1157.647;    0.189;  -13.030;  676.960
1158.185;   -0.569;  -12.140;  564.320
1158.723;   -1.630;  -14.390;  509.200
1159.260;    0.128;  -14.090;  701.700
1159.798;    0.002;  -11.920;  658.160
1160.335;   -1.077;  -11.110;  631.820

