
Integration time [ms]:   3.882
Averaging Nr. [scans]: 1000
Smoothing Nr. [pixels]: 0
Data measured with spectrometer [name]: 7414430SP
Wave   ;Sample   ;Dark     ;Reference
[nm]   ;[counts] ;[counts] ;[counts] 

288.544;  126.784;   10.292;  793.890
289.143;  129.784;    4.564;  681.602
289.742;  131.873;    6.144;  828.814
290.341;  120.084;    4.396;  789.841
290.940;  110.159;    0.938;  730.702
291.538;  109.556;   -0.684;  881.108
292.137;  108.991;   -2.845;  792.581
292.736;  114.325;   -0.144;  975.101
293.335;  110.638;   -6.352;  735.086
293.934;  111.463;   -7.642;  781.677
294.532;  112.251;   -4.992; 1031.958
295.131;   97.826;   -5.478;  834.394
295.730;   97.282;   -6.549;  809.588
296.328;   93.864;   -9.558;  783.442
296.927;   95.857;   -8.118;  779.652
297.525;   96.757;   -6.908;  781.236
298.124;   86.796;   -9.195;  654.009
298.722;   91.242;   -8.198;  761.933
299.321;   88.883;   -8.817;  708.597
299.919;   87.286;   -7.716;  751.918
300.518;   83.610;  -10.745;  689.338
301.116;   84.866;   -9.647;  691.381
301.715;   85.489;  -10.828;  730.222
302.313;   85.109;   -6.087;  704.943
302.911;   80.132;   -6.824;  733.830
303.509;   85.178;   -8.807;  925.627
304.108;   82.961;   -8.198;  760.383
304.706;   82.940;   -6.218;  801.664
305.304;   76.812;   -7.185;  796.707
305.902;   82.911;   -8.568;  784.484
306.500;   79.085;   -7.737;  728.200
307.098;   77.798;   -6.026;  746.560
307.696;   74.928;   -7.176;  780.432
308.294;   76.254;   -8.656;  731.359
308.892;   78.297;   -6.838;  759.769
309.490;   73.472;   -2.596;  712.161
310.088;   72.197;   -4.485;  788.444
310.686;   76.843;   -3.907;  821.749
311.284;   73.010;   -2.806;  766.040
311.882;   70.065;   -2.845;  731.225
312.480;   67.450;   -3.274;  697.167
313.078;   68.680;   -3.645;  808.331
313.675;   70.892;   -4.997;  691.600
314.273;   65.548;   -0.894;  797.837
314.871;   64.356;   -2.854;  589.829
315.468;   62.322;   -3.644;  652.090
316.066;   65.715;   -3.947;  694.427
316.664;   59.011;   -1.824;  656.351
317.261;   63.834;    1.565;  910.128
317.859;   59.439;   -3.955;  768.735
318.456;   60.082;   -2.886;  830.096
319.054;   56.252;   -0.995;  787.828
319.651;   55.833;   -1.765;  759.928
320.249;   54.359;   -3.685;  810.188
320.846;   53.747;   -3.736;  714.286
321.443;   51.210;   -2.065;  832.135
322.041;   48.006;   -5.635;  812.315
322.638;   46.232;   -5.985;  701.456
323.235;   47.978;   -6.677;  665.683
323.833;   45.502;   -3.497;  740.354
324.430;   41.803;   -6.756;  615.900
325.027;   42.612;   -7.647;  876.855
325.624;   42.780;   -7.598;  644.532
326.221;   40.056;   -5.848;  689.717
326.818;   39.520;   -5.777;  818.332
327.415;   42.756;   -8.769;  748.828
328.012;   42.239;   -6.299;  690.585
328.609;   40.581;   -6.639;  731.389
329.206;   38.452;   -6.358;  778.621
329.803;   37.714;   -8.698;  737.841
330.400;   38.813;   -8.379;  704.260
330.997;   39.718;   -6.178;  817.147
331.594;   37.738;   -5.646;  788.185
332.191;   42.089;   -6.928;  728.722
332.787;   45.126;   -6.057;  844.463
333.384;   42.808;   -6.445;  763.093
333.981;   39.046;   -8.002;  815.687
334.578;   41.857;   -8.443;  708.378
335.174;   43.977;   -6.053;  731.469
335.771;   45.260;   -5.791;  836.456
336.367;   40.825;   -6.570;  710.631
336.964;   43.172;   -6.741;  793.266
337.561;   44.548;   -5.710;  731.112
338.157;   40.511;   -3.928;  911.916
338.754;   34.777;   -5.577;  796.589
339.350;   35.448;   -9.667;  722.493
339.946;   39.271;   -5.269;  773.135
340.543;   30.329;   -4.485;  846.136
341.139;   24.364;   -7.584;  720.836
341.735;   22.638;   -8.553;  772.593
342.332;   22.688;   -4.984;  691.472
342.928;   24.053;   -3.475;  795.394
343.524;   17.165;   -6.653;  761.684
344.120;   13.595;   -7.173;  738.562
344.716;   17.812;   -4.385;  723.717
345.313;   15.490;   -3.565;  795.342
345.909;   10.831;   -7.495;  627.336
346.505;   12.650;   -8.276;  740.247
347.101;   14.338;   -5.697;  827.864
347.697;   14.941;   -4.767;  785.398
348.293;    8.603;   -7.226;  627.244
348.889;    9.531;   -7.547;  745.914
349.485;    9.756;   -9.147;  688.205
350.081;   10.723;   -6.568;  772.592
350.676;    5.983;   -6.516;  691.606
351.272;   10.261;   -7.378;  809.530
351.868;   10.760;   -6.759;  780.497
352.464;    7.380;   -4.798;  723.932
353.059;    3.724;   -7.977;  646.017
353.655;    7.590;   -8.769;  777.063
354.251;    9.424;   -5.920;  759.845
354.846;    3.068;   -7.647;  740.646
355.442;    1.082;   -6.956;  753.071
356.038;    2.156;   -9.928;  751.708
356.633;    3.282;   -7.698;  728.594
357.229;    1.774;   -6.307;  724.757
357.824;   -0.575;   -7.647;  703.600
358.420;   -1.569;  -10.047;  679.726
359.015;   -0.504;   -7.458;  695.357
359.610;    0.399;   -5.748;  763.920
360.206;   -5.357;   -9.346;  603.240
360.801;   -2.521;  -11.268;  646.503
361.396;   -0.209;   -8.789;  725.975
361.992;   -4.963;   -6.347;  668.220
362.587;   -7.130;   -6.476;  670.160
363.182;   -4.999;   -9.457;  689.631
363.777;   -3.908;   -7.147;  738.242
364.372;   -4.408;   -5.507;  737.314
364.967;   -8.100;   -6.386;  680.744
365.563;   -3.948;   -7.858;  815.567
366.158;   -6.339;   -8.517;  685.161
366.753;   -5.679;   -8.728;  649.263
367.348;   -7.664;   -7.677;  746.056
367.942;   -7.947;  -10.387;  697.298
368.537;   -8.447;   -7.187;  754.245
369.132;   -7.897;   -8.587;  703.428
369.727;  -12.119;   -8.606;  638.079
370.322;  -11.083;  -10.426;  580.186
370.917;  -11.654;   -5.776;  710.646
371.511;   -7.613;   -6.007;  861.834
372.106;  -11.690;   -6.686;  776.964
372.701;  -14.693;   -9.335;  585.988
373.296;   -8.736;   -6.777;  863.135
373.890;  -13.387;   -7.546;  647.840
374.485;  -15.585;   -8.755;  691.199
375.079;  -12.018;   -9.797;  738.685
375.674;  -10.346;   -6.327;  812.970
376.268;  -13.658;   -9.046;  691.759
376.863;  -20.407;   -7.993;  580.327
377.457;  -13.328;   -9.206;  662.490
378.052;  -14.392;   -5.345;  764.884
378.646;  -15.797;   -5.605;  741.167
379.240;  -16.782;   -6.825;  721.176
379.835;  -16.086;  -10.476;  636.978
380.429;  -17.303;   -8.676;  562.557
381.023;  -17.456;   -4.945;  779.205
381.617;  -19.881;   -8.094;  680.106
382.212;  -16.626;  -10.646;  685.303
382.806;  -14.896;   -8.136;  760.690
383.400;  -19.006;   -7.855;  672.281
383.994;  -20.493;   -8.125;  664.870
384.588;  -16.441;   -7.637;  697.701
385.182;  -14.442;   -7.458;  726.624
385.776;  -16.589;   -6.277;  706.875
386.370;  -18.936;   -7.485;  681.968
386.964;  -18.411;   -9.416;  684.155
387.558;  -16.742;   -8.518;  598.360
388.152;  -20.055;   -7.096;  681.959
388.745;  -18.677;   -7.656;  814.707
389.339;  -16.213;   -8.927;  747.642
389.933;  -15.068;   -9.538;  695.370
390.527;  -15.695;   -5.857;  859.029
391.120;  -22.845;   -9.455;  595.318
391.714;  -19.076;   -9.746;  711.633
392.308;  -15.847;   -7.857;  780.253
392.901;  -18.926;   -9.106;  642.460
393.495;  -21.764;  -10.365;  595.414
394.089;  -19.807;   -9.696;  760.452
394.682;  -19.474;   -7.016;  697.188
395.275;  -20.792;   -8.466;  719.927
395.869;  -21.874;   -8.985;  667.314
396.462;  -20.582;  -11.496;  616.609
397.056;  -15.871;   -7.838;  776.621
397.649;  -20.707;   -6.895;  731.575
398.242;  -18.016;   -5.017;  712.645
398.836;  -17.124;   -8.787;  766.408
399.429;  -18.580;   -8.967;  631.041
400.022;  -21.868;   -8.815;  665.902
400.615;  -19.278;   -6.276;  805.609
401.208;  -16.982;   -8.407;  691.451
401.802;  -19.665;   -7.296;  699.329
402.395;  -20.928;   -7.585;  683.502
402.988;  -21.442;   -8.015;  696.627
403.581;  -18.131;   -9.577;  646.878
404.174;  -15.809;   -7.588;  686.568
404.767;  -18.529;   -7.906;  638.583
405.360;  -21.149;   -7.875;  621.445
405.953;  -15.631;   -8.127;  759.034
406.545;  -14.913;   -7.198;  725.342
407.138;  -19.962;   -8.916;  618.350
407.731;  -18.017;   -9.767;  613.303
408.324;  -13.430;  -10.659;  660.554
408.917;  -15.271;   -8.068;  681.864
409.509;  -17.072;   -9.837;  740.396
410.102;  -17.973;   -8.146;  643.948
410.695;  -13.204;   -7.969;  665.758
411.287;  -13.079;   -8.579;  599.821
411.880;  -14.231;   -6.968;  585.421
412.472;  -17.226;   -9.487;  613.092
413.065;  -13.959;  -10.338;  629.408
413.657;  -12.009;   -9.169;  576.678
414.250;  -11.661;  -10.119;  646.681
414.842;  -13.936;   -9.938;  676.353
415.434;  -11.525;  -10.409;  570.463
416.027;   -7.305;   -9.591;  652.196
416.619;   -9.700;   -7.379;  713.400
417.211;  -10.333;   -9.159;  599.352
417.804;   -6.114;   -9.191;  628.499
418.396;  -10.237;   -8.159;  607.643
418.988;   -7.343;   -6.960;  659.238
419.580;  -11.053;  -11.389;  568.276
420.172;   -9.239;  -13.460;  536.196
420.764;   -4.568;  -10.701;  672.482
421.356;   -5.939;   -8.961;  636.898
421.948;   -6.530;   -9.770;  677.661
422.540;   -1.530;   -8.832;  680.027
423.132;   -1.595;   -8.153;  600.641
423.724;   -5.622;   -8.481;  561.267
424.316;   -3.152;   -9.261;  621.345
424.908;    0.320;   -9.643;  591.517
425.500;    1.378;   -8.663;  647.978
426.092;    1.631;   -8.503;  648.268
426.683;    1.131;  -10.522;  684.836
427.275;    3.023;  -11.734;  641.471
427.867;    4.596;  -10.264;  668.948
428.458;    5.754;   -7.644;  732.344
429.050;    3.984;   -7.853;  680.749
429.642;    5.985;   -8.904;  743.124
430.233;    6.005;  -10.795;  569.356
430.825;    8.165;   -7.665;  724.809
431.416;    4.796;   -8.843;  698.241
432.008;    8.627;   -9.885;  651.723
432.599;    9.859;   -9.966;  656.073
433.190;    7.596;   -9.164;  637.670
433.782;    6.012;   -8.584;  590.395
434.373;   14.409;   -8.296;  884.765
434.964;   11.803;   -9.896;  602.920
435.556;    9.857;   -8.255;  634.537
436.147;   12.136;   -8.075;  758.490
436.738;   12.252;   -9.716;  701.099
437.329;   18.555;   -7.318;  721.723
437.920;   11.307;   -6.694;  666.688
438.511;   10.502;   -9.644;  564.526
439.103;   17.210;   -9.427;  623.998
439.694;   19.951;  -10.748;  681.583
440.285;   20.700;   -7.997;  764.432
440.876;   19.018;  -10.046;  845.738
441.466;   17.195;  -13.467;  575.162
442.057;   23.380;   -9.329;  665.814
442.648;   22.254;   -7.707;  746.255
443.239;   19.713;   -9.017;  620.477
443.830;   25.652;  -10.279;  704.958
444.421;   27.114;  -12.630;  655.474
445.011;   24.366;   -8.697;  693.619
445.602;   24.404;   -7.787;  743.126
446.193;   25.637;  -13.329;  488.117
446.783;   30.463;   -9.171;  640.397
447.374;   25.402;   -7.457;  692.759
447.964;   25.951;   -9.277;  713.770
448.555;   34.608;   -9.041;  822.742
449.145;   30.463;   -8.969;  662.853
449.736;   32.275;   -6.809;  803.179
450.326;   32.270;   -7.229;  713.626
450.917;   36.510;  -11.391;  675.324
451.507;   36.597;   -9.501;  600.661
452.097;   36.994;   -8.460;  746.267
452.688;   38.373;  -10.080;  742.160
453.278;   37.427;  -12.861;  566.840
453.868;   42.312;   -8.372;  793.550
454.458;   39.782;   -8.131;  651.141
455.048;   40.711;   -8.520;  711.783
455.639;   41.662;  -13.632;  567.096
456.229;   45.518;  -10.143;  710.694
456.819;   48.778;   -9.163;  751.158
457.409;   48.092;   -8.652;  773.993
457.999;   50.330;   -9.933;  737.505
458.589;   50.577;  -10.363;  686.606
459.179;   50.499;  -10.633;  717.658
459.769;   48.890;  -12.442;  627.099
460.358;   53.128;   -9.844;  797.262
460.948;   53.545;   -9.924;  689.503
461.538;   55.844;  -10.484;  660.677
462.128;   52.460;  -10.703;  664.934
462.717;   59.597;  -11.486;  710.326
463.307;   62.651;  -10.767;  705.846
463.897;   58.641;   -8.814;  656.942
464.486;   57.730;   -8.182;  837.128
465.076;   62.474;   -9.985;  733.776
465.666;   66.059;  -10.447;  652.900
466.255;   64.014;   -7.754;  785.651
466.845;   62.505;  -10.884;  666.749
467.434;   65.687;  -12.525;  725.873
468.023;   67.098;  -11.456;  658.357
468.613;   64.400;   -9.173;  713.946
469.202;   68.388;   -9.306;  646.507
469.791;   73.015;   -8.917;  737.811
470.381;   74.748;   -9.657;  742.813
470.970;   74.542;   -9.947;  711.099
471.559;   74.830;   -9.256;  733.291
472.148;   76.610;  -13.397;  675.737
472.738;   80.423;   -9.928;  765.466
473.327;   79.308;  -10.897;  637.529
473.916;   79.280;   -8.526;  737.446
474.505;   83.201;  -11.078;  751.703
475.094;   87.148;   -9.559;  806.570
475.683;   86.219;   -8.838;  797.699
476.272;   86.569;  -10.198;  730.632
476.861;   89.093;  -11.489;  706.754
477.449;   96.348;  -10.721;  728.487
478.038;   90.190;   -9.818;  692.513
478.627;   91.114;   -9.887;  714.852
479.216;   97.607;  -10.030;  769.441
479.805;  100.736;   -9.401;  783.375
480.393;  101.180;   -5.739; 1008.945
480.982;   99.561;   -7.838;  874.501
481.571;  105.819;   -9.111;  858.333
482.159;  106.364;  -10.601;  705.386
482.748;  105.796;   -8.500;  821.385
483.336;  111.151;   -9.241;  858.209
483.925;  111.212;  -10.440;  774.373
484.513;  118.216;  -11.063;  758.962
485.102;  115.523;   -9.540;  810.965
485.690;  124.746;   -6.742; 1011.050
486.278;  125.674;   -8.442;  979.329
486.867;  126.300;  -10.472;  809.662
487.455;  127.457;   -8.811;  898.229
488.043;  129.561;  -10.721;  748.361
488.631;  138.263;  -10.393; 1005.079
489.220;  142.032;  -10.843;  908.626
489.808;  141.681;  -10.572;  741.415
490.396;  149.879;  -10.482;  914.645
490.984;  156.106;  -11.542;  830.161
491.572;  166.314;   -8.463;  940.315
492.160;  170.454;   -8.491;  919.081
492.748;  178.892;   -9.681;  884.341
493.336;  198.184;  -10.493; 1019.693
493.924;  223.347;   -9.354;  958.077
494.512;  253.175;   -9.132; 1066.638
495.100;  287.560;   -9.001; 1103.280
495.687;  338.137;  -11.924; 1206.373
496.275;  402.333;  -11.193; 1150.796
496.863;  496.715;   -9.241; 1281.171
497.451;  606.668;  -11.341; 1386.805
498.038;  697.445;  -11.364; 1556.729
498.626;  801.142;   -8.104; 1741.407
499.214;  973.584;   -8.842; 2016.609
499.801; 1157.652;  -10.112; 2220.633
500.389; 1347.677;  -11.953; 2312.494
500.976; 1583.382;  -10.023; 2744.849
501.564; 1869.153;   -8.662; 3148.565
502.151; 2221.469;  -10.531; 3515.999
502.738; 2581.595;  -13.853; 3971.274
503.326; 3097.115;  -10.794; 4403.796
503.913; 3648.213;   -8.663; 5161.749
504.500; 3995.700;  -10.172; 5986.420
505.088; 4309.997;  -13.472; 6381.201
505.675; 4981.859;  -10.924; 6925.547
506.262; 5745.950;   -8.551; 7619.060
506.849; 6544.354;  -10.523; 8733.969
507.436; 7202.936;  -10.834; 9790.121
508.023; 7427.500;   -9.093; 9985.472
508.610; 7827.083;  -10.073;10434.618
509.197; 8348.650;   -9.500;11198.435
509.784; 9591.090;  -13.242;12391.194
510.371;10360.178;  -10.964;13603.713
510.958;10208.781;   -9.772;14426.586
511.545;11242.704;   -7.842;15243.775
512.132;11554.858;  -12.184;15945.876
512.719;11700.893;   -9.733;16340.369
513.305;13489.124;   -9.172;18011.766
513.892;15068.231;   -9.581;19754.971
514.479;16881.654;  -10.253;20967.805
515.066;19033.949;   -8.183;22299.793
515.652;20345.420;   -9.253;22908.660
516.239;21352.977;   -9.412;23798.875
516.825;23701.189;  -11.153;25567.275
517.412;23796.572;  -10.263;28154.959
517.998;24113.980;   -8.802;28344.111
518.585;23739.961;  -10.401;27134.219
519.171;23469.535;  -12.744;27268.576
519.758;25297.830;  -11.793;28964.129
520.344;27581.131;   -8.912;30664.494
520.930;27411.248;  -10.901;32550.605
521.516;28091.600;  -12.034;35422.895
522.103;29076.543;  -10.473;38280.004
522.689;30532.033;   -8.311;37835.117
523.275;34128.250;  -10.691;37288.613
523.861;35612.949;  -11.193;37281.395
524.447;36380.434;  -11.484;37846.949
525.033;36348.277;   -7.702;38321.949
525.619;36048.281;  -11.241;38579.285
526.205;37424.520;  -12.152;40622.875
526.791;37226.953;  -11.423;42258.836
527.377;34604.445;   -7.981;42966.902
527.963;35165.754;   -9.450;42018.949
528.549;38944.785;  -11.351;42476.828
529.135;40657.402;  -10.202;41854.852
529.721;39665.004;   -8.672;41237.711
530.306;37934.957;   -9.111;41259.445
530.892;39297.289;  -11.252;41506.047
531.478;41535.367;  -10.432;43559.613
532.063;44328.348;  -10.721;47695.563
532.649;46401.734;   -7.450;50808.324
533.235;46897.172;  -11.811;51787.500
533.820;46969.609;   -9.383;52145.035
534.406;46254.336;   -9.400;51133.488
534.991;45366.195;   -8.861;49996.805
535.576;43719.801;  -10.612;48882.852
536.162;41991.441;   -7.322;46942.285
536.747;43006.508;   -9.360;45711.746
537.333;45239.414;  -10.450;48510.180
537.918;46999.793;  -12.610;50439.891
538.503;48439.500;  -12.132;50863.711
539.088;46052.664;  -10.831;50906.922
539.673;43457.648;  -11.220;52621.965
540.259;44973.172;  -11.481;52368.094
540.844;47838.305;  -11.462;50879.109
541.429;49436.805;   -7.869;52077.777
542.014;50396.176;  -11.859;52716.695
542.599;49784.875;  -11.061;52363.281
543.184;49263.320;  -12.300;53187.137
543.769;48691.500;   -9.369;54697.605
544.354;48612.742;  -12.020;53913.914
544.938;45625.852;  -10.350;49680.164
545.523;43058.305;  -10.841;47386.277
546.108;44647.957;   -8.579;49151.949
546.693;47025.523;   -8.818;51384.637
547.278;48118.957;  -11.331;51853.254
547.862;44690.074;  -10.292;51173.750
548.447;40674.863;   -8.349;51691.395
549.031;41829.566;  -10.838;52456.703
549.616;47358.008;  -11.681;52714.516
550.201;50610.188;  -11.140;52414.598
550.785;48683.070;   -8.649;52355.059
551.370;48325.680;  -11.889;54589.453
551.954;48242.707;  -11.239;58267.348
552.538;47895.465;   -8.850;59062.176
553.123;49090.012;  -10.829;58115.285
553.707;49238.168;   -8.887;56556.285
554.291;48252.125;  -10.430;56201.668
554.876;46220.297;   -9.799;55335.762
555.460;47166.910;  -10.018;54155.703
556.044;48535.688;   -7.307;53721.484
556.628;45595.941;  -12.229;53731.016
557.212;42485.719;   -9.820;54312.531
557.796;41819.434;   -9.109;53797.773
558.380;43709.164;   -9.707;56145.984
558.964;42722.813;  -10.980;57277.930
559.548;42804.109;  -12.010;56459.641
560.132;46154.453;   -7.928;54434.543
560.716;47770.742;  -10.247;54800.617
561.300;47664.820;  -11.250;57606.945
561.884;49509.918;  -10.568;58972.445
562.467;48112.141;   -9.727;57327.570
563.051;46776.316;  -11.847;54962.434
563.635;45456.563;  -10.747;52594.473
564.219;42126.449;  -13.108;50610.410
564.802;39064.402;  -11.417;49551.180
565.386;40160.777;  -10.457;48370.953
565.969;41929.023;   -8.959;48178.871
566.553;41347.512;  -10.328;49957.305
567.136;40099.902;  -10.257;50369.594
567.720;39862.617;  -10.186;49492.004
568.303;40075.613;  -10.027;50616.352
568.887;40963.582;  -10.397;50727.148
569.470;39344.961;   -8.185;51698.379
570.053;38387.715;  -11.596;52122.078
570.637;38286.125;  -11.378;52536.438
571.220;38162.012;   -9.138;51186.098
571.803;37356.969;   -7.675;51032.762
572.386;35878.523;   -8.976;49609.887
572.969;33446.125;  -12.477;48285.926
573.552;34370.309;   -9.767;47624.285
574.135;34912.051;   -8.175;45498.641
574.718;31675.889;  -11.096;41970.434
575.301;29812.047;  -11.966;41447.137
575.884;27948.203;  -12.836;40923.836
576.467;31654.266;   -9.116;45267.723
577.050;32341.082;  -10.536;48175.543
577.633;33007.410;  -11.027;47729.328
578.216;33440.426;   -9.946;47579.793
578.799;33086.832;   -9.645;47820.996
579.381;34378.609;   -9.446;48115.551
579.964;36675.195;  -12.217;47333.766
580.547;38165.352;  -10.586;46668.969
581.129;38633.625;   -8.374;44466.141
581.712;36550.176;  -10.434;44164.922
582.294;34411.754;  -10.896;46477.855
582.877;34497.105;   -8.906;48244.254
583.459;35366.918;   -9.994;47437.895
584.042;35973.168;  -10.084;46943.219
584.624;36065.293;  -13.534;46792.227
585.206;34077.309;  -12.716;46557.250
585.789;34222.973;  -11.614;45793.773
586.371;32372.023;  -10.203;43836.391
586.953;29532.369;  -10.314;42972.492
587.536;29432.475;   -9.776;42487.211
588.118;29719.979;   -9.821;42086.414
588.700;28854.539;  -10.073;43389.930
589.282;26598.400;  -12.395;43646.039
589.864;27354.891;  -11.514;43438.109
590.446;29930.332;  -10.803;43151.926
591.028;30980.250;  -11.043;42781.867
591.610;31788.279;  -13.244;42839.098
592.192;31718.133;  -11.095;42820.402
592.774;30332.801;  -10.823;40724.277
593.356;29554.141;  -11.052;39874.789
593.937;30976.133;  -11.664;39980.648
594.519;34617.547;  -10.454;42069.633
595.101;37356.227;  -10.322;42976.031
595.683;36527.305;  -10.042;44084.441
596.264;32904.957;  -14.334;43478.797
596.846;34102.293;  -10.863;43803.672
597.427;33085.609;   -9.901;42986.934
598.009;31571.881;  -10.911;42832.219
598.591;32033.258;  -10.483;42580.086
599.172;33643.906;   -9.663;43061.805
599.753;34733.391;  -10.631;41691.469
600.335;35124.855;   -9.371;40692.520
600.916;33021.898;  -13.992;39982.422
601.498;32407.320;   -8.352;40318.617
602.079;33027.492;   -8.411;40670.609
602.660;32792.074;  -10.841;41450.898
603.241;32403.295;  -12.963;41137.738
603.823;32868.625;  -11.523;38868.797
604.404;32545.070;  -11.881;38182.785
604.985;33439.844;  -11.721;38078.047
605.566;33378.539;   -9.293;38056.633
606.147;31951.977;  -10.940;37020.418
606.728;33568.668;  -11.840;37883.359
607.309;34585.770;  -11.781;38748.273
607.890;34860.098;  -11.262;38850.230
608.471;33077.426;  -10.111;37457.918
609.051;32739.566;   -7.709;36066.457
609.632;30050.816;  -12.409;35991.074
610.213;30217.324;  -10.811;37402.641
610.794;31670.639;  -11.630;38383.363
611.374;35236.223;   -8.030;40562.387
611.955;35541.379;  -10.809;38533.727
612.536;34211.066;  -10.531;36951.789
613.116;34133.750;  -12.820;37197.891
613.697;35155.109;  -11.419;38411.125
614.277;36318.520;   -9.768;38673.938
614.858;33220.871;  -10.251;37075.863
615.438;29714.369;  -11.981;35092.906
616.019;27493.324;   -8.978;33666.301
616.599;29843.836;  -12.219;34189.023
617.179;32012.561;  -14.170;36952.047
617.760;32841.313;   -9.211;39582.574
618.340;32917.820;   -9.018;38943.977
618.920;33195.234;   -9.249;37594.156
619.500;33233.164;  -12.728;37866.938
620.080;33731.160;  -12.939;37869.043
620.660;34734.891;  -11.586;36868.617
621.241;34224.027;  -11.538;36352.309
621.821;32917.613;  -11.398;35459.520
622.401;31489.154;  -10.179;35207.414
622.980;31433.885;  -11.587;35980.422
623.560;32916.258;  -12.888;37351.328
624.140;31329.877;  -13.149;34388.582
624.720;27234.990;   -9.928;32368.764
625.300;26841.020;  -10.869;32638.629
625.880;29584.688;   -8.617;34599.035
626.459;30684.502;  -12.138;36831.738
627.039;33051.820;  -12.267;38299.098
627.619;36359.629;   -7.476;38289.574
628.198;37984.262;  -11.347;37220.695
628.778;35469.875;  -11.678;37632.563
629.357;32887.809;  -12.438;38003.012
629.937;32114.607;   -9.576;38402.039
630.516;31799.463;  -11.096;37868.801
631.096;32731.400;  -11.828;35760.410
631.675;34050.453;  -11.565;35225.219
632.254;34685.164;  -11.845;35130.289
632.834;36210.277;  -11.545;35794.570
633.413;35674.711;  -10.887;35788.922
633.992;35227.270;  -10.175;34532.863
634.571;35854.602;   -9.704;33590.113
635.151;34293.672;  -10.815;34943.863
635.730;32931.633;  -11.617;35352.523
636.309;32670.092;  -10.836;35366.605
636.888;33259.445;   -9.755;36165.637
637.467;33324.684;  -11.684;37515.902
638.046;33552.586;  -11.987;39288.695
638.625;33216.430;  -10.455;38279.699
639.204;32995.977;  -11.234;37741.598
639.782;33830.902;  -12.023;38364.551
640.361;32073.102;  -11.506;36740.621
640.940;29017.352;  -12.316;34950.082
641.519;26975.477;  -11.616;34137.398
642.097;29175.311;   -9.266;35654.258
642.676;33062.711;  -12.936;35637.957
643.255;33795.145;   -9.966;36567.074
643.833;34346.086;   -8.916;37809.434
644.412;32336.078;  -10.936;37337.293
644.990;31574.803;  -12.176;37018.531
645.569;32477.582;  -12.246;36518.469
646.147;35358.711;  -12.107;36186.430
646.726;38086.477;  -12.937;36267.688
647.304;35080.301;  -12.547;36647.625
647.882;34026.496;  -12.597;39286.742
648.461;33314.664;   -9.427;39157.703
649.039;33300.090;   -8.937;35412.883
649.617;34089.414;  -11.067;34744.918
650.195;32512.969;  -10.657;35403.098
650.773;29913.129;  -10.097;35053.797
651.352;29390.898;  -11.887;33756.816
651.930;28352.703;  -13.557;31868.773
652.508;28280.957;  -11.767;33121.551
653.086;31120.877;  -10.777;33564.793
653.663;33936.918;  -12.067;34054.668
654.241;36599.953;  -14.918;35693.309
654.819;36275.605;  -11.788;36422.906
655.397;34157.781;  -11.268;38213.484
655.975;32323.826;  -11.738;39507.625
656.553;30419.189;  -11.018;39498.223
657.130;29193.637;  -12.848;40395.480
657.708;27995.701;  -10.098;39242.020
658.286;29017.469;  -11.678;38920.020
658.863;31721.100;  -11.498;40202.898
659.441;34589.043;  -11.008;39677.938
660.018;36491.047;  -11.048;40413.355
660.596;37285.172;  -12.058;39931.414
661.173;37750.902;  -14.158;39604.531
661.750;37012.875;  -12.298;39700.070
662.328;36371.199;  -10.699;39292.809
662.905;35790.457;  -12.119;38235.648
663.482;31974.545;  -11.829;36212.305
664.060;28207.654;  -11.009;35944.945
664.637;31470.406;  -10.369;35170.785
665.214;34134.609;  -10.459;34197.523
665.791;33359.957;  -12.599;34549.520
666.368;30770.678;  -12.919;35118.578
666.945;28914.197;  -10.699;36019.418
667.522;30013.996;  -11.359;36048.438
668.099;30669.119;  -13.529;36243.914
668.676;29397.238;  -10.229;35958.875
669.253;28959.664;   -9.279;37384.730
669.830;28543.547;  -11.370;36779.629
670.407;28315.553;  -10.950;35231.289
670.984;29320.084;  -12.850;35544.270
671.560;28192.592;   -8.440;35466.867
672.137;29068.451;  -13.520;34280.863
672.714;30673.289;  -13.620;34632.863
673.290;31185.689;  -10.450;35135.422
673.867;30178.340;  -10.960;36114.480
674.443;31114.570;  -13.300;36152.859
675.020;29387.604;  -12.370;35327.238
675.596;28778.992;  -11.250;35795.176
676.173;29446.582;  -11.080;35430.355
676.749;29209.006;  -13.220;33549.516
677.326;30195.348;  -13.000;32210.012
677.902;30020.609;  -12.701;32068.871
678.478;28630.709;  -12.801;32583.891
679.054;29301.225;   -8.601;32088.928
679.631;30348.385;  -12.631;30978.848
680.207;31269.941;   -9.451;33160.887
680.783;30731.344;  -11.701;35570.363
681.359;31084.559;  -12.701;36125.184
681.935;33022.563;  -13.271;35240.922
682.511;35094.699;  -10.791;34429.961
683.087;33006.469;  -10.791;34463.680
683.663;29538.719;   -8.121;34648.898
684.239;27199.594;  -13.261;34546.457
684.815;27808.867;  -10.581;35586.375
685.390;29737.682;   -9.961;35821.895
685.966;29303.908;  -11.182;35085.871
686.542;28496.398;  -13.512;34198.230
687.118;26551.350;  -11.472;32847.707
687.693;25431.609;  -10.152;32794.027
688.269;25806.891;  -14.442;33072.367
688.844;24872.266;  -11.852;33141.664
689.420;23856.295;  -13.942;33965.742
689.995;25109.354;   -9.702;34655.523
690.571;26853.334;  -11.312;33576.742
691.146;27002.031;  -14.332;32657.219
691.722;26686.422;  -11.192;32526.979
692.297;27560.441;  -10.962;33014.617
692.872;29019.449;  -11.082;34012.254
693.448;29768.771;  -14.732;34237.434
694.023;29103.938;  -12.363;34142.672
694.598;27253.172;  -12.393;34132.031
695.173;27813.670;  -11.023;34205.250
695.748;29364.805;  -12.743;32882.488
696.323;28804.094;  -11.103;32864.906
696.898;28076.469;   -8.123;33170.004
697.473;27818.605;  -12.603;32432.984
698.048;28165.279;  -12.553;31649.303
698.623;29503.646;  -12.573;30778.141
699.198;29218.045;  -12.743;31140.119
699.773;28446.090;  -12.843;31764.299
700.348;28844.699;  -16.683;31780.816
700.922;29992.520;  -11.403;32046.375
701.497;31627.908;  -11.253;32603.574
702.072;31081.230;  -10.044;34799.871
702.646;30465.326;  -13.054;35793.172
703.221;31104.379;  -11.414;35201.590
703.795;30452.934;  -10.644;34764.527
704.370;28477.326;  -13.484;34307.367
704.944;27520.871;  -12.144;33509.887
705.519;27001.248;  -12.024;31388.584
706.093;28739.135;  -11.234;31340.104
706.668;30008.756;   -9.874;32630.281
707.242;29180.580;  -12.404;32728.779
707.816;27448.273;  -10.644;32947.238
708.390;26888.105;  -11.174;33277.855
708.965;26792.891;  -10.324;33834.336
709.539;27349.686;  -12.014;33709.273
710.113;27718.545;  -12.295;33044.313
710.687;29345.480;  -10.965;31953.992
711.261;31457.008;  -13.685;30505.949
711.835;29973.607;  -15.335;30262.369
712.409;28691.828;  -13.785;31254.447
712.983;28903.219;  -10.525;32754.986
713.557;27171.357;  -13.175;34018.824
714.131;26890.949;  -13.245;34579.625
714.704;29980.477;  -13.175;33890.262
715.278;32362.592;  -11.545;33531.102
715.852;30929.123;  -10.975;33601.660
716.425;29226.379;  -10.075;33515.117
716.999;29503.146;  -12.185;33185.555
717.573;31819.447;   -9.685;33905.996
718.146;32770.785;  -10.516;35199.293
718.720;31465.277;  -12.106;35060.551
719.293;29860.676;  -12.386;34973.230
719.867;29740.432;  -12.456;36394.449
720.440;29558.605;  -10.686;36663.008
721.013;29717.176;  -12.596;35102.426
721.587;31281.191;  -13.956;33985.266
722.160;33330.047;   -9.806;33524.965
722.733;33989.613;  -11.676;32987.043
723.306;33424.809;  -14.276;33066.301
723.880;31187.932;  -12.126;33399.500
724.453;28741.451;  -10.156;33468.297
725.026;28349.619;  -12.956;33816.637
725.599;28472.107;  -11.676;32797.996
726.172;28872.484;  -12.337;33187.434
726.745;29056.500;  -11.277;35136.613
727.318;29000.646;  -11.927;35751.730
727.891;28274.941;  -13.607;35890.430
728.463;26039.287;  -11.327;34822.090
729.036;25882.109;  -11.917;32895.086
729.609;27611.082;  -12.697;31823.225
730.182;28549.348;  -11.787;31445.283
730.754;28202.830;  -12.957;32373.223
731.327;27844.098;  -11.017;33676.820
731.900;27497.836;  -12.797;33417.000
732.472;26892.545;  -10.677;31978.498
733.045;26294.301;  -12.797;30368.777
733.617;26331.303;  -13.908;30574.215
734.190;25239.553;  -12.258;31280.975
734.762;25308.570;  -13.438;31674.412
735.334;26582.662;  -11.758;31247.291
735.907;29389.791;  -11.158;29876.211
736.479;32832.098;  -11.258;29808.488
737.051;33391.281;  -10.918;30233.547
737.623;32285.311;  -11.038;31469.086
738.195;33468.375;  -12.188;31784.225
738.768;31183.611;  -11.378;32120.523
739.340;25309.279;  -12.598;32094.342
739.912;23483.158;  -11.568;31312.680
740.484;25278.266;   -9.348;31946.238
741.056;27971.422;  -12.628;32984.059
741.628;29980.146;  -13.349;33897.715
742.199;28856.898;  -11.309;33213.016
742.771;28976.504;  -12.699;31369.113
743.343;29924.232;  -11.919;31865.473
743.915;29838.250;  -11.679;32388.631
744.487;28376.500;  -12.249;31079.568
745.058;26140.844;  -11.119;30570.107
745.630;24984.275;   -9.439;29970.127
746.201;24203.814;  -11.949;29186.766
746.773;24253.975;  -12.639;28805.723
747.344;25412.656;  -11.039;29591.223
747.916;27538.373;  -12.549;31412.201
748.487;26505.275;  -12.659;32194.898
749.059;24768.225;  -13.059;32533.719
749.630;23984.637;  -12.080;32158.518
750.201;22375.924;  -13.100;30855.395
750.773;21619.826;  -15.310;28622.555
751.344;21354.344;  -12.240;28405.732
751.915;21492.068;  -11.960;28461.551
752.486;20590.490;  -13.200;27842.850
753.057;19243.879;  -15.230;27845.008
753.628;20339.713;  -13.130;27728.107
754.199;22796.359;  -12.720;27381.086
754.770;23004.117;  -10.680;25882.203
755.341;21626.859;  -11.010;25886.184
755.912;21087.586;  -12.990;26050.861
756.483;20517.418;  -11.110;26798.779
757.054;20100.699;  -12.190;27048.238
757.625;20081.521;  -13.981;26294.838
758.195;20203.516;  -11.041;26142.076
758.766;21339.512;  -11.861;26392.234
759.337;21733.564;  -11.461;26334.594
759.907;21017.330;  -15.001;27579.652
760.478;19828.686;   -9.681;28352.770
761.048;18688.369;  -12.421;27325.088
761.619;19578.723;  -11.761;26460.428
762.189;20148.412;  -12.391;26029.826
762.760;19506.643;  -10.201;26430.145
763.330;20083.363;  -10.811;26670.902
763.900;20650.365;  -10.261;26603.021
764.471;19624.572;  -13.061;25542.740
765.041;18195.232;  -11.051;24358.459
765.611;18075.807;  -11.032;23991.297
766.181;18250.445;  -10.532;24470.236
766.751;18628.625;  -13.502;24845.975
767.321;19801.486;  -11.392;24533.633
767.891;21548.105;  -11.522;24916.492
768.461;22848.256;  -13.672;24776.771
769.031;20470.939;  -14.652;24757.988
769.601;17630.215;  -10.182;24181.088
770.171;16411.490;  -11.752;23670.387
770.741;15436.620;  -12.272;22960.045
771.311;15161.596;  -13.112;22917.523
771.880;16152.698;  -14.122;23562.941
772.450;16897.994;  -11.782;24216.500
773.020;17095.602;  -12.642;24140.398
773.589;16248.260;  -13.043;24414.857
774.159;15654.256;  -11.783;23858.717
774.729;16485.520;  -13.473;22942.135
775.298;17280.299;  -14.523;22324.033
775.867;16868.316;  -12.013;21140.313
776.437;16195.172;  -12.113;20838.092
777.006;15857.366;  -13.543;20599.510
777.576;16511.393;  -12.523;20508.809
778.145;16734.078;  -12.173;20732.947
778.714;16026.732;  -12.153;21062.465
779.283;15182.744;  -11.833;20949.664
779.853;15300.465;  -13.483;20508.623
780.422;15485.090;  -12.933;20649.082
780.991;15018.717;  -13.173;21527.520
781.560;14736.940;  -10.224;22632.658
782.129;15184.565;  -12.684;23048.277
782.698;15244.618;  -11.284;23438.555
783.267;15116.934;  -11.684;23267.734
783.836;14874.800;  -10.974;22415.133
784.404;14452.322;  -13.534;20443.152
784.973;13649.340;  -16.734;19699.150
785.542;12483.572;  -12.594;19763.828
786.111;12063.956;  -11.644;20341.408
786.679;13118.993;  -11.384;20207.967
787.248;13430.929;  -12.014;19516.465
787.817;12265.863;  -12.804;18900.363
788.385;10971.449;  -11.994;17879.121
788.954;11286.251;  -12.564;17658.301
789.522;12329.187;  -12.225;17788.879
790.090;12397.712;  -13.775;18118.277
790.659;12200.159;  -12.485;18338.736
791.227;12896.906;  -12.295;18508.615
791.795;13576.676;  -13.415;17898.254
792.364;14038.828;  -12.995;17295.133
792.932;13796.560;   -8.365;16822.051
793.500;12683.999;  -11.925;17040.148
794.068;12769.261;  -13.245;17179.787
794.636;13587.032;  -13.815;16664.246
795.204;13618.739;  -13.375;16524.545
795.772;13384.630;  -12.125;17274.564
796.340;12534.062;  -13.855;17891.002
796.908;10893.215;  -13.456;17648.561
797.476;10029.959;  -13.116;17064.080
798.044;10256.785;  -13.226;16672.777
798.612;10598.705;  -11.236;17023.996
799.180;10513.075;  -10.476;16561.615
799.747;10102.271;  -11.746;15962.773
800.315; 9639.322;  -12.366;15296.992
800.883; 9014.163;  -14.616;14801.771
801.450; 9127.328;  -11.996;14534.430
802.018;10017.784;  -11.206;14173.248
802.585;10484.649;  -12.466;14029.547
803.153; 9997.363;  -12.846;13836.846
803.720; 9338.877;  -12.136;13567.324
804.287; 9469.897;  -10.966;13360.622
804.855; 9621.439;   -9.797;13681.981
805.422; 8838.677;  -13.037;13536.560
805.989; 8129.630;  -12.697;13355.958
806.556; 8304.674;  -11.737;13747.896
807.124; 9019.321;  -11.997;13987.376
807.691; 8815.021;  -13.997;14038.674
808.258; 8179.428;  -10.927;14120.152
808.825; 8413.355;  -13.727;13860.111
809.392; 8490.121;  -11.847;13268.790
809.959; 8466.896;  -14.217;12680.389
810.526; 8427.728;   -8.277;12427.308
811.093; 8566.416;   -9.647;12030.105
811.659; 8613.980;  -10.987;11653.664
812.226; 8011.263;  -13.447;11637.183
812.793; 7528.058;  -14.418;11611.521
813.360; 7679.182;  -13.908;11885.181
813.926; 8151.820;  -12.918;12770.539
814.493; 8384.621;  -14.888;12677.638
815.060; 7975.458;  -12.758;11974.336
815.626; 7669.002;  -13.478;11594.715
816.193; 7628.229;  -13.898;11579.474
816.759; 7728.024;  -13.588;11666.972
817.325; 7691.947;  -12.018;11325.530
817.892; 7292.831;  -14.068;11105.369
818.458; 7294.291;  -13.458;10843.928
819.024; 7171.736;  -11.968;10714.406
819.591; 6940.722;  -11.028;10469.165
820.157; 7044.698;  -12.088;10235.523
820.723; 7186.808;  -12.599;10847.563
821.289; 6916.466;  -10.419;11040.980
821.855; 6715.097;  -10.939;10357.100
822.421; 6699.767;  -12.539; 9978.918
822.987; 6633.020;  -13.259; 9754.177
823.553; 6409.125;  -15.369;10065.755
824.119; 6254.809;  -10.779;10036.294
824.685; 6247.558;   -9.999;10029.192
825.251; 6106.750;  -11.819;10199.230
825.816; 6039.453;  -13.369; 9820.189
826.382; 5907.990;  -12.679; 9297.248
826.948; 5450.272;  -11.199; 9381.347
827.513; 5249.304;  -11.179; 9450.726
828.079; 5344.095;  -13.489; 9472.444
828.645; 5448.212;  -12.500; 9292.643
829.210; 5437.368;  -15.120; 9065.341
829.776; 5396.537;  -12.590; 9132.620
830.341; 5512.791;  -11.540; 9092.878
830.906; 5874.233;  -12.400; 9078.557
831.472; 5869.846;  -12.720; 8534.535
832.037; 5172.209;  -11.490; 8677.874
832.602; 4512.482;  -14.380; 8628.692
833.167; 4245.945;  -12.780; 8879.031
833.733; 4467.683;  -11.100; 9189.790
834.298; 4808.936;  -12.080; 9052.608
834.863; 4641.396;  -13.910; 8895.087
835.428; 4360.813;  -13.470; 8824.266
835.993; 4195.879;  -11.760; 8845.385
836.558; 4365.606;  -12.731; 8888.563
837.123; 4532.651;  -12.431; 8966.582
837.688; 4385.396;  -11.241; 8617.860
838.253; 4200.793;  -13.681; 8590.699
838.817; 4294.495;  -12.531; 8443.797
839.382; 4398.175;  -12.671; 8799.356
839.947; 4425.500;  -11.541; 8810.595
840.511; 4525.430;  -12.021; 8796.394
841.076; 4592.755;  -13.071; 8347.231
841.641; 4818.156;  -11.411; 8224.330
842.205; 5082.696;  -13.671; 8223.349
842.770; 5002.115;  -11.291; 8622.107
843.334; 4731.185;  -12.951; 8410.386
843.898; 4482.989;  -11.221; 8337.465
844.463; 4541.875;  -11.322; 8506.283
845.027; 4534.589;  -11.412; 8280.962
845.591; 4283.404;  -11.512; 8231.141
846.156; 4145.164;  -14.042; 7969.179
846.720; 4201.880;  -12.152; 7768.278
847.284; 4015.536;  -10.922; 7630.957
847.848; 3824.273;  -10.962; 7472.395
848.412; 3615.594;  -14.612; 7437.394
848.976; 3616.437;  -11.492; 7674.592
849.540; 3901.274;   -9.172; 7836.011
850.104; 4106.196;  -11.232; 7913.669
850.668; 4030.156;  -15.182; 7694.508
851.232; 3906.489;  -15.332; 7756.887
851.796; 3859.558;  -13.703; 7926.545
852.359; 3926.205;  -11.113; 7827.844
852.923; 4023.078;  -11.843; 7641.163
853.487; 3992.623;  -11.173; 7342.501
854.050; 3867.408;  -13.443; 7042.820
854.614; 3825.277;  -13.823; 7151.338
855.177; 3751.266;  -16.393; 7105.077
855.741; 3706.665;  -11.693; 6989.675
856.304; 3692.066;  -10.843; 6596.634
856.868; 3590.728;  -13.783; 6356.272
857.431; 3369.106;  -11.953; 6468.571
857.995; 3111.360;  -13.683; 6373.210
858.558; 3079.148;  -11.433; 6324.448
859.121; 3205.229;  -12.493; 6408.327
859.684; 3141.839;  -12.384; 6347.886
860.247; 2810.259;  -14.774; 6321.264
860.810; 2537.560;  -13.154; 6301.903
861.374; 2521.980;  -11.264; 6607.881
861.937; 2593.723;  -15.424; 6408.200
862.500; 2586.615;  -12.854; 6572.639
863.062; 2572.374;  -12.344; 6387.297
863.625; 2572.313;  -13.314; 6190.836
864.188; 2659.223;  -14.724; 5807.254
864.751; 2850.074;  -13.464; 5682.413
865.314; 3207.111;  -11.684; 5547.492
865.876; 3435.320;  -11.104; 5500.150
866.439; 3382.115;  -12.344; 5415.909
867.002; 3198.866;  -13.494; 5501.567
867.564; 2922.360;  -10.935; 5413.946
868.127; 2715.305;  -12.665; 5160.325
868.689; 2670.692;  -14.515; 5133.183
869.252; 2715.807;  -13.425; 5252.382
869.814; 2879.575;  -11.595; 5297.141
870.377; 2988.363;  -12.175; 5390.919
870.939; 2876.445;  -10.265; 5599.898
871.501; 2739.827;  -12.375; 5248.336
872.063; 2656.058;  -14.355; 4854.235
872.626; 2578.384;  -14.435; 4817.074
873.188; 2483.227;  -12.415; 4987.732
873.750; 2502.570;  -14.555; 4868.651
874.312; 2432.303;  -11.185; 4779.330
874.874; 2234.228;  -12.715; 4866.348
875.436; 2135.273;  -13.196; 4718.887
875.998; 2119.070;  -11.426; 4660.005
876.560; 2029.785;   -9.786; 4462.964
877.122; 1963.209;  -12.796; 4145.042
877.683; 1943.822;  -13.226; 4056.481
878.245; 1932.546;  -12.036; 3950.740
878.807; 1927.651;  -11.536; 4058.958
879.369; 1914.385;  -10.806; 3954.677
879.930; 1813.365;  -13.946; 3941.495
880.492; 1667.494;  -11.876; 4067.014
881.053; 1627.306;  -13.216; 3859.633
881.615; 1690.494;  -12.226; 3776.071
882.176; 1730.147;  -12.946; 3734.750
882.738; 1674.196;  -10.736; 3678.489
883.299; 1602.391;  -12.057; 3405.407
883.860; 1563.956;  -12.677; 3351.106
884.422; 1521.314;  -14.097; 3394.044
884.983; 1412.352;  -13.667; 3166.443
885.544; 1264.500;  -10.717; 3189.802
886.105; 1150.472;  -14.357; 3160.360
886.666; 1127.150;  -14.287; 3093.059
887.227; 1133.551;  -14.297; 2941.957
887.788; 1122.752;  -13.137; 2974.836
888.349; 1036.744;  -14.637; 2721.214
888.910;  951.911;  -12.247; 2696.493
889.471;  941.303;  -10.577; 2560.172
890.032;  936.255;  -12.937; 2558.190
890.593;  888.966;  -12.487; 2567.669
891.153;  817.239;  -11.898; 2460.307
891.714;  803.869;  -14.278; 2372.046
892.275;  807.894;  -13.308; 2309.505
892.835;  754.724;  -12.058; 2382.543
893.396;  674.397;  -15.268; 2295.502
893.956;  616.657;  -13.278; 2162.420
894.517;  582.098;  -11.968; 2125.439
895.077;  568.406;  -12.798; 2086.978
895.638;  547.684;  -11.908; 2126.316
896.198;  522.500;  -13.288; 1838.275
896.758;  499.088;  -12.198; 1892.813
897.319;  474.036;  -13.048; 1792.232
897.879;  434.979;  -13.718; 1762.751
898.439;  395.490;  -14.138; 1661.149
898.999;  382.781;  -13.659; 1781.468
899.559;  372.153;  -14.699; 1703.347
900.119;  350.632;  -14.339; 1537.525
900.679;  325.783;  -11.789; 1638.384
901.239;  302.808;  -13.629; 1527.902
901.799;  287.401;  -13.679; 1456.441
902.359;  273.088;  -13.679; 1357.140
902.919;  262.433;  -14.159; 1331.118
903.479;  252.645;  -13.419; 1317.257
904.038;  241.289;  -14.899; 1262.595
904.598;  229.232;  -14.339; 1152.034
905.158;  222.176;  -13.959; 1240.893
905.717;  219.825;  -12.749; 1233.691
906.277;  211.933;  -11.889; 1217.330
906.836;  204.119;  -12.870; 1222.408
907.396;  201.085;  -11.790; 1193.047
907.955;  198.805;  -13.750; 1182.526
908.515;  193.001;  -14.760; 1099.364
909.074;  185.336;  -12.540; 1092.863
909.633;  178.526;  -12.120; 1069.121
910.192;  176.636;  -12.550; 1196.460
910.752;  174.500;  -12.760; 1029.960
911.311;  171.089;  -14.750; 1009.780
911.870;  167.766;  -13.860;  971.460
912.429;  165.624;  -13.480; 1094.080
912.988;  162.509;  -12.370; 1081.060
913.547;  156.451;  -14.670;  940.380
914.106;  153.984;  -12.800;  999.420
914.665;  152.405;  -11.370;  984.020
915.224;  149.877;  -11.430; 1035.760
915.782;  149.446;  -12.260;  922.560
916.341;  151.151;  -12.540; 1049.840
916.900;  148.112;  -12.540;  925.260
917.458;  146.813;  -13.480;  884.220
918.017;  146.155;  -12.470;  942.600
918.576;  145.243;  -13.450;  904.440
919.134;  143.415;  -12.890;  837.980
919.693;  141.928;  -15.480;  893.060
920.251;  139.546;  -14.420;  876.500
920.809;  139.823;  -12.170;  839.580
921.368;  140.217;  -13.650;  885.360
921.926;  140.448;  -12.750;  842.940
922.484;  139.659;  -14.150;  903.360
923.042;  141.044;  -15.100;  880.340
923.601;  144.744;  -10.990;  998.680
924.159;  144.063;  -12.470;  935.560
924.717;  143.443;  -15.640;  841.080
925.275;  143.765;  -12.380;  903.240
925.833;  143.630;  -12.710;  779.320
926.391;  145.277;  -11.200;  938.380
926.949;  145.755;  -16.000;  857.680
927.506;  147.397;  -12.260;  903.500
928.064;  147.297;  -11.300;  877.580
928.622;  148.189;  -13.750;  880.100
929.180;  147.026;  -15.290;  814.180
929.737;  147.022;  -14.500;  808.540
930.295;  148.179;  -10.630;  928.480
930.853;  151.284;  -14.590;  849.100
931.410;  153.475;  -14.450;  821.120
931.968;  156.892;  -14.390;  940.660
932.525;  157.350;  -13.050;  909.380
933.082;  156.535;  -15.620;  811.440
933.640;  159.264;  -15.650;  925.900
934.197;  161.621;  -13.610;  886.360
934.754;  165.989;  -13.320;  897.780
935.312;  168.528;  -13.370;  863.340
935.869;  172.277;  -12.780; 1012.980
936.426;  171.279;  -14.480;  872.800
936.983;  172.208;  -13.180;  889.020
937.540;  173.224;  -15.710;  838.280
938.097;  174.464;  -14.980;  940.120
938.654;  176.361;  -13.060;  898.860
939.211;  177.667;  -12.760;  952.480
939.768;  176.700;  -16.230;  915.420
940.324;  178.643;  -10.940;  904.200
940.881;  178.195;  -12.570;  878.500
941.438;  176.782;  -13.650; 1021.200
941.995;  177.078;  -13.300;  992.560
942.551;  178.217;  -15.800;  875.620
943.108;  177.811;  -14.180;  937.920
943.664;  176.614;  -13.890;  869.340
944.221;  181.618;  -12.640; 1088.140
944.777;  177.235;  -14.700;  869.680
945.334;  175.901;  -13.010;  884.840
945.890;  178.117;  -13.480;  946.480
946.446;  177.648;  -14.920;  947.020
947.003;  177.083;  -13.860;  964.940
947.559;  176.389;  -12.000; 1063.040
948.115;  176.399;  -10.510; 1026.540
948.671;  175.827;  -12.760;  967.300
949.227;  172.241;  -15.390;  859.560
949.783;  168.272;  -15.570;  858.900
950.339;  167.570;  -12.800;  991.000
950.895;  165.844;  -13.780; 1023.840
951.451;  164.948;  -13.810;  925.280
952.007;  167.245;  -12.390;  998.540
952.563;  168.069;  -11.980;  937.780
953.118;  165.389;  -14.070;  904.940
953.674;  167.563;  -14.140;  935.780
954.230;  172.582;  -12.680;  949.640
954.785;  174.241;  -12.770;  936.640
955.341;  171.150;  -11.450;  998.160
955.897;  162.359;  -15.350;  834.660
956.452;  158.184;  -14.200;  953.840
957.008;  153.555;  -10.820; 1083.640
957.563;  151.782;  -13.200; 1009.540
958.118;  151.176;  -14.460;  877.700
958.674;  152.694;  -13.840;  946.780
959.229;  152.925;  -10.670; 1013.980
959.784;  153.073;  -17.040;  832.400
960.339;  155.806;  -12.970; 1001.280
960.894;  159.233;  -12.700;  963.760
961.449;  162.847;  -13.790;  859.960
962.004;  170.728;  -11.760; 1212.840
962.559;  168.054;  -14.840;  860.140
963.114;  162.568;  -14.530;  742.480
963.669;  160.209;  -12.780;  915.500
964.224;  155.870;  -14.330;  874.340
964.779;  149.466;  -14.380;  828.420
965.334;  144.252;  -12.460; 1017.860
965.888;  140.739;  -13.490;  875.360
966.443;  140.074;  -14.140;  972.380
966.998;  137.793;  -16.240;  819.460
967.552;  136.612;  -12.730;  908.380
968.107;  135.368;  -14.510;  868.300
968.661;  135.650;  -11.850;  922.440
969.216;  133.294;  -14.370;  856.280
969.770;  131.528;  -13.010;  917.200
970.324;  130.385;  -12.460;  923.140
970.879;  131.310;  -11.580;  947.180
971.433;  134.198;  -13.130;  952.720
971.987;  133.098;  -12.360;  895.340
972.541;  129.811;  -14.330;  917.100
973.095;  123.543;  -13.310; 1009.460
973.649;  113.901;  -15.830;  809.480
974.203;  106.481;  -15.830;  829.040
974.757;  100.894;  -13.480;  855.220
975.311;   94.350;  -13.720;  872.600
975.865;   90.580;  -15.780;  881.820
976.419;   88.889;  -14.290;  857.400
976.973;   91.379;  -13.210;  849.620
977.526;   94.368;  -12.300;  949.920
978.080;   93.338;  -14.840;  796.780
978.634;   94.575;  -13.100;  921.320
979.187;   92.552;  -12.300;  905.400
979.741;   94.128;  -12.020; 1018.380
980.294;   91.599;  -14.590;  789.160
980.848;   90.772;  -14.390;  717.220
981.401;   92.161;  -14.280;  816.540
981.955;   92.503;  -11.920;  844.300
982.508;   90.094;  -15.790;  746.340
983.061;   90.555;  -12.070;  915.260
983.615;   87.995;  -13.260;  798.800
984.168;   85.158;  -15.540;  770.080
984.721;   85.856;  -13.230;  880.760
985.274;   83.460;  -11.820;  867.500
985.827;   81.450;  -13.510;  834.220
986.380;   80.331;  -14.840;  721.340
986.933;   81.694;  -13.970;  864.800
987.486;   81.260;  -12.450;  861.920
988.039;   79.658;  -11.170;  863.100
988.591;   76.874;  -13.070;  893.260
989.144;   74.006;  -15.530;  737.260
989.697;   72.943;  -14.300;  758.740
990.250;   71.076;  -13.310;  858.100
990.802;   69.609;  -14.490;  755.860
991.355;   71.507;  -12.980;  974.880
991.907;   69.194;  -13.715;  864.320
992.460;   66.881;  -14.450;  753.760
993.012;   65.513;  -12.590;  749.540
993.565;   63.542;  -15.180;  711.360
994.117;   64.491;  -11.630;  950.780
994.669;   61.733;  -13.760;  701.320
995.221;   61.579;  -12.710;  791.920
995.774;   60.777;  -14.620;  787.580
996.326;   59.607;  -13.150;  740.220
996.878;   60.300;  -12.880;  838.420
997.430;   57.272;  -14.580;  699.860
997.982;   55.309;  -14.030;  750.140
998.534;   53.950;  -12.190;  739.060
999.086;   52.495;  -12.990;  738.220
999.638;   52.335;  -13.180;  661.380
1000.190;   51.446;  -14.970;  699.320
1000.741;   52.005;  -12.200;  742.700
1001.293;   51.741;  -13.400;  686.020
1001.845;   50.332;  -14.490;  676.640
1002.396;   51.091;  -15.280;  743.400
1002.948;   50.942;  -12.380;  737.400
1003.500;   49.559;  -13.260;  723.780
1004.051;   51.416;  -13.730;  907.580
1004.603;   50.117;  -12.300;  791.820
1005.154;   46.337;  -15.330;  608.980
1005.705;   44.960;  -12.800;  723.960
1006.257;   45.085;  -13.900;  707.220
1006.808;   44.617;  -14.430;  685.460
1007.359;   43.536;  -12.010;  763.240
1007.910;   42.739;  -12.690;  646.640
1008.461;   41.889;  -13.610;  732.940
1009.013;   40.230;  -14.990;  588.340
1009.564;   41.108;  -11.860;  793.520
1010.115;   39.565;  -12.640;  597.040
1010.665;   39.753;  -14.570;  602.160
1011.216;   39.966;  -15.190;  667.920
1011.767;   39.017;  -13.470;  697.920
1012.318;   39.107;  -13.760;  736.980
1012.869;   38.779;  -15.950;  679.000
1013.419;   37.747;  -15.880;  603.120
1013.970;   38.243;  -14.540;  666.640
1014.521;   37.047;  -13.220;  620.620
1015.071;   37.838;  -15.020;  670.380
1015.622;   36.932;  -17.510;  635.460
1016.172;   36.172;  -14.130;  596.820
1016.723;   36.388;  -14.220;  614.380
1017.273;   35.919;  -15.370;  604.160
1017.823;   35.847;  -15.290;  650.340
1018.374;   35.939;  -13.420;  611.760
1018.924;   35.899;  -11.740;  716.880
1019.474;   36.065;  -12.250;  718.880
1020.024;   34.827;  -15.850;  657.580
1020.574;   35.093;  -13.280;  726.160
1021.124;   35.253;  -13.560;  673.580
1021.674;   33.854;  -13.790;  559.120
1022.224;   35.111;  -14.610;  708.940
1022.774;   33.928;  -13.100;  668.820
1023.324;   34.931;  -11.470;  753.520
1023.874;   35.801;  -11.990;  875.760
1024.423;   33.041;  -14.550;  613.700
1024.973;   32.538;  -14.440;  610.760
1025.523;   32.615;  -13.250;  620.960
1026.072;   31.773;  -15.200;  606.420
1026.622;   31.627;  -14.590;  675.740
1027.172;   32.378;  -11.080;  715.660
1027.721;   30.988;  -14.010;  601.220
1028.270;   31.756;  -13.690;  663.400
1028.820;   31.443;  -15.380;  638.080
1029.369;   31.076;  -14.980;  612.700
1029.918;   31.330;  -13.100;  649.840
1030.468;   30.412;  -13.680;  564.780
1031.017;   31.259;  -13.770;  634.800
1031.566;   29.463;  -14.100;  608.900
1032.115;   31.013;  -11.770;  694.500
1032.664;   29.355;  -14.940;  596.480
1033.213;   30.587;  -13.370;  735.420
1033.762;   28.998;  -13.660;  635.620
1034.311;   29.147;  -13.650;  677.220
1034.860;   29.076;  -13.820;  691.000
1035.408;   29.944;  -12.860;  722.720
1035.957;   29.383;  -13.060;  719.540
1036.506;   27.278;  -14.510;  530.800
1037.055;   30.552;  -13.470;  844.320
1037.603;   28.039;  -14.800;  664.000
1038.152;   26.691;  -14.190;  534.760
1038.700;   27.124;  -11.810;  585.740
1039.249;   27.020;  -12.850;  681.220
1039.797;   26.954;  -14.610;  633.360
1040.345;   27.424;  -15.220;  705.420
1040.894;   27.192;  -13.480;  625.300
1041.442;   26.237;  -13.310;  632.200
1041.990;   25.377;  -14.510;  559.160
1042.538;   24.266;  -15.700;  536.180
1043.087;   25.890;  -13.910;  570.860
1043.635;   26.858;  -13.620;  670.500
1044.183;   25.344;  -14.230;  586.400
1044.731;   24.707;  -13.730;  576.000
1045.279;   25.611;  -13.970;  674.920
1045.827;   26.828;  -10.750;  892.400
1046.374;   23.809;  -15.230;  515.420
1046.922;   23.750;  -15.390;  590.580
1047.470;   26.035;  -12.320;  691.300
1048.018;   25.141;  -13.230;  647.960
1048.565;   25.699;  -13.390;  708.600
1049.113;   23.127;  -15.030;  557.000
1049.660;   23.585;  -12.540;  629.660
1050.208;   24.910;  -15.040;  675.640
1050.755;   23.161;  -14.680;  606.580
1051.303;   23.946;  -13.610;  686.820
1051.850;   22.828;  -14.340;  635.120
1052.397;   21.715;  -16.330;  473.960
1052.945;   22.009;  -15.710;  617.760
1053.492;   23.052;  -12.320;  741.840
1054.039;   23.668;  -13.730;  720.180
1054.586;   21.717;  -16.140;  557.240
1055.133;   22.784;  -14.020;  693.140
1055.680;   23.004;  -13.430;  646.620
1056.227;   21.637;  -14.570;  542.780
1056.774;   24.354;  -14.400;  794.980
1057.321;   20.842;  -14.230;  523.260
1057.868;   22.159;  -14.220;  651.320
1058.415;   21.827;  -14.060;  651.980
1058.961;   21.740;  -14.640;  678.940
1059.508;   21.506;  -13.970;  643.820
1060.055;   20.831;  -15.100;  581.780
1060.601;   21.012;  -12.180;  624.300
1061.148;   20.745;  -15.010;  616.820
1061.694;   20.013;  -14.750;  592.580
1062.241;   20.710;  -14.130;  596.320
1062.787;   20.753;  -14.770;  663.140
1063.334;   21.818;  -13.130;  808.560
1063.880;   20.221;  -14.420;  668.360
1064.426;   20.773;  -13.130;  706.820
1064.972;   19.960;  -13.960;  601.340
1065.518;   18.143;  -13.680;  566.640
1066.065;   19.500;  -15.720;  624.460
1066.611;   17.955;  -13.970;  598.800
1067.157;   19.393;  -13.920;  641.860
1067.703;   18.979;  -14.760;  668.480
1068.249;   18.657;  -14.490;  605.220
1068.794;   18.603;  -14.740;  626.880
1069.340;   17.791;  -13.220;  578.960
1069.886;   18.489;  -14.930;  590.700
1070.432;   17.034;  -14.700;  541.720
1070.977;   17.601;  -14.470;  601.080
1071.523;   17.924;  -14.330;  573.060
1072.068;   17.311;  -14.960;  582.000
1072.614;   17.581;  -16.220;  527.760
1073.160;   18.054;  -11.280;  687.040
1073.705;   17.143;  -15.990;  572.520
1074.250;   17.113;  -16.550;  559.900
1074.796;   17.973;  -14.600;  655.160
1075.341;   18.346;  -13.440;  664.100
1075.886;   17.558;  -14.450;  594.240
1076.431;   17.385;  -13.160;  649.880
1076.976;   16.555;  -14.710;  639.220
1077.521;   16.085;  -14.000;  583.080
1078.067;   15.340;  -14.470;  579.400
1078.612;   16.846;  -14.530;  661.620
1079.156;   16.429;  -15.660;  601.540
1079.701;   16.056;  -16.120;  693.260
1080.246;   16.593;  -12.960;  696.300
1080.791;   16.643;  -13.700;  625.020
1081.336;   16.047;  -15.540;  659.320
1081.880;   15.545;  -14.640;  649.680
1082.425;   15.134;  -14.220;  573.480
1082.970;   16.743;  -11.890;  717.040
1083.514;   14.764;  -13.820;  597.000
1084.059;   14.180;  -14.280;  586.720
1084.603;   14.633;  -12.890;  565.840
1085.147;   14.729;  -13.590;  645.220
1085.692;   15.559;  -14.050;  716.800
1086.236;   13.351;  -14.990;  503.140
1086.780;   15.858;  -12.640;  751.440
1087.325;   15.106;  -15.550;  654.620
1087.869;   14.644;  -14.980;  610.700
1088.413;   14.799;  -13.440;  705.040
1088.957;   13.026;  -12.170;  543.400
1089.501;   14.638;  -12.730;  766.640
1090.045;   14.622;  -14.650;  726.480
1090.589;   12.526;  -14.500;  569.920
1091.133;   13.767;  -12.320;  673.340
1091.676;   12.811;  -16.130;  591.940
1092.220;   13.230;  -13.930;  600.920
1092.764;   13.969;  -12.820;  706.960
1093.307;   13.132;  -11.700;  673.780
1093.851;   12.159;  -15.600;  556.540
1094.395;   13.152;  -13.920;  683.140
1094.938;   12.249;  -16.090;  632.520
1095.482;   12.688;  -13.820;  559.800
1096.025;   13.471;  -12.720;  710.880
1096.568;   13.725;  -12.100;  779.280
1097.112;   10.032;  -15.450;  508.180
1097.655;   12.568;  -14.310;  603.000
1098.198;   10.743;  -14.740;  600.180
1098.741;   11.676;  -15.550;  612.860
1099.285;   11.986;  -12.600;  657.300
1099.828;    9.124;  -15.050;  439.400
1100.371;   11.718;  -14.800;  608.160
1100.914;   11.083;  -16.480;  682.660
1101.457;   11.697;  -12.990;  679.900
1101.999;   10.380;  -14.110;  584.680
1102.542;   11.521;  -11.450;  641.440
1103.085;   11.706;  -13.350;  658.500
1103.628;   11.586;  -13.200;  762.060
1104.170;   10.699;  -12.310;  588.280
1104.713;   10.465;  -14.320;  646.700
1105.256;    9.470;  -16.110;  557.440
1105.798;    8.592;  -15.910;  499.980
1106.341;   11.276;  -12.200;  728.900
1106.883;    8.826;  -14.910;  521.340
1107.425;    9.920;  -14.960;  668.180
1107.968;    9.836;  -13.440;  612.380
1108.510;   10.537;  -14.010;  684.960
1109.052;    8.401;  -15.430;  612.620
1109.594;    9.288;  -15.290;  554.440
1110.136;    9.347;  -13.360;  643.220
1110.679;    8.817;  -13.820;  633.080
1111.221;    9.809;  -13.690;  604.460
1111.763;    8.010;  -14.890;  559.220
1112.304;    8.397;  -14.550;  547.140
1112.846;    9.196;  -12.760;  666.240
1113.388;   12.404;  -10.780;  942.180
1113.930;    9.009;  -12.690;  694.200
1114.472;    8.637;  -15.730;  606.540
1115.013;    7.318;  -14.620;  551.280
1115.555;    7.791;  -14.950;  587.100
1116.097;    7.289;  -16.460;  579.480
1116.638;    7.590;  -13.730;  684.600
1117.180;    8.343;  -13.810;  667.740
1117.721;    7.564;  -13.280;  568.580
1118.262;    8.574;  -15.080;  677.960
1118.804;    8.171;  -14.040;  637.340
1119.345;    7.591;  -15.430;  578.400
1119.886;    8.099;  -15.240;  704.040
1120.427;    7.530;  -15.820;  589.020
1120.969;    7.210;  -14.550;  597.920
1121.510;    6.187;  -14.030;  563.060
1122.051;    7.495;  -11.990;  723.580
1122.592;    6.385;  -16.490;  655.420
1123.133;    5.318;  -15.580;  547.940
1123.673;    7.886;  -12.850;  706.480
1124.214;    6.331;  -13.630;  612.460
1124.755;    7.578;  -14.830;  639.460
1125.296;    6.361;  -13.110;  627.320
1125.836;    7.937;  -11.320;  691.500
1126.377;    5.826;  -14.330;  599.660
1126.918;    6.287;  -12.800;  614.980
1127.458;    5.647;  -13.580;  622.220
1127.999;    6.143;  -10.330;  656.980
1128.539;    7.647;  -13.390;  694.240
1129.079;    5.645;  -16.420;  632.720
1129.620;    5.438;  -15.700;  558.100
1130.160;    4.449;  -14.790;  539.480
1130.700;    6.291;  -12.910;  640.840
1131.240;    5.694;  -15.610;  643.700
1131.781;    4.896;  -12.920;  619.680
1132.321;    5.002;  -15.300;  599.120
1132.861;    4.022;  -14.760;  564.200
1133.401;    4.447;  -15.470;  593.940
1133.941;    5.322;  -13.710;  626.280
1134.481;    4.684;  -11.820;  597.580
1135.020;    3.904;  -14.810;  609.160
1135.560;    5.356;  -13.660;  674.940
1136.100;    3.523;  -13.940;  501.160
1136.640;    3.761;  -15.410;  510.480
1137.179;    3.134;  -16.920;  537.960
1137.719;    4.157;  -16.430;  605.400
1138.258;    3.889;  -16.300;  587.360
1138.798;    4.537;  -13.710;  663.780
1139.337;    3.205;  -13.840;  482.840
1139.877;    4.200;  -16.140;  642.360
1140.416;    6.243;  -11.410;  878.060
1140.955;    2.613;  -12.820;  535.380
1141.494;    3.556;  -12.310;  669.280
1142.034;    2.783;  -16.280;  583.520
1142.573;    4.559;  -13.090;  646.280
1143.112;    2.939;  -13.770;  553.480
1143.651;    3.386;  -15.830;  536.480
1144.190;    4.466;  -15.010;  691.640
1144.729;    3.191;  -13.650;  607.420
1145.267;    3.678;  -13.670;  584.900
1145.806;    4.049;  -13.630;  637.040
1146.345;    2.987;  -14.160;  635.020
1146.884;    2.798;  -11.180;  622.500
1147.422;    2.001;  -15.890;  533.060
1147.961;    4.268;  -12.760;  708.460
1148.500;    3.200;  -15.220;  669.720
1149.038;    3.231;  -13.720;  632.500
1149.577;    3.457;  -13.250;  698.640
1150.115;    0.111;  -16.790;  452.280
1150.653;    2.482;  -15.810;  607.340
1151.192;    2.757;  -14.730;  552.920
1151.730;    2.330;  -13.660;  652.560
1152.268;    1.771;  -15.120;  589.520
1152.806;    1.995;  -15.580;  571.180
1153.344;    0.911;  -16.210;  577.640
1153.882;    3.153;  -12.810;  600.060
1154.421;    0.329;  -14.150;  470.620
1154.958;    1.174;  -15.360;  595.240
1155.496;    2.640;  -14.710;  645.280
1156.034;    2.016;  -13.640;  721.880
1156.572;    2.961;  -13.740;  667.060
1157.110;    0.059;  -16.960;  473.940
1157.647;    1.852;  -11.940;  676.960
1158.185;    0.483;  -14.090;  564.320
1158.723;    0.125;  -13.610;  509.200
1159.260;    2.217;  -14.760;  701.700
1159.798;    2.208;  -13.700;  658.160
1160.335;    0.907;  -13.820;  631.820

