
Integration time [ms]:   3.276
Averaging Nr. [scans]: 1000
Smoothing Nr. [pixels]: 0
Data measured with spectrometer [name]: 7414430SP
Wave   ;Sample   ;Dark     ;Reference
[nm]   ;[counts] ;[counts] ;[counts] 

288.544;  151.161;    7.793;  793.890
289.143;  154.450;    7.462;  681.602
289.742;  153.729;    8.602;  828.814
290.341;  139.812;    1.321;  789.841
290.940;  129.412;   -0.709;  730.702
291.538;  129.626;    0.881;  881.108
292.137;  129.897;    0.122;  792.581
292.736;  133.429;   -1.929;  975.101
293.335;  131.890;   -8.229;  735.086
293.934;  130.930;   -5.279;  781.677
294.532;  128.851;   -1.369; 1031.958
295.131;  115.918;   -7.641;  834.394
295.730;  116.803;   -8.420;  809.588
296.328;  114.853;   -5.611;  783.442
296.927;  114.957;   -5.781;  779.652
297.525;  116.846;   -6.361;  781.236
298.124;  107.746;  -11.382;  654.009
298.722;  111.305;   -7.641;  761.933
299.321;  108.599;   -6.811;  708.597
299.919;  106.037;   -6.991;  751.918
300.518;  105.109;  -10.362;  689.338
301.116;  105.623;   -9.581;  691.381
301.715;  104.919;   -4.891;  730.222
302.313;  102.947;   -8.801;  704.943
302.911;  100.247;   -8.522;  733.830
303.509;  103.673;   -6.171;  925.627
304.108;  101.850;   -7.311;  760.383
304.706;  101.399;   -8.321;  801.664
305.304;   97.192;  -10.222;  796.707
305.902;  102.106;   -6.021;  784.484
306.500;   97.107;   -4.971;  728.200
307.098;   95.986;   -7.061;  746.560
307.696;   94.767;   -8.801;  780.432
308.294;   94.915;   -6.411;  731.359
308.892;   96.018;   -2.901;  759.769
309.490;   92.797;   -5.041;  712.161
310.088;   91.572;   -5.002;  788.444
310.686;   95.574;   -2.041;  821.749
311.284;   90.471;   -2.351;  766.040
311.882;   88.491;   -4.422;  731.225
312.480;   87.140;   -4.192;  697.167
313.078;   87.514;   -1.172;  808.331
313.675;   86.944;   -2.601;  691.600
314.273;   82.901;   -1.312;  797.837
314.871;   82.995;   -3.942;  589.829
315.468;   80.263;   -2.802;  652.090
316.066;   82.811;   -0.701;  694.427
316.664;   76.358;   -4.362;  656.351
317.261;   80.762;   -2.872;  910.128
317.859;   75.375;   -2.022;  768.735
318.456;   75.560;   -0.531;  830.096
319.054;   72.088;   -3.912;  787.828
319.651;   71.621;   -4.752;  759.928
320.249;   70.748;   -2.602;  810.188
320.846;   67.684;   -0.821;  714.286
321.443;   65.405;   -4.642;  832.135
322.041;   62.757;   -5.002;  812.315
322.638;   60.542;   -3.982;  701.456
323.235;   61.240;   -3.411;  665.683
323.833;   58.893;   -7.361;  740.354
324.430;   54.624;   -8.611;  615.900
325.027;   55.090;   -4.061;  876.855
325.624;   54.290;   -4.031;  644.532
326.221;   51.490;   -7.481;  689.717
326.818;   51.803;   -5.281;  818.332
327.415;   55.028;   -7.460;  748.828
328.012;   54.036;   -5.510;  690.585
328.609;   52.546;   -7.880;  731.389
329.206;   52.329;   -8.331;  778.621
329.803;   51.464;   -5.121;  737.841
330.400;   53.760;   -4.510;  704.260
330.997;   55.134;   -6.441;  817.147
331.594;   55.244;   -8.831;  788.185
332.191;   59.069;   -7.621;  728.722
332.787;   60.865;   -4.591;  844.463
333.384;   60.130;   -7.412;  763.093
333.981;   59.735;   -8.293;  815.687
334.578;   61.717;   -7.052;  708.378
335.174;   64.981;   -3.102;  731.469
335.771;   64.140;   -5.943;  836.456
336.367;   61.273;   -7.393;  710.631
336.964;   64.723;   -4.063;  793.266
337.561;   61.887;   -3.813;  731.112
338.157;   57.933;   -4.654;  911.916
338.754;   56.796;   -7.934;  796.589
339.350;   53.883;   -4.414;  722.493
339.946;   55.462;   -4.664;  773.135
340.543;   48.070;   -6.375;  846.136
341.139;   42.914;   -9.815;  720.836
341.735;   40.893;   -4.526;  772.593
342.332;   39.640;   -4.895;  691.472
342.928;   39.755;   -4.295;  795.394
343.524;   34.460;   -5.476;  761.684
344.120;   30.770;   -5.856;  738.562
344.716;   33.531;   -2.155;  723.717
345.313;   31.521;   -6.275;  795.342
345.909;   26.780;   -8.815;  627.336
346.505;   27.897;   -5.305;  740.247
347.101;   28.290;   -2.674;  827.864
347.697;   28.647;   -4.344;  785.398
348.293;   23.937;   -9.975;  627.244
348.889;   24.675;   -5.774;  745.914
349.485;   23.631;   -5.004;  688.205
350.081;   24.919;   -4.704;  772.592
350.676;   20.701;   -6.635;  691.606
351.272;   23.567;   -4.504;  809.530
351.868;   22.798;   -3.914;  780.497
352.464;   20.850;   -9.044;  723.932
353.059;   18.549;   -8.314;  646.017
353.655;   20.327;   -7.024;  777.063
354.251;   21.554;   -5.343;  759.845
354.846;   16.043;   -8.604;  740.646
355.442;   14.558;   -6.945;  753.071
356.038;   16.096;   -7.564;  751.708
356.633;   15.158;   -5.814;  728.594
357.229;   13.823;   -7.364;  724.757
357.824;   12.117;   -8.024;  703.600
358.420;   11.588;   -9.384;  679.726
359.015;   11.718;   -5.104;  695.357
359.610;   13.149;   -6.854;  763.920
360.206;    7.505;  -10.185;  603.240
360.801;    9.403;   -7.054;  646.503
361.396;   11.747;   -5.034;  725.975
361.992;    7.780;   -8.284;  668.220
362.587;    5.372;   -8.625;  670.160
363.182;    5.840;   -7.674;  689.631
363.777;    7.749;   -5.164;  738.242
364.372;    7.164;   -8.604;  737.314
364.967;    4.077;   -9.055;  680.744
365.563;    8.392;   -6.114;  815.567
366.158;    4.855;   -5.814;  685.161
366.753;    5.315;   -7.854;  649.263
367.348;    4.530;   -7.804;  746.056
367.942;    3.642;   -7.954;  697.298
368.537;    2.355;   -4.984;  754.245
369.132;    3.103;   -8.564;  703.428
369.727;   -0.983;   -8.855;  638.079
370.322;    0.527;   -6.245;  580.186
370.917;   -0.113;   -6.425;  710.646
371.511;    3.341;   -6.294;  861.834
372.106;    0.321;   -7.685;  776.964
372.701;   -3.651;   -7.335;  585.988
373.296;    1.313;   -4.564;  863.135
373.890;   -2.617;  -10.235;  647.840
374.485;   -4.094;   -7.885;  691.199
375.079;   -0.970;   -7.324;  738.685
375.674;   -0.812;   -3.494;  812.970
376.268;   -4.561;   -8.525;  691.759
376.863;   -9.170;  -10.086;  580.327
377.457;   -3.563;   -7.025;  662.490
378.052;   -5.134;   -3.585;  764.884
378.646;   -6.016;   -7.595;  741.167
379.240;   -5.794;   -8.335;  721.176
379.835;   -5.317;   -5.785;  636.978
380.429;   -8.049;   -4.335;  562.557
381.023;   -7.753;   -6.805;  779.205
381.617;   -9.369;   -9.195;  680.106
382.212;   -6.249;   -6.905;  685.303
382.806;   -6.314;   -3.745;  760.690
383.400;   -9.583;   -7.745;  672.281
383.994;  -10.722;   -9.765;  664.870
384.588;   -6.788;   -6.564;  697.701
385.182;   -5.928;   -5.344;  726.624
385.776;   -7.010;   -8.514;  706.875
386.370;   -9.443;   -9.555;  681.968
386.964;   -8.834;   -8.715;  684.155
387.558;   -7.497;   -6.174;  598.360
388.152;  -11.275;   -8.725;  681.959
388.745;   -8.599;   -7.965;  814.707
389.339;   -6.768;   -5.924;  747.642
389.933;   -6.725;   -5.524;  695.370
390.527;   -7.925;   -7.114;  859.029
391.120;  -12.807;  -10.725;  595.318
391.714;  -11.194;   -8.035;  711.633
392.308;   -7.623;   -3.574;  780.253
392.901;  -11.621;   -7.245;  642.460
393.495;  -11.892;   -9.285;  595.414
394.089;  -10.081;   -5.895;  760.452
394.682;  -11.412;   -4.295;  697.188
395.275;  -11.658;   -9.875;  719.927
395.869;  -13.256;   -8.485;  667.314
396.462;  -11.872;   -7.455;  616.609
397.056;   -8.274;   -5.424;  776.621
397.649;  -11.858;   -6.605;  731.575
398.242;   -9.746;   -8.224;  712.645
398.836;   -8.786;   -7.474;  766.408
399.429;  -10.059;   -7.094;  631.041
400.022;  -13.124;   -9.475;  665.902
400.615;  -10.595;   -7.145;  805.609
401.208;   -9.088;   -7.174;  691.451
401.802;  -11.695;   -5.515;  699.329
402.395;  -12.492;   -9.875;  683.502
402.988;  -13.014;   -8.845;  696.627
403.581;  -10.325;   -8.874;  646.878
404.174;   -8.277;   -5.324;  686.568
404.767;  -10.538;   -9.575;  638.583
405.360;  -12.988;  -10.965;  621.445
405.953;   -7.574;   -8.764;  759.034
406.545;   -7.739;   -7.514;  725.342
407.138;  -11.814;  -10.025;  618.350
407.731;   -9.443;  -10.034;  613.303
408.324;   -5.936;   -9.374;  660.554
408.917;   -7.370;   -6.534;  681.864
409.509;   -8.535;   -8.004;  740.396
410.102;  -10.363;   -9.875;  643.948
410.695;   -4.524;   -8.604;  665.758
411.287;   -6.609;   -6.794;  599.821
411.880;   -7.385;   -9.334;  585.421
412.472;   -9.902;  -10.254;  613.092
413.065;   -6.747;   -6.714;  629.408
413.657;   -4.980;   -7.234;  576.678
414.250;   -5.418;  -10.544;  646.681
414.842;   -6.474;   -9.744;  676.353
415.434;   -3.829;   -6.994;  570.463
416.027;   -1.013;   -5.893;  652.196
416.619;   -2.782;   -7.264;  713.400
417.211;   -2.895;  -10.374;  599.352
417.804;    0.281;   -7.993;  628.499
418.396;   -4.000;   -7.234;  607.643
418.988;   -0.925;   -9.443;  659.238
419.580;   -3.888;  -10.724;  568.276
420.172;   -2.420;  -10.323;  536.196
420.764;    2.053;   -8.793;  672.482
421.356;    1.088;  -11.143;  636.898
421.948;    0.661;   -8.293;  677.661
422.540;    5.629;   -7.893;  680.027
423.132;    3.922;   -7.082;  600.641
423.724;    0.179;   -8.653;  561.267
424.316;    3.368;  -10.213;  621.345
424.908;    6.624;   -9.762;  591.517
425.500;    7.093;   -5.572;  647.978
426.092;    7.238;   -8.422;  648.268
426.683;    7.005;   -9.283;  684.836
427.275;    9.376;   -7.852;  641.471
427.867;   10.546;   -5.272;  668.948
428.458;   11.396;   -7.682;  732.344
429.050;   11.203;  -10.612;  680.749
429.642;   12.819;   -9.882;  743.124
430.233;   13.031;   -6.962;  569.356
430.825;   13.924;   -6.842;  724.809
431.416;   12.437;   -9.672;  698.241
432.008;   15.915;   -6.552;  651.723
432.599;   15.280;   -6.891;  656.073
433.190;   12.421;  -10.912;  637.670
433.782;   12.482;  -11.172;  590.395
434.373;   19.378;   -6.061;  884.765
434.964;   17.466;   -8.251;  602.920
435.556;   15.779;   -9.722;  634.537
436.147;   19.741;   -9.082;  758.490
436.738;   18.822;   -8.041;  701.099
437.329;   23.162;   -7.341;  721.723
437.920;   16.988;   -8.162;  666.688
438.511;   17.357;  -11.802;  564.526
439.103;   24.429;  -10.191;  623.998
439.694;   25.476;   -7.601;  681.583
440.285;   25.418;   -8.541;  764.432
440.876;   25.681;   -9.751;  845.738
441.466;   24.013;   -9.401;  575.162
442.057;   29.175;   -7.760;  665.814
442.648;   28.323;   -9.971;  746.255
443.239;   27.426;  -11.001;  620.477
443.830;   31.246;   -7.990;  704.958
444.421;   32.923;   -7.910;  655.474
445.011;   30.495;   -8.131;  693.619
445.602;   29.910;   -7.111;  743.126
446.193;   31.455;  -10.920;  488.117
446.783;   35.504;   -6.500;  640.397
447.374;   31.306;   -8.671;  692.759
447.964;   32.210;  -10.781;  713.770
448.555;   39.598;   -9.650;  822.742
449.145;   36.780;   -8.660;  662.853
449.736;   37.984;   -8.990;  803.179
450.326;   38.710;   -9.500;  713.626
450.917;   43.223;   -8.680;  675.324
451.507;   40.763;   -7.520;  600.661
452.097;   42.868;   -8.590;  746.267
452.688;   43.740;  -11.340;  742.160
453.278;   43.929;  -10.100;  566.840
453.868;   46.957;   -6.019;  793.550
454.458;   45.814;   -9.440;  651.141
455.048;   46.788;  -10.560;  711.783
455.639;   47.935;  -11.799;  567.096
456.229;   50.913;   -6.899;  710.694
456.819;   52.713;   -7.389;  751.158
457.409;   53.497;  -11.119;  773.993
457.999;   55.836;   -9.289;  737.505
458.589;   55.907;   -6.139;  686.606
459.179;   56.425;   -8.729;  717.658
459.769;   55.352;   -9.789;  627.099
460.358;   59.749;  -10.259;  797.262
460.948;   58.265;   -7.299;  689.503
461.538;   60.780;  -10.289;  660.677
462.128;   59.728;  -11.269;  664.934
462.717;   65.495;   -9.368;  710.326
463.307;   67.362;   -7.908;  705.846
463.897;   63.826;   -9.599;  656.942
464.486;   64.360;   -9.769;  837.128
465.076;   68.777;   -8.048;  733.776
465.666;   71.064;   -9.358;  652.900
466.255;   68.860;   -7.919;  785.651
466.845;   68.633;  -11.689;  666.749
467.434;   72.402;   -7.818;  725.873
468.023;   72.531;   -7.678;  658.357
468.613;   70.496;  -10.939;  713.946
469.202;   75.305;  -10.118;  646.507
469.791;   79.254;   -9.108;  737.811
470.381;   80.784;   -6.058;  742.813
470.970;   80.731;  -10.428;  711.099
471.559;   80.840;  -10.268;  733.291
472.148;   84.638;   -8.448;  675.737
472.738;   85.842;   -6.917;  765.466
473.327;   85.996;  -11.978;  637.529
473.916;   86.089;  -11.888;  737.446
474.505;   90.013;   -9.437;  751.703
475.094;   93.277;   -6.747;  806.570
475.683;   92.097;   -9.367;  797.699
476.272;   94.546;  -12.637;  730.632
476.861;   96.222;  -10.027;  706.754
477.449;  102.314;   -8.716;  728.487
478.038;   97.792;   -9.577;  692.513
478.627;   98.926;   -9.718;  714.852
479.216;  105.643;   -8.947;  769.441
479.805;  108.202;   -6.256;  783.375
480.393;  108.503;   -7.937; 1008.945
480.982;  107.134;   -7.717;  874.501
481.571;  113.163;   -9.266;  858.333
482.159;  114.199;   -7.636;  705.386
482.748;  114.078;   -9.667;  821.385
483.336;  119.060;  -10.376;  858.209
483.925;  120.030;   -7.147;  774.373
484.513;  126.592;   -7.996;  758.962
485.102;  123.069;  -10.027;  810.965
485.690;  132.556;  -10.446; 1011.050
486.278;  134.260;   -8.446;  979.329
486.867;  134.873;   -6.356;  809.662
487.455;  136.883;   -9.136;  898.229
488.043;  138.735;  -10.646;  748.361
488.631;  147.537;   -7.456; 1005.079
489.220;  151.899;   -6.636;  908.626
489.808;  152.753;  -11.036;  741.415
490.396;  160.906;  -10.246;  914.645
490.984;  166.742;   -8.556;  830.161
491.572;  176.568;   -5.886;  940.315
492.160;  183.159;   -9.486;  919.081
492.748;  196.863;  -10.976;  884.341
493.336;  221.442;   -8.776; 1019.693
493.924;  249.584;   -5.465;  958.077
494.512;  279.274;   -9.986; 1066.638
495.100;  320.599;  -10.636; 1103.280
495.687;  378.357;  -10.885; 1206.373
496.275;  447.806;   -8.126; 1150.796
496.863;  524.346;  -10.586; 1281.171
497.451;  636.505;  -11.926; 1386.805
498.038;  778.056;  -10.885; 1556.729
498.626;  893.788;   -6.315; 1741.407
499.214; 1055.334;   -7.326; 2016.609
499.801; 1269.498;  -11.906; 2220.633
500.389; 1539.890;  -10.466; 2312.494
500.976; 1881.205;   -5.236; 2744.849
501.564; 2353.226;   -8.936; 3148.565
502.151; 2763.762;  -13.176; 3515.999
502.738; 3262.664;  -10.646; 3971.274
503.326; 3679.296;   -9.525; 4403.796
503.913; 4096.855;  -10.856; 5161.749
504.500; 4498.158;  -11.586; 5986.420
505.088; 4964.879;  -10.336; 6381.201
505.675; 5541.000;   -6.355; 6925.547
506.262; 6320.879;   -9.046; 7619.060
506.849; 7088.026;  -10.416; 8733.969
507.436; 7603.496;  -10.305; 9790.121
508.023; 8238.631;   -5.496; 9985.472
508.610; 8505.139;   -7.856;10434.618
509.197; 9163.664;  -10.097;11198.435
509.784;10638.576;  -10.886;12391.194
510.371;11756.356;   -9.315;13603.713
510.958;12530.972;   -9.936;14426.586
511.545;13364.685;   -9.326;15243.775
512.132;14316.592;  -10.075;15945.876
512.719;14972.653;   -7.796;16340.369
513.305;15984.740;  -10.606;18011.766
513.892;16889.131;  -11.486;19754.971
514.479;18319.363;   -9.126;20967.805
515.066;19752.439;   -6.026;22299.793
515.652;21076.809;   -8.466;22908.660
516.239;22455.998;  -10.886;23798.875
516.825;23561.514;  -11.496;25567.275
517.412;24749.254;   -5.796;28154.959
517.998;25436.371;  -10.506;28344.111
518.585;25368.066;  -10.076;27134.219
519.171;25787.344;   -8.315;27268.576
519.758;27442.813;   -8.596;28964.129
520.344;29320.193;   -8.466;30664.494
520.930;29152.277;  -11.006;32550.605
521.516;30672.465;  -10.495;35422.895
522.103;33176.477;   -5.526;38280.004
522.689;33772.855;   -8.746;37835.117
523.275;33070.016;  -11.376;37288.613
523.861;34230.965;  -11.156;37281.395
524.447;35795.594;   -8.135;37846.949
525.033;35653.074;   -7.896;38321.949
525.619;35799.191;  -12.476;38579.285
526.205;37316.383;   -9.516;40622.875
526.791;39755.918;   -6.926;42258.836
527.377;39875.906;   -8.346;42966.902
527.963;41531.922;   -8.717;42018.949
528.549;39930.430;  -11.016;42476.828
529.135;38491.973;   -8.536;41854.852
529.721;37871.648;   -9.666;41237.711
530.306;37197.699;  -10.066;41259.445
530.892;36934.457;  -11.356;41506.047
531.478;38395.848;   -6.596;43559.613
532.063;41511.504;   -8.836;47695.563
532.649;41924.172;  -10.047;50808.324
533.235;42753.734;   -9.746;51787.500
533.820;43548.770;   -6.566;52145.035
534.406;44995.859;  -10.817;51133.488
534.991;44728.398;   -9.416;49996.805
535.576;43208.039;   -9.036;48882.852
536.162;43725.305;   -6.156;46942.285
536.747;44846.684;  -11.607;45711.746
537.333;48639.488;  -11.787;48510.180
537.918;51565.477;  -12.437;50439.891
538.503;50160.973;   -7.196;50863.711
539.088;46680.879;  -10.556;50906.922
539.673;46523.871;   -8.767;52621.965
540.259;46631.035;  -10.026;52368.094
540.844;43976.383;   -7.416;50879.109
541.429;45221.488;   -9.467;52077.777
542.014;48243.918;   -9.527;52716.695
542.599;47513.355;   -9.946;52363.281
543.184;45026.598;   -7.927;53187.137
543.769;46692.039;   -9.297;54697.605
544.354;46200.715;  -10.127;53913.914
544.938;44997.473;   -9.267;49680.164
545.523;46851.992;   -6.506;47386.277
546.108;49317.172;   -9.787;49151.949
546.693;51435.492;  -11.587;51384.637
547.278;51532.703;  -10.986;51853.254
547.862;48510.469;   -8.206;51173.750
548.447;43827.398;  -10.067;51691.395
549.031;43551.430;   -9.637;52456.703
549.616;48721.277;   -9.926;52714.516
550.201;47698.910;   -6.347;52414.598
550.785;48844.063;   -7.917;52355.059
551.370;48059.617;  -10.867;54589.453
551.954;48059.793;   -9.047;58267.348
552.538;48833.949;   -7.827;59062.176
553.123;47093.641;  -10.287;58115.285
553.707;45036.582;  -12.178;56556.285
554.291;46512.684;   -8.717;56201.668
554.876;48922.801;   -7.457;55335.762
555.460;49276.219;  -10.387;54155.703
556.044;50277.734;   -9.618;53721.484
556.628;48786.590;  -11.567;53731.016
557.212;47484.297;   -8.097;54312.531
557.796;45804.992;  -11.077;53797.773
558.380;45682.109;  -11.108;56145.984
558.964;46260.039;   -9.057;57277.930
559.548;47385.070;   -6.977;56459.641
560.132;45792.707;  -11.457;54434.543
560.716;44461.875;  -11.378;54800.617
561.300;45690.516;   -9.577;57606.945
561.884;46941.641;   -7.127;58972.445
562.467;45241.422;   -7.118;57327.570
563.051;44394.238;  -13.358;54962.434
563.635;45374.234;  -10.178;52594.473
564.219;45983.449;   -7.837;50610.410
564.802;46890.430;  -11.398;49551.180
565.386;46768.992;  -12.788;48370.953
565.969;46046.711;   -9.077;48178.871
566.553;45470.965;   -6.207;49957.305
567.136;45987.520;   -8.568;50369.594
567.720;42080.098;  -11.868;49492.004
568.303;40045.266;   -8.268;50616.352
568.887;40148.594;   -8.698;50727.148
569.470;40376.355;   -6.808;51698.379
570.053;38907.840;  -13.188;52122.078
570.637;37236.488;  -12.037;52536.438
571.220;37097.090;   -8.577;51186.098
571.803;37637.543;   -8.498;51032.762
572.386;39946.566;  -10.498;49609.887
572.969;42536.664;   -9.388;48285.926
573.552;40592.219;   -8.338;47624.285
574.135;39212.734;   -8.518;45498.641
574.718;36877.492;  -13.628;41970.434
575.301;35622.781;  -10.893;41447.137
575.884;34368.070;   -8.158;40923.836
576.467;35686.707;  -10.328;45267.723
577.050;37979.484;  -13.058;48175.543
577.633;39341.691;   -9.458;47729.328
578.216;38315.055;   -8.928;47579.793
578.799;37352.617;   -9.358;47820.996
579.381;35980.215;  -11.388;48115.551
579.964;34269.813;  -11.718;47333.766
580.547;35983.730;   -8.588;46668.969
581.129;37230.207;   -8.859;44466.141
581.712;38072.738;  -10.729;44164.922
582.294;38696.313;  -11.118;46477.855
582.877;38467.832;   -5.218;48244.254
583.459;35929.402;   -8.679;47437.895
584.042;33942.551;  -10.709;46943.219
584.624;34643.703;  -11.669;46792.227
585.206;34218.523;   -8.218;46557.250
585.789;34347.957;  -10.569;45793.773
586.371;37295.621;  -11.859;43836.391
586.953;37742.145;  -10.719;42972.492
587.536;39024.824;   -7.198;42487.211
588.118;38869.723;   -8.720;42086.414
588.700;35253.172;  -10.439;43389.930
589.282;34442.426;   -9.198;43646.039
589.864;35445.301;   -9.199;43438.109
590.446;36352.652;  -11.319;43151.926
591.028;36112.531;  -11.159;42781.867
591.610;35044.738;  -11.779;42839.098
592.192;32459.332;   -7.668;42820.402
592.774;30913.115;  -11.949;40724.277
593.356;29649.656;  -12.129;39874.789
593.937;28628.189;  -10.669;39980.648
594.519;30942.611;   -6.509;42069.633
595.101;33058.750;  -10.849;42976.031
595.683;33158.379;  -11.679;44084.441
596.264;34292.121;   -9.049;43478.797
596.846;33529.152;   -8.849;43803.672
597.427;33301.273;   -9.570;42986.934
598.009;35007.910;  -12.620;42832.219
598.591;35258.688;  -10.039;42580.086
599.172;34271.691;  -10.369;43061.805
599.753;34372.199;   -9.140;41691.469
600.335;36027.313;  -11.430;40692.520
600.916;34370.406;   -9.939;39982.422
601.498;31828.502;   -8.479;40318.617
602.079;30314.963;  -10.920;40670.609
602.660;30347.861;  -11.480;41450.898
603.241;31934.273;  -11.699;41137.738
603.823;30604.900;   -9.579;38868.797
604.404;30296.234;  -10.620;38182.785
604.985;31801.527;  -10.450;38078.047
605.566;31441.193;   -9.129;38056.633
606.147;31655.727;   -7.510;37020.418
606.728;33345.301;  -10.660;37883.359
607.309;31874.391;  -11.740;38748.273
607.890;31230.150;   -9.759;38850.230
608.471;30757.258;   -8.250;37457.918
609.051;29899.471;   -9.240;36066.457
609.632;28816.160;  -12.120;35991.074
610.213;29668.406;   -9.110;37402.641
610.794;30350.023;   -8.030;38383.363
611.374;29957.412;   -8.110;40562.387
611.955;30430.736;  -13.560;38533.727
612.536;31624.006;  -11.400;36951.789
613.116;31582.834;   -8.070;37197.891
613.697;31863.395;  -10.830;38411.125
614.277;30361.436;  -11.641;38673.938
614.858;31309.807;  -13.310;37075.863
615.438;30364.766;   -7.460;35092.906
616.019;27476.975;   -7.601;33666.301
616.599;28122.449;  -12.020;34189.023
617.179;30091.492;  -11.780;36952.047
617.760;31052.283;   -8.570;39582.574
618.340;32005.904;  -11.471;38943.977
618.920;33299.465;  -11.170;37594.156
619.500;33223.367;  -11.071;37866.938
620.080;32305.236;   -7.750;37869.043
620.660;33503.551;  -12.711;36868.617
621.241;34953.461;  -10.211;36352.309
621.821;35171.660;  -10.961;35459.520
622.401;34099.043;   -7.720;35207.414
622.980;33284.656;   -8.981;35980.422
623.560;31795.465;   -9.331;37351.328
624.140;30710.572;   -9.850;34388.582
624.720;25479.199;   -7.451;32368.764
625.300;21945.047;   -9.070;32638.629
625.880;25328.752;  -12.601;34599.035
626.459;29359.855;  -11.751;36831.738
627.039;32519.811;   -9.281;38299.098
627.619;32354.797;   -8.801;38289.574
628.198;30715.570;  -12.071;37220.695
628.778;29762.359;   -9.461;37632.563
629.357;30383.758;   -8.491;38003.012
629.937;30452.574;   -9.721;38402.039
630.516;30096.969;   -9.951;37868.801
631.096;29804.100;  -11.731;35760.410
631.675;32680.953;   -8.572;35225.219
632.254;37789.789;  -11.282;35130.289
632.834;37079.172;  -13.322;35794.570
633.413;35027.449;  -10.301;35788.922
633.992;31975.842;   -8.582;34532.863
634.571;32913.691;   -8.352;33590.113
635.151;35851.203;  -11.912;34943.863
635.730;34147.895;  -10.511;35352.523
636.309;30725.748;   -7.731;35366.605
636.888;28401.646;   -9.952;36165.637
637.467;29332.410;  -11.672;37515.902
638.046;31005.084;   -8.901;39288.695
638.625;34227.711;   -7.912;38279.699
639.204;33881.758;  -10.022;37741.598
639.782;32273.582;  -12.252;38364.551
640.361;28399.547;  -10.041;36740.621
640.940;25564.154;  -11.161;34950.082
641.519;26279.328;   -9.701;34137.398
642.097;29218.611;  -11.271;35654.258
642.676;31921.029;   -8.651;35637.957
643.255;32519.559;   -8.711;36567.074
643.833;31718.242;   -9.581;37809.434
644.412;31800.215;  -13.711;37337.293
644.990;30906.877;  -11.811;37018.531
645.569;31128.207;   -9.411;36518.469
646.147;30074.920;  -10.291;36186.430
646.726;29564.789;  -12.401;36267.688
647.304;30605.877;  -10.411;36647.625
647.882;32531.791;   -9.651;39286.742
648.461;34241.512;   -9.631;39157.703
649.039;32403.580;  -11.881;35412.883
649.617;31632.336;   -9.661;34744.918
650.195;31267.982;   -9.301;35403.098
650.773;29771.883;  -10.511;35053.797
651.352;27371.631;  -11.521;33756.816
651.930;25193.525;  -12.211;31868.773
652.508;23750.438;   -9.171;33121.551
653.086;27838.346;   -9.371;33564.793
653.663;30506.641;  -13.161;34054.668
654.241;29407.861;  -13.031;35693.309
654.819;31099.148;   -9.371;36422.906
655.397;31089.498;  -10.511;38213.484
655.975;30768.838;  -10.371;39507.625
656.553;30409.514;  -10.051;39498.223
657.130;28733.408;  -10.061;40395.480
657.708;28084.816;   -9.561;39242.020
658.286;28126.402;  -11.511;38920.020
658.863;29376.611;  -10.261;40202.898
659.441;32565.654;   -7.531;39677.938
660.018;32023.678;   -9.501;40413.355
660.596;30810.889;  -13.301;39931.414
661.173;32690.223;  -11.211;39604.531
661.750;32736.537;   -9.951;39700.070
662.328;31716.777;   -9.390;39292.809
662.905;30889.281;  -11.330;38235.648
663.482;26373.455;   -9.050;36212.305
664.060;24606.898;   -8.240;35944.945
664.637;27549.881;  -10.050;35170.785
665.214;29439.607;  -11.760;34197.523
665.791;30937.424;  -10.530;34549.520
666.368;29513.779;   -9.690;35118.578
666.945;30234.730;   -9.320;36019.418
667.522;31838.982;  -11.860;36048.438
668.099;31633.467;  -10.770;36243.914
668.676;30391.252;   -6.260;35958.875
669.253;28988.299;   -7.000;37384.730
669.830;29654.943;  -10.190;36779.629
670.407;29386.920;   -9.550;35231.289
670.984;29375.094;   -9.260;35544.270
671.560;29795.305;   -9.280;35466.867
672.137;28969.424;  -11.810;34280.863
672.714;29851.707;  -11.490;34632.863
673.290;30318.641;   -7.740;35135.422
673.867;30625.037;  -10.660;36114.480
674.443;30390.621;  -12.230;36152.859
675.020;28573.795;  -10.450;35327.238
675.596;29699.307;   -9.260;35795.176
676.173;30213.221;  -10.780;35430.355
676.749;30126.424;  -13.690;33549.516
677.326;30162.061;  -11.980;32210.012
677.902;30097.488;   -8.630;32068.871
678.478;29364.408;  -10.730;32583.891
679.054;28796.350;  -10.520;32088.928
679.631;29063.146;  -11.920;30978.848
680.207;30581.344;   -7.490;33160.887
680.783;32068.988;   -9.860;35570.363
681.359;31122.055;  -13.380;36125.184
681.935;30542.086;  -12.480;35240.922
682.511;29810.867;   -7.900;34429.961
683.087;30026.363;   -7.710;34463.680
683.663;29627.125;  -11.480;34648.898
684.239;28333.918;  -14.090;34546.457
684.815;27935.322;   -7.560;35586.375
685.390;28338.926;   -9.910;35821.895
685.966;28736.389;  -11.159;35085.871
686.542;31146.859;  -11.169;34198.230
687.118;33382.000;   -5.959;32847.707
687.693;33553.934;  -10.329;32794.027
688.269;33092.793;  -12.059;33072.367
688.844;31062.494;  -10.909;33141.664
689.420;28786.520;   -8.019;33965.742
689.995;26580.727;   -8.399;34655.523
690.571;25375.965;  -10.949;33576.742
691.146;25876.721;   -9.619;32657.219
691.722;25377.848;   -8.999;32526.979
692.297;25418.070;  -11.589;33014.617
692.872;27249.816;  -11.739;34012.254
693.448;26812.771;  -11.059;34237.434
694.023;26062.039;  -10.139;34142.672
694.598;28035.434;   -9.029;34132.031
695.173;28257.541;  -13.319;34205.250
695.748;27507.730;  -10.169;32882.488
696.323;27468.879;   -8.339;32864.906
696.898;27715.039;   -8.169;33170.004
697.473;27707.531;  -12.309;32432.984
698.048;27189.215;  -10.989;31649.303
698.623;27151.525;   -9.329;30778.141
699.198;29116.191;   -9.849;31140.119
699.773;30020.760;  -12.329;31764.299
700.348;28371.172;  -10.389;31780.816
700.922;28353.418;   -9.269;32046.375
701.497;29111.779;   -9.329;32603.574
702.072;29158.000;  -10.789;34799.871
702.646;27846.445;  -10.839;35793.172
703.221;25982.598;   -9.099;35201.590
703.795;27960.518;  -10.939;34764.527
704.370;28276.119;  -12.859;34307.367
704.944;28795.529;  -11.559;33509.887
705.519;29749.697;   -7.939;31388.584
706.093;31202.848;  -10.499;31340.104
706.668;31407.789;  -11.289;32630.281
707.242;30322.777;  -11.509;32728.779
707.816;28774.049;   -9.639;32947.238
708.390;27230.578;  -11.429;33277.855
708.965;27830.949;  -11.869;33834.336
709.539;28124.580;  -11.689;33709.273
710.113;28587.025;  -10.478;33044.313
710.687;27912.854;  -10.228;31953.992
711.261;26127.195;  -13.698;30505.949
711.835;25961.775;  -13.378;30262.369
712.409;26852.158;   -9.698;31254.447
712.983;28757.145;  -11.898;32754.986
713.557;29586.727;  -15.138;34018.824
714.131;29204.094;  -14.098;34579.625
714.704;28312.039;   -9.958;33890.262
715.278;26110.172;  -10.028;33531.102
715.852;25154.576;  -11.148;33601.660
716.425;25945.092;   -9.068;33515.117
716.999;26706.346;  -10.038;33185.555
717.573;27774.480;   -9.798;33905.996
718.146;28807.666;  -12.378;35199.293
718.720;28729.836;  -11.918;35060.551
719.293;28187.533;   -8.088;34973.230
719.867;31018.645;  -10.888;36394.449
720.440;30527.842;  -11.938;36663.008
721.013;28834.463;  -12.818;35102.426
721.587;27491.213;  -10.298;33985.266
722.160;26553.000;  -10.048;33524.965
722.733;25534.268;  -12.108;32987.043
723.306;25828.869;  -10.818;33066.301
723.880;28142.373;   -8.908;33399.500
724.453;29926.459;   -9.878;33468.297
725.026;28931.959;  -11.188;33816.637
725.599;26413.840;  -11.678;32797.996
726.172;26929.555;   -9.618;33187.434
726.745;28018.982;   -8.258;35136.613
727.318;29386.639;  -12.978;35751.730
727.891;29732.523;  -12.148;35890.430
728.463;29360.738;   -8.968;34822.090
729.036;28449.086;  -10.188;32895.086
729.609;28877.803;  -11.788;31823.225
730.182;25819.131;  -11.788;31445.283
730.754;23384.500;  -10.268;32373.223
731.327;23484.191;   -9.998;33676.820
731.900;23864.492;  -12.228;33417.000
732.472;25161.750;  -13.848;31978.498
733.045;26939.646;   -8.698;30368.777
733.617;26931.080;  -10.607;30574.215
734.190;26442.557;  -11.507;31280.975
734.762;23487.854;  -13.647;31674.412
735.334;21897.441;   -9.767;31247.291
735.907;22675.219;   -9.897;29876.211
736.479;22750.484;  -11.637;29808.488
737.051;22445.063;   -9.567;30233.547
737.623;23424.359;   -8.187;31469.086
738.195;24265.523;  -11.187;31784.225
738.768;26187.564;  -12.337;32120.523
739.340;26220.607;  -12.227;32094.342
739.912;24956.314;  -11.057;31312.680
740.484;23586.889;  -10.207;31946.238
741.056;22588.422;  -10.047;32984.059
741.628;24338.123;  -13.627;33897.715
742.199;26588.773;   -7.177;33213.016
742.771;24927.479;  -10.797;31369.113
743.343;22527.195;  -11.997;31865.473
743.915;21548.160;  -12.867;32388.631
744.487;21673.871;   -7.617;31079.568
745.058;21837.877;   -9.557;30570.107
745.630;22205.766;   -9.877;29970.127
746.201;22941.264;  -14.177;29186.766
746.773;23396.816;   -9.237;28805.723
747.344;23340.973;   -9.847;29591.223
747.916;22067.834;  -11.657;31412.201
748.487;22362.426;  -10.587;32194.898
749.059;23474.891;   -8.707;32533.719
749.630;24048.986;  -10.537;32158.518
750.201;23108.465;  -11.687;30855.395
750.773;21425.236;  -11.647;28622.555
751.344;21423.775;   -7.147;28405.732
751.915;22610.264;   -9.757;28461.551
752.486;22357.107;  -12.427;27842.850
753.057;20182.006;  -12.227;27845.008
753.628;19075.074;  -10.417;27728.107
754.199;20204.998;  -11.767;27381.086
754.770;21168.342;  -11.187;25882.203
755.341;21117.996;  -10.507;25886.184
755.912;21094.898;   -9.387;26050.861
756.483;20637.680;  -10.647;26798.779
757.054;18844.324;  -11.837;27048.238
757.625;17564.748;  -12.716;26294.838
758.195;17368.277;   -9.666;26142.076
758.766;17153.439;   -8.656;26392.234
759.337;17915.660;  -12.856;26334.594
759.907;19589.762;  -13.366;27579.652
760.478;20465.182;   -8.576;28352.770
761.048;19775.125;  -10.526;27325.088
761.619;18903.461;  -11.116;26460.428
762.189;18970.537;  -12.136;26029.826
762.760;20160.850;   -9.456;26430.145
763.330;21166.900;   -7.136;26670.902
763.900;20549.311;  -11.786;26603.021
764.471;17983.328;  -11.546;25542.740
765.041;16702.055;   -8.096;24358.459
765.611;16775.109;   -8.876;23991.297
766.181;17223.313;  -12.196;24470.236
766.751;18183.248;  -11.636;24845.975
767.321;17870.209;  -10.156;24533.633
767.891;15889.805;  -11.766;24916.492
768.461;15385.939;  -14.936;24776.771
769.031;15945.255;  -12.356;24757.988
769.601;17423.305;   -7.526;24181.088
770.171;17251.068;  -10.766;23670.387
770.741;16639.484;  -13.176;22960.045
771.311;16900.756;  -10.616;22917.523
771.880;17202.549;   -9.576;23562.941
772.450;16874.242;  -10.336;24216.500
773.020;16869.977;  -13.516;24140.398
773.589;16145.620;  -13.466;24414.857
774.159;15476.479;   -8.686;23858.717
774.729;15145.000;   -9.476;22942.135
775.298;14724.262;  -13.666;22324.033
775.867;14360.554;  -11.716;21140.313
776.437;14386.917;   -9.906;20838.092
777.006;14171.756;  -12.166;20599.510
777.576;14074.679;  -12.356;20508.809
778.145;14243.725;  -11.646;20732.947
778.714;14155.414;   -8.226;21062.465
779.283;13459.445;   -9.556;20949.664
779.853;12977.008;  -14.116;20508.623
780.422;13440.212;  -11.506;20649.082
780.991;13016.765;   -9.556;21527.520
781.560;11877.898;   -9.095;22632.658
782.129;11693.344;  -12.135;23048.277
782.698;11722.608;  -10.865;23438.555
783.267;11327.013;   -9.335;23267.734
783.836;11312.965;  -11.045;22415.133
784.404;12318.820;  -13.865;20443.152
784.973;12843.565;  -13.095;19699.150
785.542;12768.692;  -11.575;19763.828
786.111;12634.528;   -9.705;20341.408
786.679;12118.162;  -12.105;20207.967
787.248;11854.376;  -12.455;19516.465
787.817;11652.181;  -11.535;18900.363
788.385;11189.582;   -9.765;17879.121
788.954;10599.268;  -14.005;17658.301
789.522;10135.481;  -11.955;17788.879
790.090;10708.438;  -10.135;18118.277
790.659;11087.688;  -10.975;18338.736
791.227;10606.364;  -13.375;18508.615
791.795;11041.739;  -12.375;17898.254
792.364;11364.765;  -10.725;17295.133
792.932;11623.705;   -9.715;16822.051
793.500;11800.205;  -12.675;17040.148
794.068;12052.267;  -13.495;17179.787
794.636;12150.874;  -10.885;16664.246
795.204;11592.789;  -11.045;16524.545
795.772;11633.857;  -13.175;17274.564
796.340;11141.909;  -12.445;17891.002
796.908;10975.719;   -9.735;17648.561
797.476;10877.813;   -9.815;17064.080
798.044;10447.340;  -13.985;16672.777
798.612; 9673.543;  -13.115;17023.996
799.180; 9308.603;  -10.185;16561.615
799.747; 9248.153;   -9.055;15962.773
800.315; 8981.584;  -12.385;15296.992
800.883; 8641.770;  -15.035;14801.771
801.450; 8635.102;  -10.365;14534.430
802.018; 8684.767;   -9.855;14173.248
802.585; 8819.759;  -11.905;14029.547
803.153; 8878.299;  -11.585;13836.846
803.720; 8705.615;   -9.095;13567.324
804.287; 8256.595;   -9.135;13360.622
804.855; 7867.453;  -11.604;13681.981
805.422; 7757.771;  -11.794;13536.560
805.989; 7747.375;  -10.734;13355.958
806.556; 7917.627;  -10.444;13747.896
807.124; 8173.056;  -12.764;13987.376
807.691; 8159.207;  -12.964;14038.674
808.258; 7954.986;  -11.134;14120.152
808.825; 7619.187;   -9.854;13860.111
809.392; 7674.601;  -10.504;13268.790
809.959; 7237.084;  -13.054;12680.389
810.526; 6839.881;   -8.294;12427.308
811.093; 6915.516;   -8.394;12030.105
811.659; 7520.955;  -12.304;11653.664
812.226; 7977.188;  -13.944;11637.183
812.793; 7648.969;  -10.484;11611.521
813.360; 7034.501;  -10.144;11885.181
813.926; 6749.296;  -11.684;12770.539
814.493; 6553.909;  -13.644;12677.638
815.060; 6187.249;   -9.724;11974.336
815.626; 6227.562;   -9.854;11594.715
816.193; 6632.269;  -13.254;11579.474
816.759; 6657.634;  -13.204;11666.972
817.325; 6754.867;   -9.434;11325.530
817.892; 7142.224;  -10.134;11105.369
818.458; 7550.632;  -13.474;10843.928
819.024; 7163.766;  -11.854;10714.406
819.591; 6873.546;  -10.244;10469.165
820.157; 6672.130;  -10.704;10235.523
820.723; 6176.410;  -12.324;10847.563
821.289; 5874.834;   -9.444;11040.980
821.855; 5768.560;   -8.374;10357.100
822.421; 5734.526;  -10.234; 9978.918
822.987; 5728.957;  -13.294; 9754.177
823.553; 5449.838;  -10.884;10065.755
824.119; 5306.104;   -8.884;10036.294
824.685; 5403.245;   -6.784;10029.192
825.251; 5500.763;  -12.004;10199.230
825.816; 5472.935;  -11.474; 9820.189
826.382; 5257.825;   -9.174; 9297.248
826.948; 5485.919;   -9.214; 9381.347
827.513; 5853.957;  -10.774; 9450.726
828.079; 5651.623;  -11.924; 9472.444
828.645; 5087.091;  -10.543; 9292.643
829.210; 5014.826;  -10.533; 9065.341
829.776; 5002.523;  -10.753; 9132.620
830.341; 4891.488;  -10.173; 9092.878
830.906; 5096.908;  -10.743; 9078.557
831.472; 5439.211;  -11.113; 8534.535
832.037; 5156.042;  -10.603; 8677.874
832.602; 4590.470;  -13.323; 8628.692
833.167; 4328.302;  -10.823; 8879.031
833.733; 4274.069;  -10.113; 9189.790
834.298; 4410.647;  -13.583; 9052.608
834.863; 4474.897;  -12.703; 8895.087
835.428; 4460.750;  -10.523; 8824.266
835.993; 4329.915;   -6.963; 8845.385
836.558; 4176.475;  -10.763; 8888.563
837.123; 4311.510;   -9.903; 8966.582
837.688; 4543.716;   -9.913; 8617.860
838.253; 4765.147;  -10.283; 8590.699
838.817; 4967.558;  -12.963; 8443.797
839.382; 4877.130;  -14.243; 8799.356
839.947; 4571.527;  -10.733; 8810.595
840.511; 4266.380;   -9.383; 8796.394
841.076; 3890.539;  -12.563; 8347.231
841.641; 3950.584;  -12.953; 8224.330
842.205; 4045.401;   -7.043; 8223.349
842.770; 4150.133;   -8.163; 8622.107
843.334; 4319.773;  -12.503; 8410.386
843.898; 4263.518;  -11.693; 8337.465
844.463; 4275.208;  -10.203; 8506.283
845.027; 4039.261;   -9.533; 8280.962
845.591; 3852.542;  -13.443; 8231.141
846.156; 3819.067;  -13.143; 7969.179
846.720; 3709.725;   -9.433; 7768.278
847.284; 3590.098;  -11.033; 7630.957
847.848; 3460.035;  -10.403; 7472.395
848.412; 3362.323;  -11.553; 7437.394
848.976; 3391.659;   -8.393; 7674.592
849.540; 3328.729;   -8.713; 7836.011
850.104; 3455.879;  -12.463; 7913.669
850.668; 3793.034;  -12.973; 7694.508
851.232; 3869.552;  -10.793; 7756.887
851.796; 3705.512;  -10.662; 7926.545
852.359; 3418.703;  -13.082; 7827.844
852.923; 3259.746;  -12.192; 7641.163
853.487; 3080.955;  -11.912; 7342.501
854.050; 3033.942;  -10.892; 7042.820
854.614; 3152.352;  -13.992; 7151.338
855.177; 3263.273;  -11.732; 7105.077
855.741; 3283.882;   -8.962; 6989.675
856.304; 3173.334;   -9.442; 6596.634
856.868; 3130.087;  -14.192; 6356.272
857.431; 3223.146;  -12.702; 6468.571
857.995; 3328.500;   -9.942; 6373.210
858.558; 3329.735;   -9.112; 6324.448
859.121; 3070.894;  -12.932; 6408.327
859.684; 2956.387;  -13.442; 6347.886
860.247; 3052.909;  -10.632; 6321.264
860.810; 3043.340;  -11.272; 6301.903
861.374; 2788.726;   -9.832; 6607.881
861.937; 2539.789;  -11.762; 6408.200
862.500; 2539.837;   -9.722; 6572.639
863.062; 2715.524;  -10.512; 6387.297
863.625; 2878.912;  -11.232; 6190.836
864.188; 3028.337;  -14.112; 5807.254
864.751; 3085.889;  -11.302; 5682.413
865.314; 2973.029;  -10.112; 5547.492
865.876; 2773.329;  -12.182; 5500.150
866.439; 2766.357;  -10.722; 5415.909
867.002; 2709.662;   -9.252; 5501.567
867.564; 2508.449;   -9.572; 5413.946
868.127; 2295.860;  -13.142; 5160.325
868.689; 2200.089;  -12.902; 5133.183
869.252; 2099.367;   -9.732; 5252.382
869.814; 2006.355;   -9.432; 5297.141
870.377; 2018.328;  -11.552; 5390.919
870.939; 2087.005;   -9.052; 5599.898
871.501; 2145.522;  -10.982; 5248.336
872.063; 2143.419;  -12.292; 4854.235
872.626; 2106.098;  -14.912; 4817.074
873.188; 2134.222;  -13.112; 4987.732
873.750; 2103.005;  -13.442; 4868.651
874.312; 2012.907;   -9.402; 4779.330
874.874; 1927.480;  -11.062; 4866.348
875.436; 1840.066;  -13.931; 4718.887
875.998; 1832.816;   -9.561; 4660.005
876.560; 1854.205;  -11.321; 4462.964
877.122; 1799.072;  -12.221; 4145.042
877.683; 1718.238;  -12.191; 4056.481
878.245; 1654.233;  -12.101; 3950.740
878.807; 1694.880;   -8.971; 4058.958
879.369; 1719.013;  -12.071; 3954.677
879.930; 1628.504;  -14.621; 3941.495
880.492; 1567.984;  -10.311; 4067.014
881.053; 1526.125;  -10.901; 3859.633
881.615; 1419.205;  -14.411; 3776.071
882.176; 1330.578;  -13.761; 3734.750
882.738; 1285.614;   -9.181; 3678.489
883.299; 1263.197;  -11.791; 3405.407
883.860; 1273.330;  -13.121; 3351.106
884.422; 1274.203;  -11.211; 3394.044
884.983; 1227.255;  -10.091; 3166.443
885.544; 1150.981;   -8.461; 3189.802
886.105; 1074.424;  -12.361; 3160.360
886.666; 1011.407;  -14.141; 3093.059
887.227;  957.450;  -11.361; 2941.957
887.788;  897.380;  -11.401; 2974.836
888.349;  839.901;  -13.791; 2721.214
888.910;  841.582;  -13.191; 2696.493
889.471;  845.987;   -9.881; 2560.172
890.032;  827.652;   -9.881; 2558.190
890.593;  805.733;  -10.371; 2567.669
891.153;  779.163;  -13.301; 2460.307
891.714;  729.868;  -11.431; 2372.046
892.275;  691.721;  -11.291; 2309.505
892.835;  650.792;  -11.471; 2382.543
893.396;  599.094;  -11.541; 2295.502
893.956;  543.695;  -11.181; 2162.420
894.517;  508.585;  -11.741; 2125.439
895.077;  504.676;  -11.671; 2086.978
895.638;  506.078;  -11.311; 2126.316
896.198;  478.443;   -9.831; 1838.275
896.758;  435.922;   -8.421; 1892.813
897.319;  408.559;  -12.351; 1792.232
897.879;  392.192;  -13.511; 1762.751
898.439;  365.662;  -12.001; 1661.149
898.999;  341.472;  -10.180; 1781.468
899.559;  333.995;  -12.030; 1703.347
900.119;  329.226;  -15.710; 1537.525
900.679;  324.838;   -8.900; 1638.384
901.239;  310.164;   -8.340; 1527.902
901.799;  300.180;  -13.910; 1456.441
902.359;  296.964;  -13.460; 1357.140
902.919;  289.991;  -11.490; 1331.118
903.479;  275.635;  -12.110; 1317.257
904.038;  256.787;  -11.720; 1262.595
904.598;  242.003;  -13.610; 1152.034
905.158;  238.159;  -11.040; 1240.893
905.717;  230.029;  -10.900; 1233.691
906.277;  219.652;  -15.080; 1217.330
906.836;  210.133;  -13.380; 1222.408
907.396;  200.712;  -10.780; 1193.047
907.955;  194.425;   -8.500; 1182.526
908.515;  189.396;  -12.760; 1099.364
909.074;  184.011;  -11.900; 1092.863
909.633;  177.654;   -8.950; 1069.121
910.192;  172.861;   -8.770; 1196.460
910.752;  168.440;  -12.390; 1029.960
911.311;  164.281;  -13.680; 1009.780
911.870;  162.434;  -12.370;  971.460
912.429;  162.674;  -10.900; 1094.080
912.988;  162.096;  -11.690; 1081.060
913.547;  157.961;  -13.240;  940.380
914.106;  152.296;  -11.990;  999.420
914.665;  148.835;   -9.990;  984.020
915.224;  149.125;  -12.880; 1035.760
915.782;  149.371;  -12.350;  922.560
916.341;  148.389;   -9.110; 1049.840
916.900;  144.178;   -9.270;  925.260
917.458;  142.869;  -13.240;  884.220
918.017;  142.940;  -13.550;  942.600
918.576;  142.255;  -12.320;  904.440
919.134;  139.418;  -11.490;  837.980
919.693;  137.409;  -13.670;  893.060
920.251;  136.257;  -15.470;  876.500
920.809;  135.927;  -11.290;  839.580
921.368;  134.609;  -10.210;  885.360
921.926;  134.126;  -12.140;  842.940
922.484;  133.243;  -13.080;  903.360
923.042;  131.808;  -11.720;  880.340
923.601;  134.904;   -7.480;  998.680
924.159;  133.407;  -11.570;  935.560
924.717;  130.290;  -13.840;  841.080
925.275;  129.843;  -10.640;  903.240
925.833;  130.595;  -11.540;  779.320
926.391;  130.698;  -12.960;  938.380
926.949;  129.105;  -14.130;  857.680
927.506;  129.096;  -11.750;  903.500
928.064;  128.765;  -10.250;  877.580
928.622;  128.394;  -13.030;  880.100
929.180;  128.841;  -13.400;  814.180
929.737;  129.200;  -10.700;  808.540
930.295;  132.365;  -10.070;  928.480
930.853;  134.715;  -11.960;  849.100
931.410;  135.577;  -13.120;  821.120
931.968;  134.357;  -10.770;  940.660
932.525;  134.452;  -10.680;  909.380
933.082;  133.971;  -13.130;  811.440
933.640;  135.722;  -13.210;  925.900
934.197;  132.559;  -11.060;  886.360
934.754;  134.472;   -9.580;  897.780
935.312;  137.139;  -14.000;  863.340
935.869;  141.550;  -10.710; 1012.980
936.426;  140.984;   -9.860;  872.800
936.983;  142.636;   -9.710;  889.020
937.540;  141.929;  -13.990;  838.280
938.097;  140.684;  -14.040;  940.120
938.654;  139.984;  -10.310;  898.860
939.211;  143.730;  -10.560;  952.480
939.768;  146.577;  -13.900;  915.420
940.324;  150.573;  -14.760;  904.200
940.881;  150.991;  -10.370;  878.500
941.438;  151.539;   -8.260; 1021.200
941.995;  147.875;  -12.540;  992.560
942.551;  145.745;  -14.670;  875.620
943.108;  145.314;  -10.450;  937.920
943.664;  147.489;  -10.750;  869.340
944.221;  152.078;  -11.550; 1088.140
944.777;  149.085;  -14.770;  869.680
945.334;  149.070;  -12.820;  884.840
945.890;  151.065;  -10.130;  946.480
946.446;  150.921;  -13.470;  947.020
947.003;  152.661;  -12.120;  964.940
947.559;  155.043;   -9.980; 1063.040
948.115;  154.497;   -9.080; 1026.540
948.671;  153.760;  -10.830;  967.300
949.227;  151.495;  -12.440;  859.560
949.783;  147.825;  -12.910;  858.900
950.339;  148.824;  -10.270;  991.000
950.895;  149.356;  -13.630; 1023.840
951.451;  149.531;  -15.100;  925.280
952.007;  149.847;  -11.330;  998.540
952.563;  148.699;  -10.580;  937.780
953.118;  148.545;  -13.440;  904.940
953.674;  148.140;  -12.710;  935.780
954.230;  147.720;  -10.350;  949.640
954.785;  144.622;   -9.190;  936.640
955.341;  142.993;  -11.200;  998.160
955.897;  141.724;  -16.560;  834.660
956.452;  142.235;  -12.570;  953.840
957.008;  141.373;   -7.970; 1083.640
957.563;  139.091;  -11.940; 1009.540
958.118;  134.375;  -13.450;  877.700
958.674;  135.424;  -12.030;  946.780
959.229;  136.875;   -9.410; 1013.980
959.784;  134.472;  -12.000;  832.400
960.339;  133.818;  -14.780; 1001.280
960.894;  130.469;   -9.860;  963.760
961.449;  125.454;   -9.970;  859.960
962.004;  125.990;  -10.900; 1212.840
962.559;  122.058;  -13.150;  860.140
963.114;  118.407;  -13.740;  742.480
963.669;  118.520;   -9.820;  915.500
964.224;  117.127;  -13.890;  874.340
964.779;  116.189;  -12.600;  828.420
965.334;  117.214;  -10.950; 1017.860
965.888;  115.341;  -11.170;  875.360
966.443;  119.513;  -12.540;  972.380
966.998;  118.889;  -15.780;  819.460
967.552;  117.593;   -9.760;  908.380
968.107;  113.700;   -9.060;  868.300
968.661;  115.553;  -11.950;  922.440
969.216;  115.352;  -12.800;  856.280
969.770;  115.373;  -11.210;  917.200
970.324;  113.908;  -11.610;  923.140
970.879;  111.725;  -11.370;  947.180
971.433;  108.908;  -12.540;  952.720
971.987;  103.317;  -11.320;  895.340
972.541;  100.174;  -10.720;  917.100
973.095;  100.718;   -9.680; 1009.460
973.649;   99.848;  -11.440;  809.480
974.203;   98.284;  -11.210;  829.040
974.757;   97.847;  -10.240;  855.220
975.311;   98.713;  -13.720;  872.600
975.865;   97.830;  -13.770;  881.820
976.419;   96.135;  -11.690;  857.400
976.973;   95.134;   -9.510;  849.620
977.526;   97.110;  -12.620;  949.920
978.080;   97.510;  -12.010;  796.780
978.634;   98.432;  -10.170;  921.320
979.187;   94.891;   -9.020;  905.400
979.741;   92.986;   -9.820; 1018.380
980.294;   88.915;  -14.870;  789.160
980.848;   86.596;  -12.380;  717.220
981.401;   87.823;  -10.350;  816.540
981.955;   90.245;  -13.720;  844.300
982.508;   89.149;  -11.490;  746.340
983.061;   90.275;  -10.000;  915.260
983.615;   85.407;  -11.480;  798.800
984.168;   82.485;  -13.220;  770.080
984.721;   82.001;  -13.960;  880.760
985.274;   81.288;  -10.870;  867.500
985.827;   79.961;   -9.790;  834.220
986.380;   77.736;  -13.120;  721.340
986.933;   78.459;  -12.450;  864.800
987.486;   75.979;  -10.210;  861.920
988.039;   74.704;   -8.430;  863.100
988.591;   72.910;  -10.520;  893.260
989.144;   70.613;  -14.860;  737.260
989.697;   69.694;  -13.080;  758.740
990.250;   69.907;  -10.150;  858.100
990.802;   69.468;  -13.430;  755.860
991.355;   71.407;  -12.750;  974.880
991.907;   67.934;  -12.040;  864.320
992.460;   64.461;  -11.330;  753.760
993.012;   64.787;  -13.610;  749.540
993.565;   64.093;  -13.460;  711.360
994.117;   65.812;   -9.360;  950.780
994.669;   61.711;  -11.300;  701.320
995.221;   60.390;  -13.540;  791.920
995.774;   58.408;  -13.430;  787.580
996.326;   57.298;  -12.520;  740.220
996.878;   56.910;  -10.950;  838.420
997.430;   54.093;  -14.300;  699.860
997.982;   54.338;  -13.760;  750.140
998.534;   53.423;  -11.530;  739.060
999.086;   51.399;  -10.310;  738.220
999.638;   51.012;  -12.530;  661.380
1000.190;   50.744;  -11.840;  699.320
1000.741;   50.135;  -10.260;  742.700
1001.293;   49.802;   -8.860;  686.020
1001.845;   48.214;  -13.700;  676.640
1002.396;   49.067;  -12.100;  743.400
1002.948;   48.075;  -12.760;  737.400
1003.500;   45.967;  -10.380;  723.780
1004.051;   46.799;  -11.900;  907.580
1004.603;   45.671;  -12.250;  791.820
1005.154;   42.006;  -13.210;  608.980
1005.705;   40.747;  -10.950;  723.960
1006.257;   40.301;  -13.880;  707.220
1006.808;   40.294;  -12.840;  685.460
1007.359;   39.729;  -10.570;  763.240
1007.910;   38.120;   -9.620;  646.640
1008.461;   37.289;  -13.630;  732.940
1009.013;   37.500;  -17.200;  588.340
1009.564;   37.989;  -10.200;  793.520
1010.115;   35.862;  -12.570;  597.040
1010.665;   35.697;  -15.150;  602.160
1011.216;   36.386;  -14.480;  667.920
1011.767;   35.268;  -11.340;  697.920
1012.318;   35.515;   -9.780;  736.980
1012.869;   34.414;  -12.380;  679.000
1013.419;   34.718;  -15.560;  603.120
1013.970;   34.630;  -11.010;  666.640
1014.521;   33.844;  -11.610;  620.620
1015.071;   34.521;  -13.450;  670.380
1015.622;   33.681;  -13.870;  635.460
1016.172;   32.912;  -11.610;  596.820
1016.723;   32.316;  -12.120;  614.380
1017.273;   32.677;  -13.620;  604.160
1017.823;   33.184;  -14.140;  650.340
1018.374;   31.582;  -12.800;  611.760
1018.924;   31.266;  -12.340;  716.880
1019.474;   32.380;  -11.410;  718.880
1020.024;   31.607;  -14.770;  657.580
1020.574;   32.009;   -9.780;  726.160
1021.124;   31.375;   -8.560;  673.580
1021.674;   30.651;  -15.190;  559.120
1022.224;   31.317;  -13.530;  708.940
1022.774;   30.977;  -13.280;  668.820
1023.324;   31.003;  -10.690;  753.520
1023.874;   32.202;  -10.240;  875.760
1024.423;   29.312;  -12.540;  613.700
1024.973;   29.750;  -10.010;  610.760
1025.523;   29.018;  -10.550;  620.960
1026.072;   28.603;  -13.560;  606.420
1026.622;   28.654;  -15.120;  675.740
1027.172;   29.803;  -11.260;  715.660
1027.721;   28.051;  -11.410;  601.220
1028.270;   28.316;  -13.530;  663.400
1028.820;   28.891;  -13.680;  638.080
1029.369;   27.984;  -13.520;  612.700
1029.918;   27.674;  -10.980;  649.840
1030.468;   27.382;  -13.530;  564.780
1031.017;   27.543;  -13.170;  634.800
1031.566;   26.524;  -12.200;  608.900
1032.115;   26.867;   -9.960;  694.500
1032.664;   26.207;  -13.210;  596.480
1033.213;   27.227;  -12.500;  735.420
1033.762;   27.078;  -11.910;  635.620
1034.311;   25.840;   -9.640;  677.220
1034.860;   26.900;  -13.310;  691.000
1035.408;   26.596;  -11.830;  722.720
1035.957;   27.011;  -12.000;  719.540
1036.506;   24.233;  -11.690;  530.800
1037.055;   26.623;  -10.990;  844.320
1037.603;   25.604;  -15.120;  664.000
1038.152;   23.573;  -12.450;  534.760
1038.700;   23.692;  -10.560;  585.740
1039.249;   24.259;  -11.080;  681.220
1039.797;   24.494;  -12.540;  633.360
1040.345;   24.550;  -11.920;  705.420
1040.894;   23.640;  -11.410;  625.300
1041.442;   24.459;  -14.320;  632.200
1041.990;   22.720;  -16.240;  559.160
1042.538;   23.173;  -11.680;  536.180
1043.087;   21.961;  -10.760;  570.860
1043.635;   24.282;  -11.850;  670.500
1044.183;   23.565;  -15.480;  586.400
1044.731;   22.968;  -11.770;  576.000
1045.279;   21.587;  -13.090;  674.920
1045.827;   24.633;  -12.440;  892.400
1046.374;   22.359;  -13.840;  515.420
1046.922;   21.187;  -13.220;  590.580
1047.470;   22.640;  -10.230;  691.300
1048.018;   22.249;  -14.590;  647.960
1048.565;   22.763;  -12.050;  708.600
1049.113;   20.877;  -11.650;  557.000
1049.660;   20.357;  -10.510;  629.660
1050.208;   21.772;  -13.310;  675.640
1050.755;   20.817;  -15.900;  606.580
1051.303;   21.917;  -11.430;  686.820
1051.850;   20.065;   -8.480;  635.120
1052.397;   19.086;  -15.010;  473.960
1052.945;   19.589;  -13.960;  617.760
1053.492;   20.885;  -13.150;  741.840
1054.039;   21.096;   -9.630;  720.180
1054.586;   19.625;  -13.680;  557.240
1055.133;   20.922;  -14.570;  693.140
1055.680;   20.046;  -13.820;  646.620
1056.227;   19.348;  -11.730;  542.780
1056.774;   20.715;  -12.480;  794.980
1057.321;   19.193;  -13.930;  523.260
1057.868;   19.170;  -11.690;  651.320
1058.415;   18.639;   -9.520;  651.980
1058.961;   19.006;  -13.160;  678.940
1059.508;   19.313;  -12.920;  643.820
1060.055;   18.942;  -11.920;  581.780
1060.601;   18.988;  -11.500;  624.300
1061.148;   18.387;  -14.330;  616.820
1061.694;   18.284;  -16.870;  592.580
1062.241;   18.213;  -10.330;  596.320
1062.787;   18.062;  -10.620;  663.140
1063.334;   19.444;  -10.110;  808.560
1063.880;   18.247;  -13.400;  668.360
1064.426;   18.345;  -10.680;  706.820
1064.972;   16.872;   -9.920;  601.340
1065.518;   16.422;  -10.980;  566.640
1066.065;   18.256;  -14.890;  624.460
1066.611;   16.548;  -12.870;  598.800
1067.157;   17.199;  -12.950;  641.860
1067.703;   16.906;  -13.540;  668.480
1068.249;   17.551;  -13.540;  605.220
1068.794;   16.907;  -12.600;  626.880
1069.340;   14.955;  -10.620;  578.960
1069.886;   16.132;  -12.830;  590.700
1070.432;   15.914;  -14.870;  541.720
1070.977;   15.961;  -11.980;  601.080
1071.523;   15.537;   -8.200;  573.060
1072.068;   16.075;  -12.330;  582.000
1072.614;   15.634;  -16.370;  527.760
1073.160;   16.320;  -11.100;  687.040
1073.705;   14.726;  -10.480;  572.520
1074.250;   14.701;  -14.520;  559.900
1074.796;   16.689;  -11.460;  655.160
1075.341;   15.422;  -11.950;  664.100
1075.886;   14.276;  -11.460;  594.240
1076.431;   14.815;  -13.770;  649.880
1076.976;   15.222;  -12.680;  639.220
1077.521;   14.895;  -13.170;  583.080
1078.067;   13.295;  -10.860;  579.400
1078.612;   15.090;  -13.920;  661.620
1079.156;   14.179;  -13.880;  601.540
1079.701;   14.714;  -13.120;  693.260
1080.246;   14.065;   -9.940;  696.300
1080.791;   14.078;  -14.740;  625.020
1081.336;   14.957;  -13.750;  659.320
1081.880;   14.443;  -13.400;  649.680
1082.425;   12.601;  -12.220;  573.480
1082.970;   14.982;  -11.610;  717.040
1083.514;   13.559;  -13.580;  597.000
1084.059;   12.463;  -12.810;  586.720
1084.603;   11.463;  -12.320;  565.840
1085.147;   13.191;  -13.190;  645.220
1085.692;   14.367;  -12.480;  716.800
1086.236;   11.857;  -13.020;  503.140
1086.780;   13.789;   -9.190;  751.440
1087.325;   12.356;  -12.480;  654.620
1087.869;   13.151;  -12.450;  610.700
1088.413;   13.248;  -12.240;  705.040
1088.957;   10.280;   -9.020;  543.400
1089.501;   13.493;  -10.320;  766.640
1090.045;   12.698;  -12.720;  726.480
1090.589;   11.312;  -13.690;  569.920
1091.133;   10.988;  -10.020;  673.340
1091.676;   11.869;  -12.330;  591.940
1092.220;   11.655;  -14.970;  600.920
1092.764;   11.805;  -12.430;  706.960
1093.307;   11.189;   -9.800;  673.780
1093.851;    9.762;  -14.970;  556.540
1094.395;   11.019;  -15.310;  683.140
1094.938;   10.753;  -10.370;  632.520
1095.482;   10.452;  -11.050;  559.800
1096.025;   11.560;  -11.840;  710.880
1096.568;   11.931;  -12.840;  779.280
1097.112;   10.008;  -14.700;  508.180
1097.655;    9.972;   -8.720;  603.000
1098.198;    9.096;  -13.610;  600.180
1098.741;    9.362;  -13.350;  612.860
1099.285;   10.671;  -11.230;  657.300
1099.828;    7.954;  -11.840;  439.400
1100.371;    9.679;  -10.840;  608.160
1100.914;   10.356;  -14.190;  682.660
1101.457;    9.606;  -11.240;  679.900
1101.999;    8.558;  -11.270;  584.680
1102.542;    8.994;  -11.480;  641.440
1103.085;    9.579;  -11.750;  658.500
1103.628;   10.215;  -11.400;  762.060
1104.170;    8.171;  -10.490;  588.280
1104.713;    8.623;  -10.600;  646.700
1105.256;    8.838;  -14.360;  557.440
1105.798;    7.843;  -13.210;  499.980
1106.341;    9.502;  -10.270;  728.900
1106.883;    8.382;  -12.200;  521.340
1107.425;    9.116;  -13.110;  668.180
1107.968;    8.145;  -12.840;  612.380
1108.510;    8.434;   -6.480;  684.960
1109.052;    6.672;  -13.940;  612.620
1109.594;    8.076;  -13.690;  554.440
1110.136;    8.413;  -11.880;  643.220
1110.679;    7.706;   -9.500;  633.080
1111.221;    8.159;  -14.160;  604.460
1111.763;    7.534;  -13.980;  559.220
1112.304;    6.923;  -13.880;  547.140
1112.846;    7.243;  -12.210;  666.240
1113.388;    9.982;  -11.390;  942.180
1113.930;    7.555;  -14.540;  694.200
1114.472;    6.712;  -12.640;  606.540
1115.013;    5.441;  -11.620;  551.280
1115.555;    5.595;  -13.640;  587.100
1116.097;    6.121;  -15.380;  579.480
1116.638;    6.520;  -12.640;  684.600
1117.180;    6.645;   -9.850;  667.740
1117.721;    6.610;  -13.690;  568.580
1118.262;    6.737;  -12.680;  677.960
1118.804;    7.330;  -12.530;  637.340
1119.345;    4.921;  -11.690;  578.400
1119.886;    6.611;  -13.380;  704.040
1120.427;    5.884;  -14.070;  589.020
1120.969;    5.378;  -13.500;  597.920
1121.510;    5.101;  -11.480;  563.060
1122.051;    5.127;  -12.830;  723.580
1122.592;    5.370;  -14.290;  655.420
1123.133;    4.955;  -12.400;  547.940
1123.673;    6.043;  -10.130;  706.480
1124.214;    5.215;  -12.930;  612.460
1124.755;    5.842;  -14.380;  639.460
1125.296;    5.598;  -14.000;  627.320
1125.836;    5.290;  -10.070;  691.500
1126.377;    4.759;  -12.640;  599.660
1126.918;    5.979;  -12.960;  614.980
1127.458;    4.954;  -13.350;  622.220
1127.999;    4.939;  -10.750;  656.980
1128.539;    4.817;  -12.350;  694.240
1129.079;    4.744;  -14.860;  632.720
1129.620;    3.269;  -13.840;  558.100
1130.160;    2.799;  -12.330;  539.480
1130.700;    4.287;  -14.530;  640.840
1131.240;    5.099;  -12.530;  643.700
1131.781;    4.322;  -14.450;  619.680
1132.321;    3.484;   -9.790;  599.120
1132.861;    2.829;  -14.860;  564.200
1133.401;    3.856;  -14.290;  593.940
1133.941;    4.093;  -11.750;  626.280
1134.481;    2.886;   -9.920;  597.580
1135.020;    3.334;  -12.290;  609.160
1135.560;    3.488;  -11.650;  674.940
1136.100;    3.123;  -16.270;  501.160
1136.640;    2.283;  -10.890;  510.480
1137.179;    2.655;  -14.180;  537.960
1137.719;    3.211;  -16.250;  605.400
1138.258;    3.235;  -14.230;  587.360
1138.798;    2.635;   -9.090;  663.780
1139.337;    1.352;  -15.130;  482.840
1139.877;    3.074;  -13.680;  642.360
1140.416;    4.924;  -11.320;  878.060
1140.955;    1.630;  -10.860;  535.380
1141.494;    2.540;  -12.920;  669.280
1142.034;    2.226;  -13.930;  583.520
1142.573;    3.113;  -11.440;  646.280
1143.112;    1.650;  -12.000;  553.480
1143.651;    2.017;  -13.670;  536.480
1144.190;    3.251;  -12.730;  691.640
1144.729;    2.642;  -14.560;  607.420
1145.267;    1.450;  -11.830;  584.900
1145.806;    2.077;  -12.230;  637.040
1146.345;    1.471;  -14.130;  635.020
1146.884;    1.978;  -11.590;  622.500
1147.422;    0.771;  -12.550;  533.060
1147.961;    3.127;  -11.180;  708.460
1148.500;    2.797;  -11.510;  669.720
1149.038;    2.347;  -11.640;  632.500
1149.577;    1.364;  -10.130;  698.640
1150.115;    0.068;  -13.970;  452.280
1150.653;    1.804;  -14.520;  607.340
1151.192;    1.615;  -12.810;  552.920
1151.730;    0.529;   -9.100;  652.560
1152.268;    0.797;  -12.220;  589.520
1152.806;    0.582;  -14.140;  571.180
1153.344;    0.002;  -12.350;  577.640
1153.882;    0.164;   -8.980;  600.060
1154.421;   -0.475;  -15.190;  470.620
1154.958;    0.754;  -15.210;  595.240
1155.496;    1.517;  -12.850;  645.280
1156.034;    0.854;   -9.940;  721.880
1156.572;    1.374;  -13.570;  667.060
1157.110;   -0.009;  -14.590;  473.940
1157.647;    1.056;  -13.030;  676.960
1158.185;   -0.603;  -12.140;  564.320
1158.723;   -0.826;  -14.390;  509.200
1159.260;    0.662;  -14.090;  701.700
1159.798;    1.052;  -11.920;  658.160
1160.335;    0.019;  -11.110;  631.820

