
Integration time [ms]:   3.276
Averaging Nr. [scans]: 1000
Smoothing Nr. [pixels]: 0
Data measured with spectrometer [name]: 7414430SP
Wave   ;Sample   ;Dark     ;Reference
[nm]   ;[counts] ;[counts] ;[counts] 

288.544;  151.986;    7.793;  793.890
289.143;  154.425;    7.462;  681.602
289.742;  155.217;    8.602;  828.814
290.341;  140.777;    1.321;  789.841
290.940;  130.596;   -0.709;  730.702
291.538;  131.164;    0.881;  881.108
292.137;  129.829;    0.122;  792.581
292.736;  135.974;   -1.929;  975.101
293.335;  133.267;   -8.229;  735.086
293.934;  131.951;   -5.279;  781.677
294.532;  130.811;   -1.369; 1031.958
295.131;  116.748;   -7.641;  834.394
295.730;  117.521;   -8.420;  809.588
296.328;  114.979;   -5.611;  783.442
296.927;  116.481;   -5.781;  779.652
297.525;  118.513;   -6.361;  781.236
298.124;  108.002;  -11.382;  654.009
298.722;  111.087;   -7.641;  761.933
299.321;  108.858;   -6.811;  708.597
299.919;  108.008;   -6.991;  751.918
300.518;  104.852;  -10.362;  689.338
301.116;  105.903;   -9.581;  691.381
301.715;  104.644;   -4.891;  730.222
302.313;  105.949;   -8.801;  704.943
302.911;  100.597;   -8.522;  733.830
303.509;  105.408;   -6.171;  925.627
304.108;  103.002;   -7.311;  760.383
304.706;  102.753;   -8.321;  801.664
305.304;   96.947;  -10.222;  796.707
305.902;  101.521;   -6.021;  784.484
306.500;   97.837;   -4.971;  728.200
307.098;   97.092;   -7.061;  746.560
307.696;   95.346;   -8.801;  780.432
308.294;   93.567;   -6.411;  731.359
308.892;   96.294;   -2.901;  759.769
309.490;   93.516;   -5.041;  712.161
310.088;   92.028;   -5.002;  788.444
310.686;   95.208;   -2.041;  821.749
311.284;   90.840;   -2.351;  766.040
311.882;   89.672;   -4.422;  731.225
312.480;   86.433;   -4.192;  697.167
313.078;   87.178;   -1.172;  808.331
313.675;   87.922;   -2.601;  691.600
314.273;   83.851;   -1.312;  797.837
314.871;   82.958;   -3.942;  589.829
315.468;   79.969;   -2.802;  652.090
316.066;   82.901;   -0.701;  694.427
316.664;   76.716;   -4.362;  656.351
317.261;   80.341;   -2.872;  910.128
317.859;   75.846;   -2.022;  768.735
318.456;   75.322;   -0.531;  830.096
319.054;   73.006;   -3.912;  787.828
319.651;   71.252;   -4.752;  759.928
320.249;   69.575;   -2.602;  810.188
320.846;   67.428;   -0.821;  714.286
321.443;   65.470;   -4.642;  832.135
322.041;   62.842;   -5.002;  812.315
322.638;   59.771;   -3.982;  701.456
323.235;   60.489;   -3.411;  665.683
323.833;   58.932;   -7.361;  740.354
324.430;   54.162;   -8.611;  615.900
325.027;   54.179;   -4.061;  876.855
325.624;   54.283;   -4.031;  644.532
326.221;   52.813;   -7.481;  689.717
326.818;   52.190;   -5.281;  818.332
327.415;   54.107;   -7.460;  748.828
328.012;   52.411;   -5.510;  690.585
328.609;   52.917;   -7.880;  731.389
329.206;   51.266;   -8.331;  778.621
329.803;   50.173;   -5.121;  737.841
330.400;   53.354;   -4.510;  704.260
330.997;   55.235;   -6.441;  817.147
331.594;   53.659;   -8.831;  788.185
332.191;   58.169;   -7.621;  728.722
332.787;   60.579;   -4.591;  844.463
333.384;   60.096;   -7.412;  763.093
333.981;   58.209;   -8.293;  815.687
334.578;   61.053;   -7.052;  708.378
335.174;   63.749;   -3.102;  731.469
335.771;   64.201;   -5.943;  836.456
336.367;   60.741;   -7.393;  710.631
336.964;   64.334;   -4.063;  793.266
337.561;   61.506;   -3.813;  731.112
338.157;   58.086;   -4.654;  911.916
338.754;   55.865;   -7.934;  796.589
339.350;   52.864;   -4.414;  722.493
339.946;   55.369;   -4.664;  773.135
340.543;   47.544;   -6.375;  846.136
341.139;   42.378;   -9.815;  720.836
341.735;   40.048;   -4.526;  772.593
342.332;   38.318;   -4.895;  691.472
342.928;   39.537;   -4.295;  795.394
343.524;   33.629;   -5.476;  761.684
344.120;   29.600;   -5.856;  738.562
344.716;   31.861;   -2.155;  723.717
345.313;   30.536;   -6.275;  795.342
345.909;   25.406;   -8.815;  627.336
346.505;   26.921;   -5.305;  740.247
347.101;   27.198;   -2.674;  827.864
347.697;   28.747;   -4.344;  785.398
348.293;   23.034;   -9.975;  627.244
348.889;   23.067;   -5.774;  745.914
349.485;   22.131;   -5.004;  688.205
350.081;   23.561;   -4.704;  772.592
350.676;   18.427;   -6.635;  691.606
351.272;   21.965;   -4.504;  809.530
351.868;   21.798;   -3.914;  780.497
352.464;   19.758;   -9.044;  723.932
353.059;   16.389;   -8.314;  646.017
353.655;   18.772;   -7.024;  777.063
354.251;   19.921;   -5.343;  759.845
354.846;   15.477;   -8.604;  740.646
355.442;   12.291;   -6.945;  753.071
356.038;   13.973;   -7.564;  751.708
356.633;   13.969;   -5.814;  728.594
357.229;   12.934;   -7.364;  724.757
357.824;   10.773;   -8.024;  703.600
358.420;    9.245;   -9.384;  679.726
359.015;   10.330;   -5.104;  695.357
359.610;   11.324;   -6.854;  763.920
360.206;    5.504;  -10.185;  603.240
360.801;    7.814;   -7.054;  646.503
361.396;   10.608;   -5.034;  725.975
361.992;    6.256;   -8.284;  668.220
362.587;    3.125;   -8.625;  670.160
363.182;    4.682;   -7.674;  689.631
363.777;    5.561;   -5.164;  738.242
364.372;    6.316;   -8.604;  737.314
364.967;    1.751;   -9.055;  680.744
365.563;    5.962;   -6.114;  815.567
366.158;    2.946;   -5.814;  685.161
366.753;    4.071;   -7.854;  649.263
367.348;    2.490;   -7.804;  746.056
367.942;    2.167;   -7.954;  697.298
368.537;    0.869;   -4.984;  754.245
369.132;    1.488;   -8.564;  703.428
369.727;   -3.172;   -8.855;  638.079
370.322;   -1.660;   -6.245;  580.186
370.917;   -2.416;   -6.425;  710.646
371.511;    1.499;   -6.294;  861.834
372.106;   -2.859;   -7.685;  776.964
372.701;   -6.312;   -7.335;  585.988
373.296;   -0.437;   -4.564;  863.135
373.890;   -4.257;  -10.235;  647.840
374.485;   -5.988;   -7.885;  691.199
375.079;   -3.194;   -7.324;  738.685
375.674;   -1.678;   -3.494;  812.970
376.268;   -5.715;   -8.525;  691.759
376.863;  -12.525;  -10.086;  580.327
377.457;   -5.895;   -7.025;  662.490
378.052;   -8.588;   -3.585;  764.884
378.646;   -7.786;   -7.595;  741.167
379.240;   -8.924;   -8.335;  721.176
379.835;   -7.737;   -5.785;  636.978
380.429;  -10.674;   -4.335;  562.557
381.023;   -9.104;   -6.805;  779.205
381.617;  -11.773;   -9.195;  680.106
382.212;   -8.855;   -6.905;  685.303
382.806;   -8.132;   -3.745;  760.690
383.400;  -11.768;   -7.745;  672.281
383.994;  -12.677;   -9.765;  664.870
384.588;   -9.634;   -6.564;  697.701
385.182;   -8.204;   -5.344;  726.624
385.776;   -9.336;   -8.514;  706.875
386.370;  -12.550;   -9.555;  681.968
386.964;  -12.675;   -8.715;  684.155
387.558;  -10.404;   -6.174;  598.360
388.152;  -12.587;   -8.725;  681.959
388.745;  -11.451;   -7.965;  814.707
389.339;  -10.291;   -5.924;  747.642
389.933;   -9.035;   -5.524;  695.370
390.527;  -10.101;   -7.114;  859.029
391.120;  -15.709;  -10.725;  595.318
391.714;  -13.909;   -8.035;  711.633
392.308;  -11.183;   -3.574;  780.253
392.901;  -12.776;   -7.245;  642.460
393.495;  -15.045;   -9.285;  595.414
394.089;  -14.224;   -5.895;  760.452
394.682;  -14.209;   -4.295;  697.188
395.275;  -14.283;   -9.875;  719.927
395.869;  -15.767;   -8.485;  667.314
396.462;  -14.211;   -7.455;  616.609
397.056;  -10.824;   -5.424;  776.621
397.649;  -14.670;   -6.605;  731.575
398.242;  -11.975;   -8.224;  712.645
398.836;  -12.564;   -7.474;  766.408
399.429;  -14.066;   -7.094;  631.041
400.022;  -15.805;   -9.475;  665.902
400.615;  -13.336;   -7.145;  805.609
401.208;  -12.222;   -7.174;  691.451
401.802;  -14.490;   -5.515;  699.329
402.395;  -15.248;   -9.875;  683.502
402.988;  -16.451;   -8.845;  696.627
403.581;  -12.920;   -8.874;  646.878
404.174;  -11.111;   -5.324;  686.568
404.767;  -13.407;   -9.575;  638.583
405.360;  -16.130;  -10.965;  621.445
405.953;  -11.099;   -8.764;  759.034
406.545;  -10.140;   -7.514;  725.342
407.138;  -14.127;  -10.025;  618.350
407.731;  -13.198;  -10.034;  613.303
408.324;   -9.654;   -9.374;  660.554
408.917;  -10.233;   -6.534;  681.864
409.509;  -12.472;   -8.004;  740.396
410.102;  -13.834;   -9.875;  643.948
410.695;   -8.151;   -8.604;  665.758
411.287;   -9.648;   -6.794;  599.821
411.880;   -9.707;   -9.334;  585.421
412.472;  -12.560;  -10.254;  613.092
413.065;  -10.888;   -6.714;  629.408
413.657;   -8.387;   -7.234;  576.678
414.250;   -8.327;  -10.544;  646.681
414.842;   -9.563;   -9.744;  676.353
415.434;   -8.511;   -6.994;  570.463
416.027;   -4.210;   -5.893;  652.196
416.619;   -5.290;   -7.264;  713.400
417.211;   -5.925;  -10.374;  599.352
417.804;   -3.157;   -7.993;  628.499
418.396;   -7.069;   -7.234;  607.643
418.988;   -3.878;   -9.443;  659.238
419.580;   -7.578;  -10.724;  568.276
420.172;   -6.521;  -10.323;  536.196
420.764;   -1.790;   -8.793;  672.482
421.356;   -2.641;  -11.143;  636.898
421.948;   -3.631;   -8.293;  677.661
422.540;    1.207;   -7.893;  680.027
423.132;    0.320;   -7.082;  600.641
423.724;   -2.074;   -8.653;  561.267
424.316;   -0.395;  -10.213;  621.345
424.908;    2.432;   -9.762;  591.517
425.500;    3.244;   -5.572;  647.978
426.092;    4.551;   -8.422;  648.268
426.683;    2.694;   -9.283;  684.836
427.275;    5.822;   -7.852;  641.471
427.867;    7.285;   -5.272;  668.948
428.458;    8.173;   -7.682;  732.344
429.050;    6.916;  -10.612;  680.749
429.642;    7.581;   -9.882;  743.124
430.233;    8.244;   -6.962;  569.356
430.825;   10.321;   -6.842;  724.809
431.416;    7.957;   -9.672;  698.241
432.008;   11.620;   -6.552;  651.723
432.599;   11.629;   -6.891;  656.073
433.190;    9.564;  -10.912;  637.670
433.782;    8.363;  -11.172;  590.395
434.373;   15.711;   -6.061;  884.765
434.964;   13.444;   -8.251;  602.920
435.556;   11.748;   -9.722;  634.537
436.147;   15.260;   -9.082;  758.490
436.738;   14.283;   -8.041;  701.099
437.329;   20.038;   -7.341;  721.723
437.920;   13.800;   -8.162;  666.688
438.511;   13.009;  -11.802;  564.526
439.103;   19.324;  -10.191;  623.998
439.694;   21.509;   -7.601;  681.583
440.285;   22.336;   -8.541;  764.432
440.876;   20.584;   -9.751;  845.738
441.466;   19.635;   -9.401;  575.162
442.057;   24.415;   -7.760;  665.814
442.648;   24.565;   -9.971;  746.255
443.239;   22.205;  -11.001;  620.477
443.830;   26.961;   -7.990;  704.958
444.421;   28.989;   -7.910;  655.474
445.011;   24.998;   -8.131;  693.619
445.602;   25.325;   -7.111;  743.126
446.193;   26.985;  -10.920;  488.117
446.783;   31.159;   -6.500;  640.397
447.374;   26.756;   -8.671;  692.759
447.964;   27.721;  -10.781;  713.770
448.555;   35.538;   -9.650;  822.742
449.145;   31.913;   -8.660;  662.853
449.736;   33.570;   -8.990;  803.179
450.326;   33.518;   -9.500;  713.626
450.917;   38.287;   -8.680;  675.324
451.507;   37.170;   -7.520;  600.661
452.097;   37.544;   -8.590;  746.267
452.688;   39.180;  -11.340;  742.160
453.278;   38.586;  -10.100;  566.840
453.868;   42.588;   -6.019;  793.550
454.458;   41.348;   -9.440;  651.141
455.048;   41.686;  -10.560;  711.783
455.639;   43.395;  -11.799;  567.096
456.229;   46.270;   -6.899;  710.694
456.819;   48.760;   -7.389;  751.158
457.409;   48.743;  -11.119;  773.993
457.999;   51.279;   -9.289;  737.505
458.589;   50.156;   -6.139;  686.606
459.179;   51.285;   -8.729;  717.658
459.769;   50.025;   -9.789;  627.099
460.358;   54.085;  -10.259;  797.262
460.948;   53.379;   -7.299;  689.503
461.538;   56.370;  -10.289;  660.677
462.128;   53.677;  -11.269;  664.934
462.717;   60.158;   -9.368;  710.326
463.307;   62.915;   -7.908;  705.846
463.897;   59.668;   -9.599;  656.942
464.486;   59.106;   -9.769;  837.128
465.076;   62.653;   -8.048;  733.776
465.666;   65.846;   -9.358;  652.900
466.255;   64.645;   -7.919;  785.651
466.845;   63.417;  -11.689;  666.749
467.434;   66.262;   -7.818;  725.873
468.023;   67.452;   -7.678;  658.357
468.613;   65.558;  -10.939;  713.946
469.202;   69.803;  -10.118;  646.507
469.791;   73.413;   -9.108;  737.811
470.381;   74.762;   -6.058;  742.813
470.970;   74.685;  -10.428;  711.099
471.559;   75.338;  -10.268;  733.291
472.148;   78.103;   -8.448;  675.737
472.738;   79.953;   -6.917;  765.466
473.327;   79.999;  -11.978;  637.529
473.916;   79.581;  -11.888;  737.446
474.505;   84.107;   -9.437;  751.703
475.094;   86.420;   -6.747;  806.570
475.683;   86.359;   -9.367;  797.699
476.272;   88.002;  -12.637;  730.632
476.861;   89.758;  -10.027;  706.754
477.449;   96.456;   -8.716;  728.487
478.038;   90.762;   -9.577;  692.513
478.627;   92.294;   -9.718;  714.852
479.216;   98.302;   -8.947;  769.441
479.805;  101.599;   -6.256;  783.375
480.393;  102.011;   -7.937; 1008.945
480.982;  100.253;   -7.717;  874.501
481.571;  106.827;   -9.266;  858.333
482.159;  106.076;   -7.636;  705.386
482.748;  107.790;   -9.667;  821.385
483.336;  112.216;  -10.376;  858.209
483.925;  112.038;   -7.147;  774.373
484.513;  119.115;   -7.996;  758.962
485.102;  116.119;  -10.027;  810.965
485.690;  124.181;  -10.446; 1011.050
486.278;  126.161;   -8.446;  979.329
486.867;  126.476;   -6.356;  809.662
487.455;  128.182;   -9.136;  898.229
488.043;  130.528;  -10.646;  748.361
488.631;  137.852;   -7.456; 1005.079
489.220;  141.891;   -6.636;  908.626
489.808;  143.204;  -11.036;  741.415
490.396;  150.466;  -10.246;  914.645
490.984;  155.966;   -8.556;  830.161
491.572;  165.995;   -5.886;  940.315
492.160;  172.011;   -9.486;  919.081
492.748;  184.660;  -10.976;  884.341
493.336;  205.508;   -8.776; 1019.693
493.924;  232.104;   -5.465;  958.077
494.512;  259.748;   -9.986; 1066.638
495.100;  296.594;  -10.636; 1103.280
495.687;  352.055;  -10.885; 1206.373
496.275;  414.653;   -8.126; 1150.796
496.863;  483.701;  -10.586; 1281.171
497.451;  582.741;  -11.926; 1386.805
498.038;  714.940;  -10.885; 1556.729
498.626;  818.899;   -6.315; 1741.407
499.214;  967.582;   -7.326; 2016.609
499.801; 1165.915;  -11.906; 2220.633
500.389; 1397.924;  -10.466; 2312.494
500.976; 1703.912;   -5.236; 2744.849
501.564; 2135.409;   -8.936; 3148.565
502.151; 2504.203;  -13.176; 3515.999
502.738; 2930.435;  -10.646; 3971.274
503.326; 3301.246;   -9.525; 4403.796
503.913; 3702.139;  -10.856; 5161.749
504.500; 4076.593;  -11.586; 5986.420
505.088; 4455.679;  -10.336; 6381.201
505.675; 4985.457;   -6.355; 6925.547
506.262; 5696.374;   -9.046; 7619.060
506.849; 6428.118;  -10.416; 8733.969
507.436; 6944.291;  -10.305; 9790.121
508.023; 7529.377;   -5.496; 9985.472
508.610; 7734.009;   -7.856;10434.618
509.197; 8336.615;  -10.097;11198.435
509.784; 9650.454;  -10.886;12391.194
510.371;10757.104;   -9.315;13603.713
510.958;11471.507;   -9.936;14426.586
511.545;12123.292;   -9.326;15243.775
512.132;12988.519;  -10.075;15945.876
512.719;13670.943;   -7.796;16340.369
513.305;14810.661;  -10.606;18011.766
513.892;15579.823;  -11.486;19754.971
514.479;16760.617;   -9.126;20967.805
515.066;18010.482;   -6.026;22299.793
515.652;19331.857;   -8.466;22908.660
516.239;20733.928;  -10.886;23798.875
516.825;21813.355;  -11.496;25567.275
517.412;22993.250;   -5.796;28154.959
517.998;23600.838;  -10.506;28344.111
518.585;23452.461;  -10.076;27134.219
519.171;23990.107;   -8.315;27268.576
519.758;25889.828;   -8.596;28964.129
520.344;27763.582;   -8.466;30664.494
520.930;27383.242;  -11.006;32550.605
521.516;28720.531;  -10.495;35422.895
522.103;30883.658;   -5.526;38280.004
522.689;31636.826;   -8.746;37835.117
523.275;30875.297;  -11.376;37288.613
523.861;31894.891;  -11.156;37281.395
524.447;33511.266;   -8.135;37846.949
525.033;33302.195;   -7.896;38321.949
525.619;33399.840;  -12.476;38579.285
526.205;34734.852;   -9.516;40622.875
526.791;37203.922;   -6.926;42258.836
527.377;36924.828;   -8.346;42966.902
527.963;38184.488;   -8.717;42018.949
528.549;37100.746;  -11.016;42476.828
529.135;35537.836;   -8.536;41854.852
529.721;34054.996;   -9.666;41237.711
530.306;32253.871;  -10.066;41259.445
530.892;30346.867;  -11.356;41506.047
531.478;31161.443;   -6.596;43559.613
532.063;35751.648;   -8.836;47695.563
532.649;38225.676;  -10.047;50808.324
533.235;39425.996;   -9.746;51787.500
533.820;39743.164;   -6.566;52145.035
534.406;39786.383;  -10.817;51133.488
534.991;37762.633;   -9.416;49996.805
535.576;33657.730;   -9.036;48882.852
536.162;31866.990;   -6.156;46942.285
536.747;34082.688;  -11.607;45711.746
537.333;41500.730;  -11.787;48510.180
537.918;48444.840;  -12.437;50439.891
538.503;49746.801;   -7.196;50863.711
539.088;47435.980;  -10.556;50906.922
539.673;47733.016;   -8.767;52621.965
540.259;47684.512;  -10.026;52368.094
540.844;44744.313;   -7.416;50879.109
541.429;46150.426;   -9.467;52077.777
542.014;48761.332;   -9.527;52716.695
542.599;47974.254;   -9.946;52363.281
543.184;45049.438;   -7.927;53187.137
543.769;46358.617;   -9.297;54697.605
544.354;46119.699;  -10.127;53913.914
544.938;44650.109;   -9.267;49680.164
545.523;46348.816;   -6.506;47386.277
546.108;49028.285;   -9.787;49151.949
546.693;51360.328;  -11.587;51384.637
547.278;51493.641;  -10.986;51853.254
547.862;48146.914;   -8.206;51173.750
548.447;43300.219;  -10.067;51691.395
549.031;42558.047;   -9.637;52456.703
549.616;47517.926;   -9.926;52714.516
550.201;46836.957;   -6.347;52414.598
550.785;48060.629;   -7.917;52355.059
551.370;47432.594;  -10.867;54589.453
551.954;47262.293;   -9.047;58267.348
552.538;48034.500;   -7.827;59062.176
553.123;46387.406;  -10.287;58115.285
553.707;44463.129;  -12.178;56556.285
554.291;45704.680;   -8.717;56201.668
554.876;48204.000;   -7.457;55335.762
555.460;48334.324;  -10.387;54155.703
556.044;48959.738;   -9.618;53721.484
556.628;47105.828;  -11.567;53731.016
557.212;45976.957;   -8.097;54312.531
557.796;44656.863;  -11.077;53797.773
558.380;44491.918;  -11.108;56145.984
558.964;44652.641;   -9.057;57277.930
559.548;45487.648;   -6.977;56459.641
560.132;43845.305;  -11.457;54434.543
560.716;42611.953;  -11.378;54800.617
561.300;44000.090;   -9.577;57606.945
561.884;45093.945;   -7.127;58972.445
562.467;43329.180;   -7.118;57327.570
563.051;42237.230;  -13.358;54962.434
563.635;43468.305;  -10.178;52594.473
564.219;44299.328;   -7.837;50610.410
564.802;44950.977;  -11.398;49551.180
565.386;44733.234;  -12.788;48370.953
565.969;44323.027;   -9.077;48178.871
566.553;43431.332;   -6.207;49957.305
567.136;43886.797;   -8.568;50369.594
567.720;40250.402;  -11.868;49492.004
568.303;38189.215;   -8.268;50616.352
568.887;38151.297;   -8.698;50727.148
569.470;38682.727;   -6.808;51698.379
570.053;37716.168;  -13.188;52122.078
570.637;35462.934;  -12.037;52536.438
571.220;34942.719;   -8.577;51186.098
571.803;35710.020;   -8.498;51032.762
572.386;38394.266;  -10.498;49609.887
572.969;40920.313;   -9.388;48285.926
573.552;39119.711;   -8.338;47624.285
574.135;37630.582;   -8.518;45498.641
574.718;34968.645;  -13.628;41970.434
575.301;34027.988;  -10.893;41447.137
575.884;33087.332;   -8.158;40923.836
576.467;34251.855;  -10.328;45267.723
577.050;36029.727;  -13.058;48175.543
577.633;37355.512;   -9.458;47729.328
578.216;36504.094;   -8.928;47579.793
578.799;35567.027;   -9.358;47820.996
579.381;34444.484;  -11.388;48115.551
579.964;32651.906;  -11.718;47333.766
580.547;34380.926;   -8.588;46668.969
581.129;35354.547;   -8.859;44466.141
581.712;36091.246;  -10.729;44164.922
582.294;36556.797;  -11.118;46477.855
582.877;36636.832;   -5.218;48244.254
583.459;34719.691;   -8.679;47437.895
584.042;32645.607;  -10.709;46943.219
584.624;32844.188;  -11.669;46792.227
585.206;32542.033;   -8.218;46557.250
585.789;33064.477;  -10.569;45793.773
586.371;35549.055;  -11.859;43836.391
586.953;36117.398;  -10.719;42972.492
587.536;37006.824;   -7.198;42487.211
588.118;37059.219;   -8.720;42086.414
588.700;33640.422;  -10.439;43389.930
589.282;32780.230;   -9.198;43646.039
589.864;33750.598;   -9.199;43438.109
590.446;34768.121;  -11.319;43151.926
591.028;34316.230;  -11.159;42781.867
591.610;33144.750;  -11.779;42839.098
592.192;30703.578;   -7.668;42820.402
592.774;29467.146;  -11.949;40724.277
593.356;28545.035;  -12.129;39874.789
593.937;27790.803;  -10.669;39980.648
594.519;30107.283;   -6.509;42069.633
595.101;31986.238;  -10.849;42976.031
595.683;31971.713;  -11.679;44084.441
596.264;33109.438;   -9.049;43478.797
596.846;32590.158;   -8.849;43803.672
597.427;32081.189;   -9.570;42986.934
598.009;33224.148;  -12.620;42832.219
598.591;33653.340;  -10.039;42580.086
599.172;33045.984;  -10.369;43061.805
599.753;33227.574;   -9.140;41691.469
600.335;34535.746;  -11.430;40692.520
600.916;32779.414;   -9.939;39982.422
601.498;30688.742;   -8.479;40318.617
602.079;29289.490;  -10.920;40670.609
602.660;29303.357;  -11.480;41450.898
603.241;30933.180;  -11.699;41137.738
603.823;29619.746;   -9.579;38868.797
604.404;29324.701;  -10.620;38182.785
604.985;30876.887;  -10.450;38078.047
605.566;30546.158;   -9.129;38056.633
606.147;30659.855;   -7.510;37020.418
606.728;32414.424;  -10.660;37883.359
607.309;31061.359;  -11.740;38748.273
607.890;30611.248;   -9.759;38850.230
608.471;30205.902;   -8.250;37457.918
609.051;29523.967;   -9.240;36066.457
609.632;28281.629;  -12.120;35991.074
610.213;28754.670;   -9.110;37402.641
610.794;29615.313;   -8.030;38383.363
611.374;29509.729;   -8.110;40562.387
611.955;29988.584;  -13.560;38533.727
612.536;31246.426;  -11.400;36951.789
613.116;31180.598;   -8.070;37197.891
613.697;31365.809;  -10.830;38411.125
614.277;29697.201;  -11.641;38673.938
614.858;30662.152;  -13.310;37075.863
615.438;30033.561;   -7.460;35092.906
616.019;27317.127;   -7.601;33666.301
616.599;27623.494;  -12.020;34189.023
617.179;29310.439;  -11.780;36952.047
617.760;30205.025;   -8.570;39582.574
618.340;31056.031;  -11.471;38943.977
618.920;32097.223;  -11.170;37594.156
619.500;32253.916;  -11.071;37866.938
620.080;31707.277;   -7.750;37869.043
620.660;32845.195;  -12.711;36868.617
621.241;34497.051;  -10.211;36352.309
621.821;34662.063;  -10.961;35459.520
622.401;33502.016;   -7.720;35207.414
622.980;32635.863;   -8.981;35980.422
623.560;31236.869;   -9.331;37351.328
624.140;30060.309;   -9.850;34388.582
624.720;24952.410;   -7.451;32368.764
625.300;21425.936;   -9.070;32638.629
625.880;24851.734;  -12.601;34599.035
626.459;29007.627;  -11.751;36831.738
627.039;32095.029;   -9.281;38299.098
627.619;32094.412;   -8.801;38289.574
628.198;30418.662;  -12.071;37220.695
628.778;29281.039;   -9.461;37632.563
629.357;30011.791;   -8.491;38003.012
629.937;30183.773;   -9.721;38402.039
630.516;29628.895;   -9.951;37868.801
631.096;29149.395;  -11.731;35760.410
631.675;31836.365;   -8.572;35225.219
632.254;37059.895;  -11.282;35130.289
632.834;36617.547;  -13.322;35794.570
633.413;34714.840;  -10.301;35788.922
633.992;31784.045;   -8.582;34532.863
634.571;32495.813;   -8.352;33590.113
635.151;35171.855;  -11.912;34943.863
635.730;33723.195;  -10.511;35352.523
636.309;30434.926;   -7.731;35366.605
636.888;28112.574;   -9.952;36165.637
637.467;28920.152;  -11.672;37515.902
638.046;30542.432;   -8.901;39288.695
638.625;33569.594;   -7.912;38279.699
639.204;33285.922;  -10.022;37741.598
639.782;31955.727;  -12.252;38364.551
640.361;27920.568;  -10.041;36740.621
640.940;25143.703;  -11.161;34950.082
641.519;25856.117;   -9.701;34137.398
642.097;28856.000;  -11.271;35654.258
642.676;31867.016;   -8.651;35637.957
643.255;32721.930;   -8.711;36567.074
643.833;31799.914;   -9.581;37809.434
644.412;31934.521;  -13.711;37337.293
644.990;31132.984;  -11.811;37018.531
645.569;31291.703;   -9.411;36518.469
646.147;30571.623;  -10.291;36186.430
646.726;30155.779;  -12.401;36267.688
647.304;30932.609;  -10.411;36647.625
647.882;32648.006;   -9.651;39286.742
648.461;34530.617;   -9.631;39157.703
649.039;32679.623;  -11.881;35412.883
649.617;31588.115;   -9.661;34744.918
650.195;31036.748;   -9.301;35403.098
650.773;29605.998;  -10.511;35053.797
651.352;27425.314;  -11.521;33756.816
651.930;25281.533;  -12.211;31868.773
652.508;23628.137;   -9.171;33121.551
653.086;27451.832;   -9.371;33564.793
653.663;30225.133;  -13.161;34054.668
654.241;29234.680;  -13.031;35693.309
654.819;30897.570;   -9.371;36422.906
655.397;30800.475;  -10.511;38213.484
655.975;30392.783;  -10.371;39507.625
656.553;29852.668;  -10.051;39498.223
657.130;28314.352;  -10.061;40395.480
657.708;27943.652;   -9.561;39242.020
658.286;28076.545;  -11.511;38920.020
658.863;29083.150;  -10.261;40202.898
659.441;32462.652;   -7.531;39677.938
660.018;32387.682;   -9.501;40413.355
660.596;30993.383;  -13.301;39931.414
661.173;32735.730;  -11.211;39604.531
661.750;33126.289;   -9.951;39700.070
662.328;32260.852;   -9.390;39292.809
662.905;31280.381;  -11.330;38235.648
663.482;26593.410;   -9.050;36212.305
664.060;24698.686;   -8.240;35944.945
664.637;27779.447;  -10.050;35170.785
665.214;29357.010;  -11.760;34197.523
665.791;30721.742;  -10.530;34549.520
666.368;29687.992;   -9.690;35118.578
666.945;30373.475;   -9.320;36019.418
667.522;31836.662;  -11.860;36048.438
668.099;31684.617;  -10.770;36243.914
668.676;30468.645;   -6.260;35958.875
669.253;29080.398;   -7.000;37384.730
669.830;29610.818;  -10.190;36779.629
670.407;29594.873;   -9.550;35231.289
670.984;29653.275;   -9.260;35544.270
671.560;30121.492;   -9.280;35466.867
672.137;29013.240;  -11.810;34280.863
672.714;29910.268;  -11.490;34632.863
673.290;31029.766;   -7.740;35135.422
673.867;31309.363;  -10.660;36114.480
674.443;30970.498;  -12.230;36152.859
675.020;28889.463;  -10.450;35327.238
675.596;29943.102;   -9.260;35795.176
676.173;30606.594;  -10.780;35430.355
676.749;30265.238;  -13.690;33549.516
677.326;30169.012;  -11.980;32210.012
677.902;30258.787;   -8.630;32068.871
678.478;29502.867;  -10.730;32583.891
679.054;28736.129;  -10.520;32088.928
679.631;29060.391;  -11.920;30978.848
680.207;30424.564;   -7.490;33160.887
680.783;31925.133;   -9.860;35570.363
681.359;31126.656;  -13.380;36125.184
681.935;30868.848;  -12.480;35240.922
682.511;30460.875;   -7.900;34429.961
683.087;30773.900;   -7.710;34463.680
683.663;30266.141;  -11.480;34648.898
684.239;28766.574;  -14.090;34546.457
684.815;28085.193;   -7.560;35586.375
685.390;28273.758;   -9.910;35821.895
685.966;28758.188;  -11.159;35085.871
686.542;31354.563;  -11.169;34198.230
687.118;33512.016;   -5.959;32847.707
687.693;33734.625;  -10.329;32794.027
688.269;33417.559;  -12.059;33072.367
688.844;31610.420;  -10.909;33141.664
689.420;29613.641;   -8.019;33965.742
689.995;27669.779;   -8.399;34655.523
690.571;26277.791;  -10.949;33576.742
691.146;26376.342;   -9.619;32657.219
691.722;26042.934;   -8.999;32526.979
692.297;26145.098;  -11.589;33014.617
692.872;27791.799;  -11.739;34012.254
693.448;27365.676;  -11.059;34237.434
694.023;26403.744;  -10.139;34142.672
694.598;28466.813;   -9.029;34132.031
695.173;29106.027;  -13.319;34205.250
695.748;28240.029;  -10.169;32882.488
696.323;27979.520;   -8.339;32864.906
696.898;28137.678;   -8.169;33170.004
697.473;28207.201;  -12.309;32432.984
698.048;27526.656;  -10.989;31649.303
698.623;27422.898;   -9.329;30778.141
699.198;29205.143;   -9.849;31140.119
699.773;30366.521;  -12.329;31764.299
700.348;28953.666;  -10.389;31780.816
700.922;28729.375;   -9.269;32046.375
701.497;29432.016;   -9.329;32603.574
702.072;29566.830;  -10.789;34799.871
702.646;28454.148;  -10.839;35793.172
703.221;26679.799;   -9.099;35201.590
703.795;28695.014;  -10.939;34764.527
704.370;29047.820;  -12.859;34307.367
704.944;29205.793;  -11.559;33509.887
705.519;29933.262;   -7.939;31388.584
706.093;31321.275;  -10.499;31340.104
706.668;31454.660;  -11.289;32630.281
707.242;30315.883;  -11.509;32728.779
707.816;28989.031;   -9.639;32947.238
708.390;27423.285;  -11.429;33277.855
708.965;28104.436;  -11.869;33834.336
709.539;28428.598;  -11.689;33709.273
710.113;28558.031;  -10.478;33044.313
710.687;27865.172;  -10.228;31953.992
711.261;26189.785;  -13.698;30505.949
711.835;26168.447;  -13.378;30262.369
712.409;26923.682;   -9.698;31254.447
712.983;28832.445;  -11.898;32754.986
713.557;29923.305;  -15.138;34018.824
714.131;29642.891;  -14.098;34579.625
714.704;28692.193;   -9.958;33890.262
715.278;26343.346;  -10.028;33531.102
715.852;25309.648;  -11.148;33601.660
716.425;26306.357;   -9.068;33515.117
716.999;27323.129;  -10.038;33185.555
717.573;28261.750;   -9.798;33905.996
718.146;29244.305;  -12.378;35199.293
718.720;29068.635;  -11.918;35060.551
719.293;28687.500;   -8.088;34973.230
719.867;31665.988;  -10.888;36394.449
720.440;31347.400;  -11.938;36663.008
721.013;29415.484;  -12.818;35102.426
721.587;27896.328;  -10.298;33985.266
722.160;26786.875;  -10.048;33524.965
722.733;25909.057;  -12.108;32987.043
723.306;26357.213;  -10.818;33066.301
723.880;28405.613;   -8.908;33399.500
724.453;30150.596;   -9.878;33468.297
725.026;29279.902;  -11.188;33816.637
725.599;26858.574;  -11.678;32797.996
726.172;27268.191;   -9.618;33187.434
726.745;28430.430;   -8.258;35136.613
727.318;29899.658;  -12.978;35751.730
727.891;30366.584;  -12.148;35890.430
728.463;29737.348;   -8.968;34822.090
729.036;28456.797;  -10.188;32895.086
729.609;29006.469;  -11.788;31823.225
730.182;26108.137;  -11.788;31445.283
730.754;23582.734;  -10.268;32373.223
731.327;23773.004;   -9.998;33676.820
731.900;24196.242;  -12.228;33417.000
732.472;25264.451;  -13.848;31978.498
733.045;26902.680;   -8.698;30368.777
733.617;27019.783;  -10.607;30574.215
734.190;27123.314;  -11.507;31280.975
734.762;24430.541;  -13.647;31674.412
735.334;22587.449;   -9.767;31247.291
735.907;23103.920;   -9.897;29876.211
736.479;23249.521;  -11.637;29808.488
737.051;22863.008;   -9.567;30233.547
737.623;23480.162;   -8.187;31469.086
738.195;24144.965;  -11.187;31784.225
738.768;26418.287;  -12.337;32120.523
739.340;26856.104;  -12.227;32094.342
739.912;25721.572;  -11.057;31312.680
740.484;24404.566;  -10.207;31946.238
741.056;23043.229;  -10.047;32984.059
741.628;24399.818;  -13.627;33897.715
742.199;26641.645;   -7.177;33213.016
742.771;25142.711;  -10.797;31369.113
743.343;22829.469;  -11.997;31865.473
743.915;21909.064;  -12.867;32388.631
744.487;21980.711;   -7.617;31079.568
745.058;22011.955;   -9.557;30570.107
745.630;22547.063;   -9.877;29970.127
746.201;23545.459;  -14.177;29186.766
746.773;24095.689;   -9.237;28805.723
747.344;24049.295;   -9.847;29591.223
747.916;22549.762;  -11.657;31412.201
748.487;22724.529;  -10.587;32194.898
749.059;24045.852;   -8.707;32533.719
749.630;24959.574;  -10.537;32158.518
750.201;24222.990;  -11.687;30855.395
750.773;22401.516;  -11.647;28622.555
751.344;22148.053;   -7.147;28405.732
751.915;23107.467;   -9.757;28461.551
752.486;22991.959;  -12.427;27842.850
753.057;20916.863;  -12.227;27845.008
753.628;19732.795;  -10.417;27728.107
754.199;20729.174;  -11.767;27381.086
754.770;21747.189;  -11.187;25882.203
755.341;21907.660;  -10.507;25886.184
755.912;21934.313;   -9.387;26050.861
756.483;21397.934;  -10.647;26798.779
757.054;19566.309;  -11.837;27048.238
757.625;18143.689;  -12.716;26294.838
758.195;18045.189;   -9.666;26142.076
758.766;17882.344;   -8.656;26392.234
759.337;18529.311;  -12.856;26334.594
759.907;20109.381;  -13.366;27579.652
760.478;20988.025;   -8.576;28352.770
761.048;20282.082;  -10.526;27325.088
761.619;19304.975;  -11.116;26460.428
762.189;19459.727;  -12.136;26029.826
762.760;20674.404;   -9.456;26430.145
763.330;21782.953;   -7.136;26670.902
763.900;21260.939;  -11.786;26603.021
764.471;18632.828;  -11.546;25542.740
765.041;17113.609;   -8.096;24358.459
765.611;17018.787;   -8.876;23991.297
766.181;17478.441;  -12.196;24470.236
766.751;18677.480;  -11.636;24845.975
767.321;18386.107;  -10.156;24533.633
767.891;16230.337;  -11.766;24916.492
768.461;15669.443;  -14.936;24776.771
769.031;16225.677;  -12.356;24757.988
769.601;17807.525;   -7.526;24181.088
770.171;17775.010;  -10.766;23670.387
770.741;16999.553;  -13.176;22960.045
771.311;17243.139;  -10.616;22917.523
771.880;17720.600;   -9.576;23562.941
772.450;17542.842;  -10.336;24216.500
773.020;17579.201;  -13.516;24140.398
773.589;16855.992;  -13.466;24414.857
774.159;16182.544;   -8.686;23858.717
774.729;15729.982;   -9.476;22942.135
775.298;15246.357;  -13.666;22324.033
775.867;14814.133;  -11.716;21140.313
776.437;14942.787;   -9.906;20838.092
777.006;14734.857;  -12.166;20599.510
777.576;14506.792;  -12.356;20508.809
778.145;14598.981;  -11.646;20732.947
778.714;14591.310;   -8.226;21062.465
779.283;13995.993;   -9.556;20949.664
779.853;13497.518;  -14.116;20508.623
780.422;13895.031;  -11.506;20649.082
780.991;13528.515;   -9.556;21527.520
781.560;12313.008;   -9.095;22632.658
782.129;12049.870;  -12.135;23048.277
782.698;12017.468;  -10.865;23438.555
783.267;11608.277;   -9.335;23267.734
783.836;11576.263;  -11.045;22415.133
784.404;12593.835;  -13.865;20443.152
784.973;13216.611;  -13.095;19699.150
785.542;13294.376;  -11.575;19763.828
786.111;13204.362;   -9.705;20341.408
786.679;12646.465;  -12.105;20207.967
787.248;12332.146;  -12.455;19516.465
787.817;12155.896;  -11.535;18900.363
788.385;11752.034;   -9.765;17879.121
788.954;11167.074;  -14.005;17658.301
789.522;10577.217;  -11.955;17788.879
790.090;11021.285;  -10.135;18118.277
790.659;11551.349;  -10.975;18338.736
791.227;11072.864;  -13.375;18508.615
791.795;11458.956;  -12.375;17898.254
792.364;11755.277;  -10.725;17295.133
792.932;12045.661;   -9.715;16822.051
793.500;12370.059;  -12.675;17040.148
794.068;12710.814;  -13.495;17179.787
794.636;12843.241;  -10.885;16664.246
795.204;12217.919;  -11.045;16524.545
795.772;12253.987;  -13.175;17274.564
796.340;11774.137;  -12.445;17891.002
796.908;11553.871;   -9.735;17648.561
797.476;11446.258;   -9.815;17064.080
798.044;11006.319;  -13.985;16672.777
798.612;10247.053;  -13.115;17023.996
799.180; 9803.437;  -10.185;16561.615
799.747; 9621.965;   -9.055;15962.773
800.315; 9354.865;  -12.385;15296.992
800.883; 9089.906;  -15.035;14801.771
801.450; 9196.960;  -10.365;14534.430
802.018; 9301.249;   -9.855;14173.248
802.585; 9351.229;  -11.905;14029.547
803.153; 9379.251;  -11.585;13836.846
803.720; 9212.634;   -9.095;13567.324
804.287; 8729.281;   -9.135;13360.622
804.855; 8280.247;  -11.604;13681.981
805.422; 8164.059;  -11.794;13536.560
805.989; 8206.951;  -10.734;13355.958
806.556; 8438.266;  -10.444;13747.896
807.124; 8749.391;  -12.764;13987.376
807.691; 8713.280;  -12.964;14038.674
808.258; 8482.482;  -11.134;14120.152
808.825; 8053.021;   -9.854;13860.111
809.392; 8116.064;  -10.504;13268.790
809.959; 7696.198;  -13.054;12680.389
810.526; 7266.058;   -8.294;12427.308
811.093; 7279.571;   -8.394;12030.105
811.659; 7840.860;  -12.304;11653.664
812.226; 8341.141;  -13.944;11637.183
812.793; 8044.652;  -10.484;11611.521
813.360; 7397.603;  -10.144;11885.181
813.926; 7090.129;  -11.684;12770.539
814.493; 6911.432;  -13.644;12677.638
815.060; 6545.834;   -9.724;11974.336
815.626; 6545.680;   -9.854;11594.715
816.193; 6939.593;  -13.254;11579.474
816.759; 6943.310;  -13.204;11666.972
817.325; 6976.353;   -9.434;11325.530
817.892; 7340.249;  -10.134;11105.369
818.458; 7748.788;  -13.474;10843.928
819.024; 7342.990;  -11.854;10714.406
819.591; 7043.075;  -10.244;10469.165
820.157; 6882.032;  -10.704;10235.523
820.723; 6411.355;  -12.324;10847.563
821.289; 6125.185;   -9.444;11040.980
821.855; 6026.216;   -8.374;10357.100
822.421; 5917.028;  -10.234; 9978.918
822.987; 5842.707;  -13.294; 9754.177
823.553; 5508.318;  -10.884;10065.755
824.119; 5348.422;   -8.884;10036.294
824.685; 5490.093;   -6.784;10029.192
825.251; 5617.245;  -12.004;10199.230
825.816; 5574.140;  -11.474; 9820.189
826.382; 5316.294;   -9.174; 9297.248
826.948; 5493.263;   -9.214; 9381.347
827.513; 5871.810;  -10.774; 9450.726
828.079; 5697.401;  -11.924; 9472.444
828.645; 5122.307;  -10.543; 9292.643
829.210; 4994.137;  -10.533; 9065.341
829.776; 4972.065;  -10.753; 9132.620
830.341; 4847.493;  -10.173; 9092.878
830.906; 5023.740;  -10.743; 9078.557
831.472; 5358.890;  -11.113; 8534.535
832.037; 5125.708;  -10.603; 8677.874
832.602; 4595.571;  -13.323; 8628.692
833.167; 4336.064;  -10.823; 8879.031
833.733; 4267.245;  -10.113; 9189.790
834.298; 4394.313;  -13.583; 9052.608
834.863; 4492.501;  -12.703; 8895.087
835.428; 4498.882;  -10.523; 8824.266
835.993; 4376.587;   -6.963; 8845.385
836.558; 4222.047;  -10.763; 8888.563
837.123; 4319.721;   -9.903; 8966.582
837.688; 4562.991;   -9.913; 8617.860
838.253; 4784.044;  -10.283; 8590.699
838.817; 4966.975;  -12.963; 8443.797
839.382; 4895.125;  -14.243; 8799.356
839.947; 4583.674;  -10.733; 8810.595
840.511; 4267.720;   -9.383; 8796.394
841.076; 3891.226;  -12.563; 8347.231
841.641; 3957.990;  -12.953; 8224.330
842.205; 4062.198;   -7.043; 8223.349
842.770; 4131.259;   -8.163; 8622.107
843.334; 4306.822;  -12.503; 8410.386
843.898; 4291.788;  -11.693; 8337.465
844.463; 4299.761;  -10.203; 8506.283
845.027; 4078.979;   -9.533; 8280.962
845.591; 3890.340;  -13.443; 8231.141
846.156; 3869.820;  -13.143; 7969.179
846.720; 3775.180;   -9.433; 7768.278
847.284; 3649.098;  -11.033; 7630.957
847.848; 3505.409;  -10.403; 7472.395
848.412; 3406.203;  -11.553; 7437.394
848.976; 3443.298;   -8.393; 7674.592
849.540; 3383.044;   -8.713; 7836.011
850.104; 3461.643;  -12.463; 7913.669
850.668; 3813.440;  -12.973; 7694.508
851.232; 3952.914;  -10.793; 7756.887
851.796; 3815.002;  -10.662; 7926.545
852.359; 3503.770;  -13.082; 7827.844
852.923; 3329.448;  -12.192; 7641.163
853.487; 3173.212;  -11.912; 7342.501
854.050; 3138.107;  -10.892; 7042.820
854.614; 3271.586;  -13.992; 7151.338
855.177; 3388.195;  -11.732; 7105.077
855.741; 3433.912;   -8.962; 6989.675
856.304; 3346.391;   -9.442; 6596.634
856.868; 3311.439;  -14.192; 6356.272
857.431; 3428.605;  -12.702; 6468.571
857.995; 3565.844;   -9.942; 6373.210
858.558; 3582.835;   -9.112; 6324.448
859.121; 3304.225;  -12.932; 6408.327
859.684; 3140.495;  -13.442; 6347.886
860.247; 3238.220;  -10.632; 6321.264
860.810; 3251.538;  -11.272; 6301.903
861.374; 3001.156;   -9.832; 6607.881
861.937; 2741.195;  -11.762; 6408.200
862.500; 2738.004;   -9.722; 6572.639
863.062; 2901.487;  -10.512; 6387.297
863.625; 3052.053;  -11.232; 6190.836
864.188; 3220.936;  -14.112; 5807.254
864.751; 3314.970;  -11.302; 5682.413
865.314; 3223.816;  -10.112; 5547.492
865.876; 3008.625;  -12.182; 5500.150
866.439; 2986.594;  -10.722; 5415.909
867.002; 2940.659;   -9.252; 5501.567
867.564; 2735.412;   -9.572; 5413.946
868.127; 2509.435;  -13.142; 5160.325
868.689; 2386.809;  -12.902; 5133.183
869.252; 2270.271;   -9.732; 5252.382
869.814; 2164.835;   -9.432; 5297.141
870.377; 2179.390;  -11.552; 5390.919
870.939; 2256.563;   -9.052; 5599.898
871.501; 2329.415;  -10.982; 5248.336
872.063; 2331.595;  -12.292; 4854.235
872.626; 2277.541;  -14.912; 4817.074
873.188; 2289.662;  -13.112; 4987.732
873.750; 2266.650;  -13.442; 4868.651
874.312; 2184.392;   -9.402; 4779.330
874.874; 2101.712;  -11.062; 4866.348
875.436; 2019.857;  -13.931; 4718.887
875.998; 2013.569;   -9.561; 4660.005
876.560; 2035.357;  -11.321; 4462.964
877.122; 1974.152;  -12.221; 4145.042
877.683; 1874.942;  -12.191; 4056.481
878.245; 1800.792;  -12.101; 3950.740
878.807; 1843.614;   -8.971; 4058.958
879.369; 1873.584;  -12.071; 3954.677
879.930; 1783.323;  -14.621; 3941.495
880.492; 1722.306;  -10.311; 4067.014
881.053; 1692.438;  -10.901; 3859.633
881.615; 1584.816;  -14.411; 3776.071
882.176; 1487.708;  -13.761; 3734.750
882.738; 1440.262;   -9.181; 3678.489
883.299; 1417.586;  -11.791; 3405.407
883.860; 1421.855;  -13.121; 3351.106
884.422; 1442.717;  -11.211; 3394.044
884.983; 1459.770;  -10.091; 3166.443
885.544; 1436.437;   -8.461; 3189.802
886.105; 1323.854;  -12.361; 3160.360
886.666; 1095.090;  -14.141; 3093.059
887.227;  823.363;  -11.361; 2941.957
887.788;  630.869;  -11.401; 2974.836
888.349;  545.608;  -13.791; 2721.214
888.910;  550.361;  -13.191; 2696.493
889.471;  584.172;   -9.881; 2560.172
890.032;  606.631;   -9.881; 2558.190
890.593;  622.652;  -10.371; 2567.669
891.153;  632.634;  -13.301; 2460.307
891.714;  617.397;  -11.431; 2372.046
892.275;  604.715;  -11.291; 2309.505
892.835;  587.101;  -11.471; 2382.543
893.396;  550.167;  -11.541; 2295.502
893.956;  505.984;  -11.181; 2162.420
894.517;  475.724;  -11.741; 2125.439
895.077;  476.804;  -11.671; 2086.978
895.638;  480.524;  -11.311; 2126.316
896.198;  457.308;   -9.831; 1838.275
896.758;  420.486;   -8.421; 1892.813
897.319;  395.579;  -12.351; 1792.232
897.879;  382.318;  -13.511; 1762.751
898.439;  358.407;  -12.001; 1661.149
898.999;  335.772;  -10.180; 1781.468
899.559;  328.567;  -12.030; 1703.347
900.119;  323.896;  -15.710; 1537.525
900.679;  320.563;   -8.900; 1638.384
901.239;  307.668;   -8.340; 1527.902
901.799;  299.731;  -13.910; 1456.441
902.359;  293.393;  -13.460; 1357.140
902.919;  286.930;  -11.490; 1331.118
903.479;  274.805;  -12.110; 1317.257
904.038;  258.157;  -11.720; 1262.595
904.598;  242.595;  -13.610; 1152.034
905.158;  238.711;  -11.040; 1240.893
905.717;  232.182;  -10.900; 1233.691
906.277;  222.078;  -15.080; 1217.330
906.836;  210.138;  -13.380; 1222.408
907.396;  200.352;  -10.780; 1193.047
907.955;  193.472;   -8.500; 1182.526
908.515;  188.774;  -12.760; 1099.364
909.074;  183.058;  -11.900; 1092.863
909.633;  178.270;   -8.950; 1069.121
910.192;  174.939;   -8.770; 1196.460
910.752;  170.534;  -12.390; 1029.960
911.311;  166.704;  -13.680; 1009.780
911.870;  163.964;  -12.370;  971.460
912.429;  165.654;  -10.900; 1094.080
912.988;  164.910;  -11.690; 1081.060
913.547;  160.478;  -13.240;  940.380
914.106;  155.366;  -11.990;  999.420
914.665;  152.041;   -9.990;  984.020
915.224;  152.109;  -12.880; 1035.760
915.782;  152.469;  -12.350;  922.560
916.341;  150.805;   -9.110; 1049.840
916.900;  147.112;   -9.270;  925.260
917.458;  146.029;  -13.240;  884.220
918.017;  145.106;  -13.550;  942.600
918.576;  145.262;  -12.320;  904.440
919.134;  142.168;  -11.490;  837.980
919.693;  141.861;  -13.670;  893.060
920.251;  139.605;  -15.470;  876.500
920.809;  138.081;  -11.290;  839.580
921.368;  137.963;  -10.210;  885.360
921.926;  137.913;  -12.140;  842.940
922.484;  136.186;  -13.080;  903.360
923.042;  135.663;  -11.720;  880.340
923.601;  138.726;   -7.480;  998.680
924.159;  136.987;  -11.570;  935.560
924.717;  133.254;  -13.840;  841.080
925.275;  133.154;  -10.640;  903.240
925.833;  131.840;  -11.540;  779.320
926.391;  134.926;  -12.960;  938.380
926.949;  132.867;  -14.130;  857.680
927.506;  132.437;  -11.750;  903.500
928.064;  132.807;  -10.250;  877.580
928.622;  132.216;  -13.030;  880.100
929.180;  131.785;  -13.400;  814.180
929.737;  132.892;  -10.700;  808.540
930.295;  136.503;  -10.070;  928.480
930.853;  139.058;  -11.960;  849.100
931.410;  139.473;  -13.120;  821.120
931.968;  137.793;  -10.770;  940.660
932.525;  137.233;  -10.680;  909.380
933.082;  138.975;  -13.130;  811.440
933.640;  139.436;  -13.210;  925.900
934.197;  136.586;  -11.060;  886.360
934.754;  138.531;   -9.580;  897.780
935.312;  142.018;  -14.000;  863.340
935.869;  145.757;  -10.710; 1012.980
936.426;  145.903;   -9.860;  872.800
936.983;  147.087;   -9.710;  889.020
937.540;  146.882;  -13.990;  838.280
938.097;  145.097;  -14.040;  940.120
938.654;  145.424;  -10.310;  898.860
939.211;  147.879;  -10.560;  952.480
939.768;  151.797;  -13.900;  915.420
940.324;  155.567;  -14.760;  904.200
940.881;  155.745;  -10.370;  878.500
941.438;  157.126;   -8.260; 1021.200
941.995;  153.159;  -12.540;  992.560
942.551;  149.495;  -14.670;  875.620
943.108;  149.831;  -10.450;  937.920
943.664;  152.431;  -10.750;  869.340
944.221;  156.604;  -11.550; 1088.140
944.777;  153.561;  -14.770;  869.680
945.334;  153.942;  -12.820;  884.840
945.890;  155.451;  -10.130;  946.480
946.446;  156.139;  -13.470;  947.020
947.003;  157.044;  -12.120;  964.940
947.559;  159.926;   -9.980; 1063.040
948.115;  159.549;   -9.080; 1026.540
948.671;  158.908;  -10.830;  967.300
949.227;  155.899;  -12.440;  859.560
949.783;  153.279;  -12.910;  858.900
950.339;  154.612;  -10.270;  991.000
950.895;  155.453;  -13.630; 1023.840
951.451;  154.109;  -15.100;  925.280
952.007;  153.648;  -11.330;  998.540
952.563;  153.795;  -10.580;  937.780
953.118;  153.084;  -13.440;  904.940
953.674;  152.207;  -12.710;  935.780
954.230;  150.734;  -10.350;  949.640
954.785;  149.794;   -9.190;  936.640
955.341;  148.137;  -11.200;  998.160
955.897;  146.178;  -16.560;  834.660
956.452;  146.537;  -12.570;  953.840
957.008;  146.788;   -7.970; 1083.640
957.563;  144.685;  -11.940; 1009.540
958.118;  139.865;  -13.450;  877.700
958.674;  139.486;  -12.030;  946.780
959.229;  140.994;   -9.410; 1013.980
959.784;  139.637;  -12.000;  832.400
960.339;  138.554;  -14.780; 1001.280
960.894;  134.938;   -9.860;  963.760
961.449;  130.959;   -9.970;  859.960
962.004;  131.360;  -10.900; 1212.840
962.559;  125.384;  -13.150;  860.140
963.114;  122.562;  -13.740;  742.480
963.669;  122.506;   -9.820;  915.500
964.224;  120.034;  -13.890;  874.340
964.779;  119.820;  -12.600;  828.420
965.334;  120.127;  -10.950; 1017.860
965.888;  119.611;  -11.170;  875.360
966.443;  122.755;  -12.540;  972.380
966.998;  122.402;  -15.780;  819.460
967.552;  120.488;   -9.760;  908.380
968.107;  117.426;   -9.060;  868.300
968.661;  119.409;  -11.950;  922.440
969.216;  119.649;  -12.800;  856.280
969.770;  118.083;  -11.210;  917.200
970.324;  118.094;  -11.610;  923.140
970.879;  115.850;  -11.370;  947.180
971.433;  112.209;  -12.540;  952.720
971.987;  106.484;  -11.320;  895.340
972.541;  102.662;  -10.720;  917.100
973.095;  103.882;   -9.680; 1009.460
973.649;  101.974;  -11.440;  809.480
974.203;  100.534;  -11.210;  829.040
974.757;  100.944;  -10.240;  855.220
975.311;  101.803;  -13.720;  872.600
975.865;  100.488;  -13.770;  881.820
976.419;   98.768;  -11.690;  857.400
976.973;   98.334;   -9.510;  849.620
977.526;  100.459;  -12.620;  949.920
978.080;   99.121;  -12.010;  796.780
978.634;   99.873;  -10.170;  921.320
979.187;   97.777;   -9.020;  905.400
979.741;   95.455;   -9.820; 1018.380
980.294;   91.397;  -14.870;  789.160
980.848;   87.999;  -12.380;  717.220
981.401;   90.683;  -10.350;  816.540
981.955;   93.313;  -13.720;  844.300
982.508;   92.179;  -11.490;  746.340
983.061;   91.267;  -10.000;  915.260
983.615;   88.460;  -11.480;  798.800
984.168;   85.854;  -13.220;  770.080
984.721;   85.126;  -13.960;  880.760
985.274;   83.035;  -10.870;  867.500
985.827;   82.112;   -9.790;  834.220
986.380;   80.854;  -13.120;  721.340
986.933;   79.880;  -12.450;  864.800
987.486;   77.685;  -10.210;  861.920
988.039;   76.598;   -8.430;  863.100
988.591;   75.560;  -10.520;  893.260
989.144;   73.003;  -14.860;  737.260
989.697;   71.581;  -13.080;  758.740
990.250;   72.407;  -10.150;  858.100
990.802;   71.803;  -13.430;  755.860
991.355;   72.888;  -12.750;  974.880
991.907;   70.432;  -12.040;  864.320
992.460;   67.976;  -11.330;  753.760
993.012;   67.136;  -13.610;  749.540
993.565;   65.764;  -13.460;  711.360
994.117;   66.878;   -9.360;  950.780
994.669;   63.724;  -11.300;  701.320
995.221;   62.490;  -13.540;  791.920
995.774;   60.309;  -13.430;  787.580
996.326;   58.327;  -12.520;  740.220
996.878;   58.787;  -10.950;  838.420
997.430;   57.055;  -14.300;  699.860
997.982;   55.946;  -13.760;  750.140
998.534;   54.610;  -11.530;  739.060
999.086;   53.769;  -10.310;  738.220
999.638;   53.727;  -12.530;  661.380
1000.190;   51.930;  -11.840;  699.320
1000.741;   51.772;  -10.260;  742.700
1001.293;   51.406;   -8.860;  686.020
1001.845;   50.283;  -13.700;  676.640
1002.396;   50.753;  -12.100;  743.400
1002.948;   49.592;  -12.760;  737.400
1003.500;   47.509;  -10.380;  723.780
1004.051;   49.515;  -11.900;  907.580
1004.603;   46.765;  -12.250;  791.820
1005.154;   43.318;  -13.210;  608.980
1005.705;   41.834;  -10.950;  723.960
1006.257;   42.586;  -13.880;  707.220
1006.808;   41.504;  -12.840;  685.460
1007.359;   40.424;  -10.570;  763.240
1007.910;   39.165;   -9.620;  646.640
1008.461;   40.403;  -13.630;  732.940
1009.013;   38.941;  -17.200;  588.340
1009.564;   39.336;  -10.200;  793.520
1010.115;   37.379;  -12.570;  597.040
1010.665;   37.191;  -15.150;  602.160
1011.216;   37.562;  -14.480;  667.920
1011.767;   36.777;  -11.340;  697.920
1012.318;   36.512;   -9.780;  736.980
1012.869;   36.001;  -12.380;  679.000
1013.419;   35.673;  -15.560;  603.120
1013.970;   35.067;  -11.010;  666.640
1014.521;   34.227;  -11.610;  620.620
1015.071;   36.368;  -13.450;  670.380
1015.622;   35.712;  -13.870;  635.460
1016.172;   33.890;  -11.610;  596.820
1016.723;   33.051;  -12.120;  614.380
1017.273;   33.961;  -13.620;  604.160
1017.823;   33.853;  -14.140;  650.340
1018.374;   32.817;  -12.800;  611.760
1018.924;   32.960;  -12.340;  716.880
1019.474;   34.240;  -11.410;  718.880
1020.024;   32.089;  -14.770;  657.580
1020.574;   32.593;   -9.780;  726.160
1021.124;   32.355;   -8.560;  673.580
1021.674;   31.315;  -15.190;  559.120
1022.224;   32.696;  -13.530;  708.940
1022.774;   31.834;  -13.280;  668.820
1023.324;   32.272;  -10.690;  753.520
1023.874;   33.918;  -10.240;  875.760
1024.423;   31.385;  -12.540;  613.700
1024.973;   30.005;  -10.010;  610.760
1025.523;   29.422;  -10.550;  620.960
1026.072;   30.181;  -13.560;  606.420
1026.622;   29.624;  -15.120;  675.740
1027.172;   30.367;  -11.260;  715.660
1027.721;   28.489;  -11.410;  601.220
1028.270;   29.601;  -13.530;  663.400
1028.820;   29.871;  -13.680;  638.080
1029.369;   28.773;  -13.520;  612.700
1029.918;   28.559;  -10.980;  649.840
1030.468;   28.980;  -13.530;  564.780
1031.017;   29.389;  -13.170;  634.800
1031.566;   27.495;  -12.200;  608.900
1032.115;   27.728;   -9.960;  694.500
1032.664;   27.523;  -13.210;  596.480
1033.213;   28.687;  -12.500;  735.420
1033.762;   26.852;  -11.910;  635.620
1034.311;   26.449;   -9.640;  677.220
1034.860;   28.501;  -13.310;  691.000
1035.408;   28.305;  -11.830;  722.720
1035.957;   27.864;  -12.000;  719.540
1036.506;   24.539;  -11.690;  530.800
1037.055;   28.679;  -10.990;  844.320
1037.603;   27.060;  -15.120;  664.000
1038.152;   24.394;  -12.450;  534.760
1038.700;   25.309;  -10.560;  585.740
1039.249;   25.717;  -11.080;  681.220
1039.797;   26.606;  -12.540;  633.360
1040.345;   25.283;  -11.920;  705.420
1040.894;   24.838;  -11.410;  625.300
1041.442;   25.308;  -14.320;  632.200
1041.990;   23.816;  -16.240;  559.160
1042.538;   23.375;  -11.680;  536.180
1043.087;   22.904;  -10.760;  570.860
1043.635;   25.370;  -11.850;  670.500
1044.183;   23.990;  -15.480;  586.400
1044.731;   23.332;  -11.770;  576.000
1045.279;   22.324;  -13.090;  674.920
1045.827;   26.006;  -12.440;  892.400
1046.374;   23.038;  -13.840;  515.420
1046.922;   21.962;  -13.220;  590.580
1047.470;   23.199;  -10.230;  691.300
1048.018;   24.299;  -14.590;  647.960
1048.565;   23.860;  -12.050;  708.600
1049.113;   21.870;  -11.650;  557.000
1049.660;   21.922;  -10.510;  629.660
1050.208;   22.287;  -13.310;  675.640
1050.755;   21.946;  -15.900;  606.580
1051.303;   22.161;  -11.430;  686.820
1051.850;   20.962;   -8.480;  635.120
1052.397;   20.634;  -15.010;  473.960
1052.945;   20.651;  -13.960;  617.760
1053.492;   21.654;  -13.150;  741.840
1054.039;   20.811;   -9.630;  720.180
1054.586;   20.999;  -13.680;  557.240
1055.133;   21.468;  -14.570;  693.140
1055.680;   20.434;  -13.820;  646.620
1056.227;   19.703;  -11.730;  542.780
1056.774;   22.028;  -12.480;  794.980
1057.321;   20.354;  -13.930;  523.260
1057.868;   19.510;  -11.690;  651.320
1058.415;   19.188;   -9.520;  651.980
1058.961;   21.062;  -13.160;  678.940
1059.508;   20.237;  -12.920;  643.820
1060.055;   19.185;  -11.920;  581.780
1060.601;   19.690;  -11.500;  624.300
1061.148;   20.223;  -14.330;  616.820
1061.694;   18.891;  -16.870;  592.580
1062.241;   18.509;  -10.330;  596.320
1062.787;   18.436;  -10.620;  663.140
1063.334;   21.175;  -10.110;  808.560
1063.880;   19.029;  -13.400;  668.360
1064.426;   17.698;  -10.680;  706.820
1064.972;   17.814;   -9.920;  601.340
1065.518;   16.808;  -10.980;  566.640
1066.065;   18.165;  -14.890;  624.460
1066.611;   17.284;  -12.870;  598.800
1067.157;   18.204;  -12.950;  641.860
1067.703;   18.741;  -13.540;  668.480
1068.249;   18.308;  -13.540;  605.220
1068.794;   17.478;  -12.600;  626.880
1069.340;   15.822;  -10.620;  578.960
1069.886;   17.615;  -12.830;  590.700
1070.432;   16.210;  -14.870;  541.720
1070.977;   15.282;  -11.980;  601.080
1071.523;   16.133;   -8.200;  573.060
1072.068;   17.363;  -12.330;  582.000
1072.614;   16.506;  -16.370;  527.760
1073.160;   16.776;  -11.100;  687.040
1073.705;   15.708;  -10.480;  572.520
1074.250;   16.177;  -14.520;  559.900
1074.796;   17.385;  -11.460;  655.160
1075.341;   16.070;  -11.950;  664.100
1075.886;   15.528;  -11.460;  594.240
1076.431;   16.078;  -13.770;  649.880
1076.976;   15.907;  -12.680;  639.220
1077.521;   13.977;  -13.170;  583.080
1078.067;   13.841;  -10.860;  579.400
1078.612;   15.338;  -13.920;  661.620
1079.156;   15.796;  -13.880;  601.540
1079.701;   14.570;  -13.120;  693.260
1080.246;   15.088;   -9.940;  696.300
1080.791;   15.478;  -14.740;  625.020
1081.336;   15.191;  -13.750;  659.320
1081.880;   13.979;  -13.400;  649.680
1082.425;   13.084;  -12.220;  573.480
1082.970;   15.710;  -11.610;  717.040
1083.514;   14.842;  -13.580;  597.000
1084.059;   13.145;  -12.810;  586.720
1084.603;   12.890;  -12.320;  565.840
1085.147;   13.495;  -13.190;  645.220
1085.692;   15.291;  -12.480;  716.800
1086.236;   12.001;  -13.020;  503.140
1086.780;   14.389;   -9.190;  751.440
1087.325;   14.286;  -12.480;  654.620
1087.869;   13.645;  -12.450;  610.700
1088.413;   13.627;  -12.240;  705.040
1088.957;   10.531;   -9.020;  543.400
1089.501;   14.297;  -10.320;  766.640
1090.045;   13.541;  -12.720;  726.480
1090.589;   11.211;  -13.690;  569.920
1091.133;   11.505;  -10.020;  673.340
1091.676;   12.705;  -12.330;  591.940
1092.220;   12.244;  -14.970;  600.920
1092.764;   13.154;  -12.430;  706.960
1093.307;   11.485;   -9.800;  673.780
1093.851;   11.203;  -14.970;  556.540
1094.395;   12.140;  -15.310;  683.140
1094.938;   10.783;  -10.370;  632.520
1095.482;   10.941;  -11.050;  559.800
1096.025;   12.587;  -11.840;  710.880
1096.568;   13.174;  -12.840;  779.280
1097.112;    9.579;  -14.700;  508.180
1097.655;   11.148;   -8.720;  603.000
1098.198;   10.839;  -13.610;  600.180
1098.741;   10.610;  -13.350;  612.860
1099.285;   11.487;  -11.230;  657.300
1099.828;    8.588;  -11.840;  439.400
1100.371;   10.988;  -10.840;  608.160
1100.914;   11.579;  -14.190;  682.660
1101.457;   10.432;  -11.240;  679.900
1101.999;    8.434;  -11.270;  584.680
1102.542;   10.666;  -11.480;  641.440
1103.085;   10.148;  -11.750;  658.500
1103.628;   10.228;  -11.400;  762.060
1104.170;    8.791;  -10.490;  588.280
1104.713;   10.049;  -10.600;  646.700
1105.256;    9.340;  -14.360;  557.440
1105.798;    7.575;  -13.210;  499.980
1106.341;   10.314;  -10.270;  728.900
1106.883;    9.228;  -12.200;  521.340
1107.425;   10.078;  -13.110;  668.180
1107.968;    8.781;  -12.840;  612.380
1108.510;    8.441;   -6.480;  684.960
1109.052;    8.930;  -13.940;  612.620
1109.594;    8.809;  -13.690;  554.440
1110.136;    8.883;  -11.880;  643.220
1110.679;    7.571;   -9.500;  633.080
1111.221;    9.615;  -14.160;  604.460
1111.763;    8.543;  -13.980;  559.220
1112.304;    7.758;  -13.880;  547.140
1112.846;    8.130;  -12.210;  666.240
1113.388;   10.924;  -11.390;  942.180
1113.930;    8.538;  -14.540;  694.200
1114.472;    7.529;  -12.640;  606.540
1115.013;    5.996;  -11.620;  551.280
1115.555;    7.082;  -13.640;  587.100
1116.097;    6.517;  -15.380;  579.480
1116.638;    6.711;  -12.640;  684.600
1117.180;    6.450;   -9.850;  667.740
1117.721;    7.490;  -13.690;  568.580
1118.262;    8.235;  -12.680;  677.960
1118.804;    7.500;  -12.530;  637.340
1119.345;    5.611;  -11.690;  578.400
1119.886;    7.693;  -13.380;  704.040
1120.427;    6.367;  -14.070;  589.020
1120.969;    5.490;  -13.500;  597.920
1121.510;    5.112;  -11.480;  563.060
1122.051;    6.362;  -12.830;  723.580
1122.592;    6.173;  -14.290;  655.420
1123.133;    4.686;  -12.400;  547.940
1123.673;    5.962;  -10.130;  706.480
1124.214;    6.057;  -12.930;  612.460
1124.755;    6.195;  -14.380;  639.460
1125.296;    5.273;  -14.000;  627.320
1125.836;    5.954;  -10.070;  691.500
1126.377;    5.639;  -12.640;  599.660
1126.918;    6.414;  -12.960;  614.980
1127.458;    4.700;  -13.350;  622.220
1127.999;    5.228;  -10.750;  656.980
1128.539;    5.419;  -12.350;  694.240
1129.079;    5.484;  -14.860;  632.720
1129.620;    4.175;  -13.840;  558.100
1130.160;    4.010;  -12.330;  539.480
1130.700;    4.968;  -14.530;  640.840
1131.240;    6.049;  -12.530;  643.700
1131.781;    4.218;  -14.450;  619.680
1132.321;    3.625;   -9.790;  599.120
1132.861;    3.623;  -14.860;  564.200
1133.401;    4.061;  -14.290;  593.940
1133.941;    4.209;  -11.750;  626.280
1134.481;    3.255;   -9.920;  597.580
1135.020;    3.964;  -12.290;  609.160
1135.560;    4.706;  -11.650;  674.940
1136.100;    2.910;  -16.270;  501.160
1136.640;    2.665;  -10.890;  510.480
1137.179;    3.509;  -14.180;  537.960
1137.719;    3.963;  -16.250;  605.400
1138.258;    3.956;  -14.230;  587.360
1138.798;    3.053;   -9.090;  663.780
1139.337;    2.368;  -15.130;  482.840
1139.877;    3.161;  -13.680;  642.360
1140.416;    4.825;  -11.320;  878.060
1140.955;    1.776;  -10.860;  535.380
1141.494;    3.521;  -12.920;  669.280
1142.034;    3.267;  -13.930;  583.520
1142.573;    3.100;  -11.440;  646.280
1143.112;    1.572;  -12.000;  553.480
1143.651;    3.330;  -13.670;  536.480
1144.190;    4.445;  -12.730;  691.640
1144.729;    2.254;  -14.560;  607.420
1145.267;    1.927;  -11.830;  584.900
1145.806;    3.576;  -12.230;  637.040
1146.345;    2.568;  -14.130;  635.020
1146.884;    2.107;  -11.590;  622.500
1147.422;    1.001;  -12.550;  533.060
1147.961;    3.743;  -11.180;  708.460
1148.500;    3.887;  -11.510;  669.720
1149.038;    2.443;  -11.640;  632.500
1149.577;    1.757;  -10.130;  698.640
1150.115;    1.327;  -13.970;  452.280
1150.653;    2.104;  -14.520;  607.340
1151.192;    1.457;  -12.810;  552.920
1151.730;    1.265;   -9.100;  652.560
1152.268;    1.680;  -12.220;  589.520
1152.806;    2.124;  -14.140;  571.180
1153.344;    0.066;  -12.350;  577.640
1153.882;    1.376;   -8.980;  600.060
1154.421;    0.374;  -15.190;  470.620
1154.958;    1.423;  -15.210;  595.240
1155.496;    1.745;  -12.850;  645.280
1156.034;   -0.381;   -9.940;  721.880
1156.572;    2.254;  -13.570;  667.060
1157.110;    0.707;  -14.590;  473.940
1157.647;    0.593;  -13.030;  676.960
1158.185;   -0.824;  -12.140;  564.320
1158.723;   -0.888;  -14.390;  509.200
1159.260;    1.341;  -14.090;  701.700
1159.798;    0.511;  -11.920;  658.160
1160.335;   -0.486;  -11.110;  631.820

