
Integration time [ms]:   3.276
Averaging Nr. [scans]: 1000
Smoothing Nr. [pixels]: 0
Data measured with spectrometer [name]: 7414430SP
Wave   ;Sample   ;Dark     ;Reference
[nm]   ;[counts] ;[counts] ;[counts] 

288.544;  151.454;    7.793;  793.890
289.143;  155.416;    7.462;  681.602
289.742;  155.156;    8.602;  828.814
290.341;  140.605;    1.321;  789.841
290.940;  129.875;   -0.709;  730.702
291.538;  131.028;    0.881;  881.108
292.137;  131.560;    0.122;  792.581
292.736;  135.406;   -1.929;  975.101
293.335;  132.124;   -8.229;  735.086
293.934;  132.081;   -5.279;  781.677
294.532;  130.172;   -1.369; 1031.958
295.131;  117.796;   -7.641;  834.394
295.730;  117.307;   -8.420;  809.588
296.328;  116.094;   -5.611;  783.442
296.927;  116.341;   -5.781;  779.652
297.525;  117.311;   -6.361;  781.236
298.124;  108.083;  -11.382;  654.009
298.722;  111.334;   -7.641;  761.933
299.321;  109.831;   -6.811;  708.597
299.919;  107.646;   -6.991;  751.918
300.518;  104.854;  -10.362;  689.338
301.116;  107.176;   -9.581;  691.381
301.715;  105.535;   -4.891;  730.222
302.313;  105.728;   -8.801;  704.943
302.911;  100.664;   -8.522;  733.830
303.509;  105.159;   -6.171;  925.627
304.108;  103.621;   -7.311;  760.383
304.706;  103.062;   -8.321;  801.664
305.304;   97.741;  -10.222;  796.707
305.902;  101.856;   -6.021;  784.484
306.500;   97.476;   -4.971;  728.200
307.098;   96.596;   -7.061;  746.560
307.696;   94.909;   -8.801;  780.432
308.294;   95.342;   -6.411;  731.359
308.892;   97.470;   -2.901;  759.769
309.490;   93.291;   -5.041;  712.161
310.088;   92.245;   -5.002;  788.444
310.686;   96.451;   -2.041;  821.749
311.284;   91.658;   -2.351;  766.040
311.882;   89.664;   -4.422;  731.225
312.480;   87.062;   -4.192;  697.167
313.078;   88.393;   -1.172;  808.331
313.675;   88.510;   -2.601;  691.600
314.273;   83.727;   -1.312;  797.837
314.871;   83.888;   -3.942;  589.829
315.468;   81.297;   -2.802;  652.090
316.066;   84.311;   -0.701;  694.427
316.664;   76.555;   -4.362;  656.351
317.261;   81.637;   -2.872;  910.128
317.859;   76.251;   -2.022;  768.735
318.456;   77.209;   -0.531;  830.096
319.054;   72.468;   -3.912;  787.828
319.651;   71.757;   -4.752;  759.928
320.249;   70.876;   -2.602;  810.188
320.846;   68.420;   -0.821;  714.286
321.443;   66.002;   -4.642;  832.135
322.041;   62.343;   -5.002;  812.315
322.638;   60.964;   -3.982;  701.456
323.235;   61.189;   -3.411;  665.683
323.833;   59.490;   -7.361;  740.354
324.430;   54.318;   -8.611;  615.900
325.027;   55.273;   -4.061;  876.855
325.624;   55.595;   -4.031;  644.532
326.221;   52.412;   -7.481;  689.717
326.818;   51.827;   -5.281;  818.332
327.415;   55.933;   -7.460;  748.828
328.012;   54.366;   -5.510;  690.585
328.609;   53.881;   -7.880;  731.389
329.206;   51.262;   -8.331;  778.621
329.803;   51.801;   -5.121;  737.841
330.400;   54.824;   -4.510;  704.260
330.997;   55.714;   -6.441;  817.147
331.594;   54.040;   -8.831;  788.185
332.191;   59.636;   -7.621;  728.722
332.787;   62.512;   -4.591;  844.463
333.384;   60.654;   -7.412;  763.093
333.981;   60.009;   -8.293;  815.687
334.578;   62.373;   -7.052;  708.378
335.174;   65.219;   -3.102;  731.469
335.771;   65.430;   -5.943;  836.456
336.367;   62.340;   -7.393;  710.631
336.964;   65.463;   -4.063;  793.266
337.561;   63.421;   -3.813;  731.112
338.157;   58.631;   -4.654;  911.916
338.754;   57.060;   -7.934;  796.589
339.350;   55.280;   -4.414;  722.493
339.946;   57.091;   -4.664;  773.135
340.543;   48.223;   -6.375;  846.136
341.139;   43.557;   -9.815;  720.836
341.735;   41.538;   -4.526;  772.593
342.332;   39.627;   -4.895;  691.472
342.928;   40.421;   -4.295;  795.394
343.524;   33.987;   -5.476;  761.684
344.120;   31.065;   -5.856;  738.562
344.716;   33.591;   -2.155;  723.717
345.313;   32.158;   -6.275;  795.342
345.909;   26.360;   -8.815;  627.336
346.505;   27.537;   -5.305;  740.247
347.101;   29.193;   -2.674;  827.864
347.697;   29.231;   -4.344;  785.398
348.293;   23.389;   -9.975;  627.244
348.889;   24.649;   -5.774;  745.914
349.485;   23.996;   -5.004;  688.205
350.081;   24.596;   -4.704;  772.592
350.676;   20.077;   -6.635;  691.606
351.272;   23.947;   -4.504;  809.530
351.868;   23.660;   -3.914;  780.497
352.464;   20.890;   -9.044;  723.932
353.059;   17.876;   -8.314;  646.017
353.655;   20.422;   -7.024;  777.063
354.251;   21.668;   -5.343;  759.845
354.846;   17.063;   -8.604;  740.646
355.442;   14.588;   -6.945;  753.071
356.038;   16.014;   -7.564;  751.708
356.633;   16.304;   -5.814;  728.594
357.229;   14.019;   -7.364;  724.757
357.824;   13.101;   -8.024;  703.600
358.420;   12.535;   -9.384;  679.726
359.015;   11.608;   -5.104;  695.357
359.610;   13.507;   -6.854;  763.920
360.206;    7.629;  -10.185;  603.240
360.801;   10.364;   -7.054;  646.503
361.396;   12.033;   -5.034;  725.975
361.992;    7.361;   -8.284;  668.220
362.587;    5.022;   -8.625;  670.160
363.182;    6.879;   -7.674;  689.631
363.777;    7.929;   -5.164;  738.242
364.372;    8.002;   -8.604;  737.314
364.967;    3.685;   -9.055;  680.744
365.563;    7.452;   -6.114;  815.567
366.158;    5.159;   -5.814;  685.161
366.753;    5.368;   -7.854;  649.263
367.348;    4.272;   -7.804;  746.056
367.942;    4.074;   -7.954;  697.298
368.537;    2.264;   -4.984;  754.245
369.132;    2.826;   -8.564;  703.428
369.727;   -1.142;   -8.855;  638.079
370.322;    0.708;   -6.245;  580.186
370.917;   -0.117;   -6.425;  710.646
371.511;    2.841;   -6.294;  861.834
372.106;   -0.024;   -7.685;  776.964
372.701;   -3.857;   -7.335;  585.988
373.296;    2.170;   -4.564;  863.135
373.890;   -3.613;  -10.235;  647.840
374.485;   -5.048;   -7.885;  691.199
375.079;   -1.513;   -7.324;  738.685
375.674;   -0.188;   -3.494;  812.970
376.268;   -4.667;   -8.525;  691.759
376.863;   -9.296;  -10.086;  580.327
377.457;   -4.048;   -7.025;  662.490
378.052;   -5.224;   -3.585;  764.884
378.646;   -6.233;   -7.595;  741.167
379.240;   -6.320;   -8.335;  721.176
379.835;   -6.096;   -5.785;  636.978
380.429;   -7.574;   -4.335;  562.557
381.023;   -7.686;   -6.805;  779.205
381.617;   -9.650;   -9.195;  680.106
382.212;   -6.344;   -6.905;  685.303
382.806;   -5.698;   -3.745;  760.690
383.400;   -9.641;   -7.745;  672.281
383.994;  -10.438;   -9.765;  664.870
384.588;   -5.829;   -6.564;  697.701
385.182;   -5.970;   -5.344;  726.624
385.776;   -7.577;   -8.514;  706.875
386.370;  -10.307;   -9.555;  681.968
386.964;   -9.357;   -8.715;  684.155
387.558;   -7.467;   -6.174;  598.360
388.152;  -10.717;   -8.725;  681.959
388.745;   -9.006;   -7.965;  814.707
389.339;   -7.377;   -5.924;  747.642
389.933;   -6.918;   -5.524;  695.370
390.527;   -7.441;   -7.114;  859.029
391.120;  -13.486;  -10.725;  595.318
391.714;  -10.697;   -8.035;  711.633
392.308;   -7.542;   -3.574;  780.253
392.901;  -11.444;   -7.245;  642.460
393.495;  -13.235;   -9.285;  595.414
394.089;  -11.116;   -5.895;  760.452
394.682;  -11.082;   -4.295;  697.188
395.275;  -11.891;   -9.875;  719.927
395.869;  -13.680;   -8.485;  667.314
396.462;  -12.415;   -7.455;  616.609
397.056;   -7.948;   -5.424;  776.621
397.649;  -12.475;   -6.605;  731.575
398.242;   -9.380;   -8.224;  712.645
398.836;   -8.096;   -7.474;  766.408
399.429;  -10.965;   -7.094;  631.041
400.022;  -13.574;   -9.475;  665.902
400.615;  -11.452;   -7.145;  805.609
401.208;   -9.171;   -7.174;  691.451
401.802;  -11.319;   -5.515;  699.329
402.395;  -12.631;   -9.875;  683.502
402.988;  -13.424;   -8.845;  696.627
403.581;   -9.605;   -8.874;  646.878
404.174;   -8.368;   -5.324;  686.568
404.767;  -10.715;   -9.575;  638.583
405.360;  -13.131;  -10.965;  621.445
405.953;   -8.043;   -8.764;  759.034
406.545;   -7.460;   -7.514;  725.342
407.138;  -11.536;  -10.025;  618.350
407.731;  -10.101;  -10.034;  613.303
408.324;   -6.163;   -9.374;  660.554
408.917;   -7.374;   -6.534;  681.864
409.509;   -9.107;   -8.004;  740.396
410.102;  -10.452;   -9.875;  643.948
410.695;   -5.341;   -8.604;  665.758
411.287;   -6.370;   -6.794;  599.821
411.880;   -7.268;   -9.334;  585.421
412.472;  -10.466;  -10.254;  613.092
413.065;   -7.924;   -6.714;  629.408
413.657;   -4.591;   -7.234;  576.678
414.250;   -5.627;  -10.544;  646.681
414.842;   -6.922;   -9.744;  676.353
415.434;   -4.164;   -6.994;  570.463
416.027;   -0.501;   -5.893;  652.196
416.619;   -2.613;   -7.264;  713.400
417.211;   -2.720;  -10.374;  599.352
417.804;   -0.035;   -7.993;  628.499
418.396;   -3.769;   -7.234;  607.643
418.988;   -1.488;   -9.443;  659.238
419.580;   -4.354;  -10.724;  568.276
420.172;   -2.687;  -10.323;  536.196
420.764;    2.296;   -8.793;  672.482
421.356;    0.758;  -11.143;  636.898
421.948;   -0.297;   -8.293;  677.661
422.540;    4.876;   -7.893;  680.027
423.132;    4.736;   -7.082;  600.641
423.724;    0.709;   -8.653;  561.267
424.316;    2.438;  -10.213;  621.345
424.908;    6.205;   -9.762;  591.517
425.500;    7.006;   -5.572;  647.978
426.092;    7.469;   -8.422;  648.268
426.683;    6.803;   -9.283;  684.836
427.275;    8.842;   -7.852;  641.471
427.867;   11.599;   -5.272;  668.948
428.458;   11.840;   -7.682;  732.344
429.050;   10.139;  -10.612;  680.749
429.642;   12.481;   -9.882;  743.124
430.233;   12.722;   -6.962;  569.356
430.825;   13.793;   -6.842;  724.809
431.416;   11.604;   -9.672;  698.241
432.008;   14.943;   -6.552;  651.723
432.599;   16.091;   -6.891;  656.073
433.190;   12.310;  -10.912;  637.670
433.782;   12.104;  -11.172;  590.395
434.373;   19.593;   -6.061;  884.765
434.964;   18.018;   -8.251;  602.920
435.556;   15.558;   -9.722;  634.537
436.147;   19.685;   -9.082;  758.490
436.738;   19.135;   -8.041;  701.099
437.329;   24.184;   -7.341;  721.723
437.920;   17.704;   -8.162;  666.688
438.511;   17.992;  -11.802;  564.526
439.103;   23.520;  -10.191;  623.998
439.694;   24.921;   -7.601;  681.583
440.285;   26.450;   -8.541;  764.432
440.876;   24.753;   -9.751;  845.738
441.466;   24.717;   -9.401;  575.162
442.057;   28.716;   -7.760;  665.814
442.648;   28.316;   -9.971;  746.255
443.239;   26.442;  -11.001;  620.477
443.830;   31.140;   -7.990;  704.958
444.421;   32.928;   -7.910;  655.474
445.011;   29.983;   -8.131;  693.619
445.602;   30.182;   -7.111;  743.126
446.193;   30.924;  -10.920;  488.117
446.783;   36.059;   -6.500;  640.397
447.374;   31.581;   -8.671;  692.759
447.964;   31.623;  -10.781;  713.770
448.555;   39.818;   -9.650;  822.742
449.145;   36.485;   -8.660;  662.853
449.736;   38.114;   -8.990;  803.179
450.326;   38.641;   -9.500;  713.626
450.917;   42.567;   -8.680;  675.324
451.507;   41.736;   -7.520;  600.661
452.097;   42.426;   -8.590;  746.267
452.688;   44.150;  -11.340;  742.160
453.278;   43.289;  -10.100;  566.840
453.868;   48.572;   -6.019;  793.550
454.458;   45.503;   -9.440;  651.141
455.048;   46.542;  -10.560;  711.783
455.639;   48.392;  -11.799;  567.096
456.229;   51.849;   -6.899;  710.694
456.819;   53.391;   -7.389;  751.158
457.409;   53.788;  -11.119;  773.993
457.999;   56.886;   -9.289;  737.505
458.589;   56.682;   -6.139;  686.606
459.179;   56.733;   -8.729;  717.658
459.769;   54.910;   -9.789;  627.099
460.358;   59.421;  -10.259;  797.262
460.948;   59.473;   -7.299;  689.503
461.538;   61.680;  -10.289;  660.677
462.128;   58.734;  -11.269;  664.934
462.717;   65.860;   -9.368;  710.326
463.307;   68.703;   -7.908;  705.846
463.897;   64.859;   -9.599;  656.942
464.486;   64.364;   -9.769;  837.128
465.076;   68.177;   -8.048;  733.776
465.666;   72.023;   -9.358;  652.900
466.255;   70.102;   -7.919;  785.651
466.845;   69.417;  -11.689;  666.749
467.434;   72.274;   -7.818;  725.873
468.023;   72.611;   -7.678;  658.357
468.613;   71.444;  -10.939;  713.946
469.202;   75.228;  -10.118;  646.507
469.791;   78.528;   -9.108;  737.811
470.381;   81.223;   -6.058;  742.813
470.970;   80.599;  -10.428;  711.099
471.559;   80.653;  -10.268;  733.291
472.148;   84.360;   -8.448;  675.737
472.738;   86.869;   -6.917;  765.466
473.327;   86.610;  -11.978;  637.529
473.916;   86.352;  -11.888;  737.446
474.505;   90.765;   -9.437;  751.703
475.094;   93.532;   -6.747;  806.570
475.683;   92.794;   -9.367;  797.699
476.272;   93.718;  -12.637;  730.632
476.861;   97.430;  -10.027;  706.754
477.449;  102.913;   -8.716;  728.487
478.038;   97.334;   -9.577;  692.513
478.627;   99.216;   -9.718;  714.852
479.216;  105.872;   -8.947;  769.441
479.805;  108.173;   -6.256;  783.375
480.393;  109.144;   -7.937; 1008.945
480.982;  107.711;   -7.717;  874.501
481.571;  113.579;   -9.266;  858.333
482.159;  114.221;   -7.636;  705.386
482.748;  114.779;   -9.667;  821.385
483.336;  119.266;  -10.376;  858.209
483.925;  120.187;   -7.147;  774.373
484.513;  127.188;   -7.996;  758.962
485.102;  123.648;  -10.027;  810.965
485.690;  132.127;  -10.446; 1011.050
486.278;  134.498;   -8.446;  979.329
486.867;  135.641;   -6.356;  809.662
487.455;  137.501;   -9.136;  898.229
488.043;  138.931;  -10.646;  748.361
488.631;  147.886;   -7.456; 1005.079
489.220;  151.644;   -6.636;  908.626
489.808;  153.558;  -11.036;  741.415
490.396;  161.464;  -10.246;  914.645
490.984;  167.065;   -8.556;  830.161
491.572;  178.223;   -5.886;  940.315
492.160;  184.293;   -9.486;  919.081
492.748;  200.022;  -10.976;  884.341
493.336;  223.366;   -8.776; 1019.693
493.924;  251.862;   -5.465;  958.077
494.512;  284.566;   -9.986; 1066.638
495.100;  324.749;  -10.636; 1103.280
495.687;  379.317;  -10.885; 1206.373
496.275;  445.927;   -8.126; 1150.796
496.863;  516.909;  -10.586; 1281.171
497.451;  618.984;  -11.926; 1386.805
498.038;  764.635;  -10.885; 1556.729
498.626;  880.927;   -6.315; 1741.407
499.214; 1040.451;   -7.326; 2016.609
499.801; 1237.517;  -11.906; 2220.633
500.389; 1501.428;  -10.466; 2312.494
500.976; 1821.273;   -5.236; 2744.849
501.564; 2273.760;   -8.936; 3148.565
502.151; 2650.906;  -13.176; 3515.999
502.738; 3099.181;  -10.646; 3971.274
503.326; 3517.232;   -9.525; 4403.796
503.913; 3924.836;  -10.856; 5161.749
504.500; 4272.750;  -11.586; 5986.420
505.088; 4732.179;  -10.336; 6381.201
505.675; 5283.231;   -6.355; 6925.547
506.262; 5949.032;   -9.046; 7619.060
506.849; 6686.187;  -10.416; 8733.969
507.436; 7217.744;  -10.305; 9790.121
508.023; 7846.618;   -5.496; 9985.472
508.610; 8123.584;   -7.856;10434.618
509.197; 8821.668;  -10.097;11198.435
509.784;10255.344;  -10.886;12391.194
510.371;11368.901;   -9.315;13603.713
510.958;12165.354;   -9.936;14426.586
511.545;12946.929;   -9.326;15243.775
512.132;13820.648;  -10.075;15945.876
512.719;14344.638;   -7.796;16340.369
513.305;15320.984;  -10.606;18011.766
513.892;16044.755;  -11.486;19754.971
514.479;17464.309;   -9.126;20967.805
515.066;19263.201;   -6.026;22299.793
515.652;20700.877;   -8.466;22908.660
516.239;21882.061;  -10.886;23798.875
516.825;22899.236;  -11.496;25567.275
517.412;23813.115;   -5.796;28154.959
517.998;24689.285;  -10.506;28344.111
518.585;24992.744;  -10.076;27134.219
519.171;25394.047;   -8.315;27268.576
519.758;26616.879;   -8.596;28964.129
520.344;28774.576;   -8.466;30664.494
520.930;29206.143;  -11.006;32550.605
521.516;30452.527;  -10.495;35422.895
522.103;32951.805;   -5.526;38280.004
522.689;33626.238;   -8.746;37835.117
523.275;33429.066;  -11.376;37288.613
523.861;35071.598;  -11.156;37281.395
524.447;36548.555;   -8.135;37846.949
525.033;35943.566;   -7.896;38321.949
525.619;35957.742;  -12.476;38579.285
526.205;37528.129;   -9.516;40622.875
526.791;40773.898;   -6.926;42258.836
527.377;41074.012;   -8.346;42966.902
527.963;42688.121;   -8.717;42018.949
528.549;41633.066;  -11.016;42476.828
529.135;39929.898;   -8.536;41854.852
529.721;39072.457;   -9.666;41237.711
530.306;38475.156;  -10.066;41259.445
530.892;38310.758;  -11.356;41506.047
531.478;39869.328;   -6.596;43559.613
532.063;42684.711;   -8.836;47695.563
532.649;43575.426;  -10.047;50808.324
533.235;44498.152;   -9.746;51787.500
533.820;45095.730;   -6.566;52145.035
534.406;46352.406;  -10.817;51133.488
534.991;46095.668;   -9.416;49996.805
535.576;44668.582;   -9.036;48882.852
536.162;45381.027;   -6.156;46942.285
536.747;46438.168;  -11.607;45711.746
537.333;49639.684;  -11.787;48510.180
537.918;53595.914;  -12.437;50439.891
538.503;52553.160;   -7.196;50863.711
539.088;48636.285;  -10.556;50906.922
539.673;48304.402;   -8.767;52621.965
540.259;48229.938;  -10.026;52368.094
540.844;45565.059;   -7.416;50879.109
541.429;46817.488;   -9.467;52077.777
542.014;50124.371;   -9.527;52716.695
542.599;49932.852;   -9.946;52363.281
543.184;46933.699;   -7.927;53187.137
543.769;47888.848;   -9.297;54697.605
544.354;47601.992;  -10.127;53913.914
544.938;46448.250;   -9.267;49680.164
545.523;48772.262;   -6.506;47386.277
546.108;51508.363;   -9.787;49151.949
546.693;53576.754;  -11.587;51384.637
547.278;53333.551;  -10.986;51853.254
547.862;50449.484;   -8.206;51173.750
548.447;45867.313;  -10.067;51691.395
549.031;44857.492;   -9.637;52456.703
549.616;49682.727;   -9.926;52714.516
550.201;49361.676;   -6.347;52414.598
550.785;50265.109;   -7.917;52355.059
551.370;49274.707;  -10.867;54589.453
551.954;48654.793;   -9.047;58267.348
552.538;50124.688;   -7.827;59062.176
553.123;48415.594;  -10.287;58115.285
553.707;45497.488;  -12.178;56556.285
554.291;46186.785;   -8.717;56201.668
554.876;48618.867;   -7.457;55335.762
555.460;49266.219;  -10.387;54155.703
556.044;50992.297;   -9.618;53721.484
556.628;49416.582;  -11.567;53731.016
557.212;48138.523;   -8.097;54312.531
557.796;45913.609;  -11.077;53797.773
558.380;46256.160;  -11.108;56145.984
558.964;47285.105;   -9.057;57277.930
559.548;48631.012;   -6.977;56459.641
560.132;46266.164;  -11.457;54434.543
560.716;44527.281;  -11.378;54800.617
561.300;45226.668;   -9.577;57606.945
561.884;46363.008;   -7.127;58972.445
562.467;44739.152;   -7.118;57327.570
563.051;44464.355;  -13.358;54962.434
563.635;45452.203;  -10.178;52594.473
564.219;45384.977;   -7.837;50610.410
564.802;45994.813;  -11.398;49551.180
565.386;46199.609;  -12.788;48370.953
565.969;45967.281;   -9.077;48178.871
566.553;44262.848;   -6.207;49957.305
567.136;44846.520;   -8.568;50369.594
567.720;41451.684;  -11.868;49492.004
568.303;39419.109;   -8.268;50616.352
568.887;39214.605;   -8.698;50727.148
569.470;39522.152;   -6.808;51698.379
570.053;38854.316;  -13.188;52122.078
570.637;37147.129;  -12.037;52536.438
571.220;36620.785;   -8.577;51186.098
571.803;37034.195;   -8.498;51032.762
572.386;38795.488;  -10.498;49609.887
572.969;41427.977;   -9.388;48285.926
573.552;40210.641;   -8.338;47624.285
574.135;38917.730;   -8.518;45498.641
574.718;36527.863;  -13.628;41970.434
575.301;35451.227;  -10.893;41447.137
575.884;34374.590;   -8.158;40923.836
576.467;35519.484;  -10.328;45267.723
577.050;37080.844;  -13.058;48175.543
577.633;38814.211;   -9.458;47729.328
578.216;38032.660;   -8.928;47579.793
578.799;36961.973;   -9.358;47820.996
579.381;35870.371;  -11.388;48115.551
579.964;33818.020;  -11.718;47333.766
580.547;35309.047;   -8.588;46668.969
581.129;36176.352;   -8.859;44466.141
581.712;36893.906;  -10.729;44164.922
582.294;37622.117;  -11.118;46477.855
582.877;37769.449;   -5.218;48244.254
583.459;35793.039;   -8.679;47437.895
584.042;33806.887;  -10.709;46943.219
584.624;33923.441;  -11.669;46792.227
585.206;33510.246;   -8.218;46557.250
585.789;33336.918;  -10.569;45793.773
586.371;36146.617;  -11.859;43836.391
586.953;37306.980;  -10.719;42972.492
587.536;38133.320;   -7.198;42487.211
588.118;38785.676;   -8.720;42086.414
588.700;34701.941;  -10.439;43389.930
589.282;33508.840;   -9.198;43646.039
589.864;34115.039;   -9.199;43438.109
590.446;35462.332;  -11.319;43151.926
591.028;35721.617;  -11.159;42781.867
591.610;34649.520;  -11.779;42839.098
592.192;31499.135;   -7.668;42820.402
592.774;29796.785;  -11.949;40724.277
593.356;28603.504;  -12.129;39874.789
593.937;27901.635;  -10.669;39980.648
594.519;29795.227;   -6.509;42069.633
595.101;32049.684;  -10.849;42976.031
595.683;32383.305;  -11.679;44084.441
596.264;33385.797;   -9.049;43478.797
596.846;32911.656;   -8.849;43803.672
597.427;32582.453;   -9.570;42986.934
598.009;34324.848;  -12.620;42832.219
598.591;34815.590;  -10.039;42580.086
599.172;34109.328;  -10.369;43061.805
599.753;34168.164;   -9.140;41691.469
600.335;35767.590;  -11.430;40692.520
600.916;34099.703;   -9.939;39982.422
601.498;31468.855;   -8.479;40318.617
602.079;29970.928;  -10.920;40670.609
602.660;29559.373;  -11.480;41450.898
603.241;31026.715;  -11.699;41137.738
603.823;29974.887;   -9.579;38868.797
604.404;29130.799;  -10.620;38182.785
604.985;30725.531;  -10.450;38078.047
605.566;30630.350;   -9.129;38056.633
606.147;30589.602;   -7.510;37020.418
606.728;32572.838;  -10.660;37883.359
607.309;31505.221;  -11.740;38748.273
607.890;30811.602;   -9.759;38850.230
608.471;30305.201;   -8.250;37457.918
609.051;29718.418;   -9.240;36066.457
609.632;28631.576;  -12.120;35991.074
610.213;29189.746;   -9.110;37402.641
610.794;30060.742;   -8.030;38383.363
611.374;29450.240;   -8.110;40562.387
611.955;29989.305;  -13.560;38533.727
612.536;31700.688;  -11.400;36951.789
613.116;31107.607;   -8.070;37197.891
613.697;31486.484;  -10.830;38411.125
614.277;29691.514;  -11.641;38673.938
614.858;30628.699;  -13.310;37075.863
615.438;30132.217;   -7.460;35092.906
616.019;27552.592;   -7.601;33666.301
616.599;28076.596;  -12.020;34189.023
617.179;30190.613;  -11.780;36952.047
617.760;31033.275;   -8.570;39582.574
618.340;32065.990;  -11.471;38943.977
618.920;33675.773;  -11.170;37594.156
619.500;33335.133;  -11.071;37866.938
620.080;32160.705;   -7.750;37869.043
620.660;32917.766;  -12.711;36868.617
621.241;34110.598;  -10.211;36352.309
621.821;34501.695;  -10.961;35459.520
622.401;33953.797;   -7.720;35207.414
622.980;32996.992;   -8.981;35980.422
623.560;31490.729;   -9.331;37351.328
624.140;30269.102;   -9.850;34388.582
624.720;25539.369;   -7.451;32368.764
625.300;21917.270;   -9.070;32638.629
625.880;25156.873;  -12.601;34599.035
626.459;28931.746;  -11.751;36831.738
627.039;31987.912;   -9.281;38299.098
627.619;32259.691;   -8.801;38289.574
628.198;30684.670;  -12.071;37220.695
628.778;29767.596;   -9.461;37632.563
629.357;30318.691;   -8.491;38003.012
629.937;30144.467;   -9.721;38402.039
630.516;29576.578;   -9.951;37868.801
631.096;29699.689;  -11.731;35760.410
631.675;31820.223;   -8.572;35225.219
632.254;37188.168;  -11.282;35130.289
632.834;36711.016;  -13.322;35794.570
633.413;34872.883;  -10.301;35788.922
633.992;32436.338;   -8.582;34532.863
634.571;33450.766;   -8.352;33590.113
635.151;36533.883;  -11.912;34943.863
635.730;35020.797;  -10.511;35352.523
636.309;31208.400;   -7.731;35366.605
636.888;28193.244;   -9.952;36165.637
637.467;28495.166;  -11.672;37515.902
638.046;30378.582;   -8.901;39288.695
638.625;33420.980;   -7.912;38279.699
639.204;33427.762;  -10.022;37741.598
639.782;31868.109;  -12.252;38364.551
640.361;28419.189;  -10.041;36740.621
640.940;25516.053;  -11.161;34950.082
641.519;25979.313;   -9.701;34137.398
642.097;28408.762;  -11.271;35654.258
642.676;31486.025;   -8.651;35637.957
643.255;32718.404;   -8.711;36567.074
643.833;31897.430;   -9.581;37809.434
644.412;31999.119;  -13.711;37337.293
644.990;31121.957;  -11.811;37018.531
645.569;30558.746;   -9.411;36518.469
646.147;29790.744;  -10.291;36186.430
646.726;29719.730;  -12.401;36267.688
647.304;31093.965;  -10.411;36647.625
647.882;32792.035;   -9.651;39286.742
648.461;34399.199;   -9.631;39157.703
649.039;32904.848;  -11.881;35412.883
649.617;32129.920;   -9.661;34744.918
650.195;31669.143;   -9.301;35403.098
650.773;30685.283;  -10.511;35053.797
651.352;27924.924;  -11.521;33756.816
651.930;25346.305;  -12.211;31868.773
652.508;23854.555;   -9.171;33121.551
653.086;27803.314;   -9.371;33564.793
653.663;31140.441;  -13.161;34054.668
654.241;29662.332;  -13.031;35693.309
654.819;30903.074;   -9.371;36422.906
655.397;30827.098;  -10.511;38213.484
655.975;30431.871;  -10.371;39507.625
656.553;30773.342;  -10.051;39498.223
657.130;29249.326;  -10.061;40395.480
657.708;28157.000;   -9.561;39242.020
658.286;28199.156;  -11.511;38920.020
658.863;29585.625;  -10.261;40202.898
659.441;32471.719;   -7.531;39677.938
660.018;32045.193;   -9.501;40413.355
660.596;30788.066;  -13.301;39931.414
661.173;32529.232;  -11.211;39604.531
661.750;32746.400;   -9.951;39700.070
662.328;31475.910;   -9.390;39292.809
662.905;30740.592;  -11.330;38235.648
663.482;26816.473;   -9.050;36212.305
664.060;24639.555;   -8.240;35944.945
664.637;27153.982;  -10.050;35170.785
665.214;28924.555;  -11.760;34197.523
665.791;31034.154;  -10.530;34549.520
666.368;30036.416;   -9.690;35118.578
666.945;30141.787;   -9.320;36019.418
667.522;31784.949;  -11.860;36048.438
668.099;31830.080;  -10.770;36243.914
668.676;30882.385;   -6.260;35958.875
669.253;29366.189;   -7.000;37384.730
669.830;29707.758;  -10.190;36779.629
670.407;29504.209;   -9.550;35231.289
670.984;29263.424;   -9.260;35544.270
671.560;29997.352;   -9.280;35466.867
672.137;29056.557;  -11.810;34280.863
672.714;29690.336;  -11.490;34632.863
673.290;30332.609;   -7.740;35135.422
673.867;30223.254;  -10.660;36114.480
674.443;30793.104;  -12.230;36152.859
675.020;29236.072;  -10.450;35327.238
675.596;29906.391;   -9.260;35795.176
676.173;30360.357;  -10.780;35430.355
676.749;29985.363;  -13.690;33549.516
677.326;30113.016;  -11.980;32210.012
677.902;30274.295;   -8.630;32068.871
678.478;29468.346;  -10.730;32583.891
679.054;28626.980;  -10.520;32088.928
679.631;29384.699;  -11.920;30978.848
680.207;30745.877;   -7.490;33160.887
680.783;32166.453;   -9.860;35570.363
681.359;31370.256;  -13.380;36125.184
681.935;30688.441;  -12.480;35240.922
682.511;29969.408;   -7.900;34429.961
683.087;29854.465;   -7.710;34463.680
683.663;29216.033;  -11.480;34648.898
684.239;28377.582;  -14.090;34546.457
684.815;28102.363;   -7.560;35586.375
685.390;28422.244;   -9.910;35821.895
685.966;28898.074;  -11.159;35085.871
686.542;31480.074;  -11.169;34198.230
687.118;33745.574;   -5.959;32847.707
687.693;34176.004;  -10.329;32794.027
688.269;33468.719;  -12.059;33072.367
688.844;31577.377;  -10.909;33141.664
689.420;29746.439;   -8.019;33965.742
689.995;27581.912;   -8.399;34655.523
690.571;26152.422;  -10.949;33576.742
691.146;26470.508;   -9.619;32657.219
691.722;26049.168;   -8.999;32526.979
692.297;25323.189;  -11.589;33014.617
692.872;27051.371;  -11.739;34012.254
693.448;26881.879;  -11.059;34237.434
694.023;26021.473;  -10.139;34142.672
694.598;28078.816;   -9.029;34132.031
695.173;28743.039;  -13.319;34205.250
695.748;28065.107;  -10.169;32882.488
696.323;28138.111;   -8.339;32864.906
696.898;28220.760;   -8.169;33170.004
697.473;28088.668;  -12.309;32432.984
698.048;27715.641;  -10.989;31649.303
698.623;27660.789;   -9.329;30778.141
699.198;29198.641;   -9.849;31140.119
699.773;30354.195;  -12.329;31764.299
700.348;28901.891;  -10.389;31780.816
700.922;28990.908;   -9.269;32046.375
701.497;29771.740;   -9.329;32603.574
702.072;30094.627;  -10.789;34799.871
702.646;29029.904;  -10.839;35793.172
703.221;26493.654;   -9.099;35201.590
703.795;28508.896;  -10.939;34764.527
704.370;29212.377;  -12.859;34307.367
704.944;29436.459;  -11.559;33509.887
705.519;30343.912;   -7.939;31388.584
706.093;31384.824;  -10.499;31340.104
706.668;32034.250;  -11.289;32630.281
707.242;30557.387;  -11.509;32728.779
707.816;28780.486;   -9.639;32947.238
708.390;27405.543;  -11.429;33277.855
708.965;28084.834;  -11.869;33834.336
709.539;28153.270;  -11.689;33709.273
710.113;28557.430;  -10.478;33044.313
710.687;28385.115;  -10.228;31953.992
711.261;26624.576;  -13.698;30505.949
711.835;26146.262;  -13.378;30262.369
712.409;26602.191;   -9.698;31254.447
712.983;28405.375;  -11.898;32754.986
713.557;29621.014;  -15.138;34018.824
714.131;29347.061;  -14.098;34579.625
714.704;28436.873;   -9.958;33890.262
715.278;25958.234;  -10.028;33531.102
715.852;25001.070;  -11.148;33601.660
716.425;25802.557;   -9.068;33515.117
716.999;26537.596;  -10.038;33185.555
717.573;27549.801;   -9.798;33905.996
718.146;28948.521;  -12.378;35199.293
718.720;28928.248;  -11.918;35060.551
719.293;28295.785;   -8.088;34973.230
719.867;31196.051;  -10.888;36394.449
720.440;31379.391;  -11.938;36663.008
721.013;29808.293;  -12.818;35102.426
721.587;28322.547;  -10.298;33985.266
722.160;26704.051;  -10.048;33524.965
722.733;25666.516;  -12.108;32987.043
723.306;26203.201;  -10.818;33066.301
723.880;28387.840;   -8.908;33399.500
724.453;30601.555;   -9.878;33468.297
725.026;29755.398;  -11.188;33816.637
725.599;26746.564;  -11.678;32797.996
726.172;26497.357;   -9.618;33187.434
726.745;27570.129;   -8.258;35136.613
727.318;29041.494;  -12.978;35751.730
727.891;30111.539;  -12.148;35890.430
728.463;30169.977;   -8.968;34822.090
729.036;29037.873;  -10.188;32895.086
729.609;29275.303;  -11.788;31823.225
730.182;26179.957;  -11.788;31445.283
730.754;23708.199;  -10.268;32373.223
731.327;23754.516;   -9.998;33676.820
731.900;23635.914;  -12.228;33417.000
732.472;24752.580;  -13.848;31978.498
733.045;27018.189;   -8.698;30368.777
733.617;27042.939;  -10.607;30574.215
734.190;26792.133;  -11.507;31280.975
734.762;24269.951;  -13.647;31674.412
735.334;22428.148;   -9.767;31247.291
735.907;22670.787;   -9.897;29876.211
736.479;22746.623;  -11.637;29808.488
737.051;22465.467;   -9.567;30233.547
737.623;23612.887;   -8.187;31469.086
738.195;24326.039;  -11.187;31784.225
738.768;25970.053;  -12.337;32120.523
739.340;26388.535;  -12.227;32094.342
739.912;25433.611;  -11.057;31312.680
740.484;24200.633;  -10.207;31946.238
741.056;22861.180;  -10.047;32984.059
741.628;24446.242;  -13.627;33897.715
742.199;26707.189;   -7.177;33213.016
742.771;25031.518;  -10.797;31369.113
743.343;22728.900;  -11.997;31865.473
743.915;21592.061;  -12.867;32388.631
744.487;21675.842;   -7.617;31079.568
745.058;21947.227;   -9.557;30570.107
745.630;22703.820;   -9.877;29970.127
746.201;23892.223;  -14.177;29186.766
746.773;24413.797;   -9.237;28805.723
747.344;24247.277;   -9.847;29591.223
747.916;22504.578;  -11.657;31412.201
748.487;22108.412;  -10.587;32194.898
749.059;23192.863;   -8.707;32533.719
749.630;24180.838;  -10.537;32158.518
750.201;23166.590;  -11.687;30855.395
750.773;21416.234;  -11.647;28622.555
751.344;21427.807;   -7.147;28405.732
751.915;22509.162;   -9.757;28461.551
752.486;22319.404;  -12.427;27842.850
753.057;20067.963;  -12.227;27845.008
753.628;18759.732;  -10.417;27728.107
754.199;19806.236;  -11.767;27381.086
754.770;21054.596;  -11.187;25882.203
755.341;21145.623;  -10.507;25886.184
755.912;21373.084;   -9.387;26050.861
756.483;20763.016;  -10.647;26798.779
757.054;18969.576;  -11.837;27048.238
757.625;17685.604;  -12.716;26294.838
758.195;17403.836;   -9.666;26142.076
758.766;17017.992;   -8.656;26392.234
759.337;17754.820;  -12.856;26334.594
759.907;19473.141;  -13.366;27579.652
760.478;20362.689;   -8.576;28352.770
761.048;19896.156;  -10.526;27325.088
761.619;19125.404;  -11.116;26460.428
762.189;19002.570;  -12.136;26029.826
762.760;19712.838;   -9.456;26430.145
763.330;21068.064;   -7.136;26670.902
763.900;20744.559;  -11.786;26603.021
764.471;18175.805;  -11.546;25542.740
765.041;16912.693;   -8.096;24358.459
765.611;16996.621;   -8.876;23991.297
766.181;17387.945;  -12.196;24470.236
766.751;18144.467;  -11.636;24845.975
767.321;18185.586;  -10.156;24533.633
767.891;16445.801;  -11.766;24916.492
768.461;15789.321;  -14.936;24776.771
769.031;16160.381;  -12.356;24757.988
769.601;17834.131;   -7.526;24181.088
770.171;17889.369;  -10.766;23670.387
770.741;16762.648;  -13.176;22960.045
771.311;16750.109;  -10.616;22917.523
771.880;17241.523;   -9.576;23562.941
772.450;16776.881;  -10.336;24216.500
773.020;16521.199;  -13.516;24140.398
773.589;16117.856;  -13.466;24414.857
774.159;15677.677;   -8.686;23858.717
774.729;15242.908;   -9.476;22942.135
775.298;14881.830;  -13.666;22324.033
775.867;14554.047;  -11.716;21140.313
776.437;14676.889;   -9.906;20838.092
777.006;14412.695;  -12.166;20599.510
777.576;14321.272;  -12.356;20508.809
778.145;14395.589;  -11.646;20732.947
778.714;14279.177;   -8.226;21062.465
779.283;13493.416;   -9.556;20949.664
779.853;12961.366;  -14.116;20508.623
780.422;13316.479;  -11.506;20649.082
780.991;12873.625;   -9.556;21527.520
781.560;11799.849;   -9.095;22632.658
782.129;11623.147;  -12.135;23048.277
782.698;11683.895;  -10.865;23438.555
783.267;11383.266;   -9.335;23267.734
783.836;11280.615;  -11.045;22415.133
784.404;12260.281;  -13.865;20443.152
784.973;12811.230;  -13.095;19699.150
785.542;12644.722;  -11.575;19763.828
786.111;12444.413;   -9.705;20341.408
786.679;12073.385;  -12.105;20207.967
787.248;11867.837;  -12.455;19516.465
787.817;11699.104;  -11.535;18900.363
788.385;11340.225;   -9.765;17879.121
788.954;10819.496;  -14.005;17658.301
789.522;10291.982;  -11.955;17788.879
790.090;10813.640;  -10.135;18118.277
790.659;11308.396;  -10.975;18338.736
791.227;10708.427;  -13.375;18508.615
791.795;11029.728;  -12.375;17898.254
792.364;11480.440;  -10.725;17295.133
792.932;11919.713;   -9.715;16822.051
793.500;12122.865;  -12.675;17040.148
794.068;12279.531;  -13.495;17179.787
794.636;12429.450;  -10.885;16664.246
795.204;11859.599;  -11.045;16524.545
795.772;11899.342;  -13.175;17274.564
796.340;11444.692;  -12.445;17891.002
796.908;11222.211;   -9.735;17648.561
797.476;11192.947;   -9.815;17064.080
798.044;10821.913;  -13.985;16672.777
798.612;10037.743;  -13.115;17023.996
799.180; 9715.055;  -10.185;16561.615
799.747; 9603.230;   -9.055;15962.773
800.315; 9252.185;  -12.385;15296.992
800.883; 8955.372;  -15.035;14801.771
801.450; 9013.343;  -10.365;14534.430
802.018; 9089.497;   -9.855;14173.248
802.585; 9148.510;  -11.905;14029.547
803.153; 9147.395;  -11.585;13836.846
803.720; 9000.140;   -9.095;13567.324
804.287; 8694.750;   -9.135;13360.622
804.855; 8258.659;  -11.604;13681.981
805.422; 8085.363;  -11.794;13536.560
805.989; 8082.845;  -10.734;13355.958
806.556; 8191.125;  -10.444;13747.896
807.124; 8418.006;  -12.764;13987.376
807.691; 8346.265;  -12.964;14038.674
808.258; 8195.143;  -11.134;14120.152
808.825; 7969.261;   -9.854;13860.111
809.392; 8064.624;  -10.504;13268.790
809.959; 7544.707;  -13.054;12680.389
810.526; 7068.351;   -8.294;12427.308
811.093; 7095.629;   -8.394;12030.105
811.659; 7757.819;  -12.304;11653.664
812.226; 8277.602;  -13.944;11637.183
812.793; 8002.493;  -10.484;11611.521
813.360; 7368.977;  -10.144;11885.181
813.926; 6988.788;  -11.684;12770.539
814.493; 6720.008;  -13.644;12677.638
815.060; 6324.403;   -9.724;11974.336
815.626; 6317.320;   -9.854;11594.715
816.193; 6708.673;  -13.254;11579.474
816.759; 6760.778;  -13.204;11666.972
817.325; 6830.026;   -9.434;11325.530
817.892; 7159.684;  -10.134;11105.369
818.458; 7560.058;  -13.474;10843.928
819.024; 7264.928;  -11.854;10714.406
819.591; 6934.445;  -10.244;10469.165
820.157; 6684.172;  -10.704;10235.523
820.723; 6128.426;  -12.324;10847.563
821.289; 5800.110;   -9.444;11040.980
821.855; 5764.424;   -8.374;10357.100
822.421; 5850.443;  -10.234; 9978.918
822.987; 5846.230;  -13.294; 9754.177
823.553; 5505.125;  -10.884;10065.755
824.119; 5281.889;   -8.884;10036.294
824.685; 5388.916;   -6.784;10029.192
825.251; 5488.161;  -12.004;10199.230
825.816; 5412.752;  -11.474; 9820.189
826.382; 5144.866;   -9.174; 9297.248
826.948; 5286.114;   -9.214; 9381.347
827.513; 5730.423;  -10.774; 9450.726
828.079; 5623.214;  -11.924; 9472.444
828.645; 5030.646;  -10.543; 9292.643
829.210; 4863.787;  -10.533; 9065.341
829.776; 4849.402;  -10.753; 9132.620
830.341; 4712.834;  -10.173; 9092.878
830.906; 4838.773;  -10.743; 9078.557
831.472; 5219.381;  -11.113; 8534.535
832.037; 5064.079;  -10.603; 8677.874
832.602; 4551.314;  -13.323; 8628.692
833.167; 4233.894;  -10.823; 8879.031
833.733; 4167.078;  -10.113; 9189.790
834.298; 4292.131;  -13.583; 9052.608
834.863; 4358.875;  -12.703; 8895.087
835.428; 4324.854;  -10.523; 8824.266
835.993; 4200.828;   -6.963; 8845.385
836.558; 4044.949;  -10.763; 8888.563
837.123; 4125.471;   -9.903; 8966.582
837.688; 4331.596;   -9.913; 8617.860
838.253; 4550.877;  -10.283; 8590.699
838.817; 4758.770;  -12.963; 8443.797
839.382; 4703.896;  -14.243; 8799.356
839.947; 4391.700;  -10.733; 8810.595
840.511; 4095.029;   -9.383; 8796.394
841.076; 3741.194;  -12.563; 8347.231
841.641; 3767.322;  -12.953; 8224.330
842.205; 3858.180;   -7.043; 8223.349
842.770; 3922.158;   -8.163; 8622.107
843.334; 4088.147;  -12.503; 8410.386
843.898; 4058.392;  -11.693; 8337.465
844.463; 4093.765;  -10.203; 8506.283
845.027; 3897.397;   -9.533; 8280.962
845.591; 3700.059;  -13.443; 8231.141
846.156; 3732.276;  -13.143; 7969.179
846.720; 3615.346;   -9.433; 7768.278
847.284; 3488.473;  -11.033; 7630.957
847.848; 3333.504;  -10.403; 7472.395
848.412; 3252.807;  -11.553; 7437.394
848.976; 3303.904;   -8.393; 7674.592
849.540; 3235.420;   -8.713; 7836.011
850.104; 3297.893;  -12.463; 7913.669
850.668; 3646.757;  -12.973; 7694.508
851.232; 3789.515;  -10.793; 7756.887
851.796; 3621.310;  -10.662; 7926.545
852.359; 3314.868;  -13.082; 7827.844
852.923; 3143.690;  -12.192; 7641.163
853.487; 2966.923;  -11.912; 7342.501
854.050; 2900.264;  -10.892; 7042.820
854.614; 3042.931;  -13.992; 7151.338
855.177; 3162.301;  -11.732; 7105.077
855.741; 3213.482;   -8.962; 6989.675
856.304; 3114.901;   -9.442; 6596.634
856.868; 3039.626;  -14.192; 6356.272
857.431; 3128.918;  -12.702; 6468.571
857.995; 3235.249;   -9.942; 6373.210
858.558; 3250.885;   -9.112; 6324.448
859.121; 3003.110;  -12.932; 6408.327
859.684; 2862.645;  -13.442; 6347.886
860.247; 2985.921;  -10.632; 6321.264
860.810; 3007.447;  -11.272; 6301.903
861.374; 2787.491;   -9.832; 6607.881
861.937; 2534.303;  -11.762; 6408.200
862.500; 2502.799;   -9.722; 6572.639
863.062; 2660.396;  -10.512; 6387.297
863.625; 2839.990;  -11.232; 6190.836
864.188; 2998.325;  -14.112; 5807.254
864.751; 3039.334;  -11.302; 5682.413
865.314; 2929.834;  -10.112; 5547.492
865.876; 2737.568;  -12.182; 5500.150
866.439; 2718.791;  -10.722; 5415.909
867.002; 2696.025;   -9.252; 5501.567
867.564; 2504.978;   -9.572; 5413.946
868.127; 2306.932;  -13.142; 5160.325
868.689; 2218.879;  -12.902; 5133.183
869.252; 2160.020;   -9.732; 5252.382
869.814; 2079.073;   -9.432; 5297.141
870.377; 2088.286;  -11.552; 5390.919
870.939; 2150.175;   -9.052; 5599.898
871.501; 2206.991;  -10.982; 5248.336
872.063; 2213.063;  -12.292; 4854.235
872.626; 2172.819;  -14.912; 4817.074
873.188; 2173.011;  -13.112; 4987.732
873.750; 2139.808;  -13.442; 4868.651
874.312; 2040.533;   -9.402; 4779.330
874.874; 1955.621;  -11.062; 4866.348
875.436; 1883.562;  -13.931; 4718.887
875.998; 1882.423;   -9.561; 4660.005
876.560; 1905.028;  -11.321; 4462.964
877.122; 1854.308;  -12.221; 4145.042
877.683; 1753.733;  -12.191; 4056.481
878.245; 1677.702;  -12.101; 3950.740
878.807; 1716.132;   -8.971; 4058.958
879.369; 1739.822;  -12.071; 3954.677
879.930; 1650.416;  -14.621; 3941.495
880.492; 1588.157;  -10.311; 4067.014
881.053; 1572.007;  -10.901; 3859.633
881.615; 1470.153;  -14.411; 3776.071
882.176; 1375.006;  -13.761; 3734.750
882.738; 1331.143;   -9.181; 3678.489
883.299; 1305.907;  -11.791; 3405.407
883.860; 1297.669;  -13.121; 3351.106
884.422; 1300.874;  -11.211; 3394.044
884.983; 1266.121;  -10.091; 3166.443
885.544; 1179.283;   -8.461; 3189.802
886.105; 1099.661;  -12.361; 3160.360
886.666; 1029.606;  -14.141; 3093.059
887.227;  968.546;  -11.361; 2941.957
887.788;  907.113;  -11.401; 2974.836
888.349;  844.755;  -13.791; 2721.214
888.910;  838.689;  -13.191; 2696.493
889.471;  844.668;   -9.881; 2560.172
890.032;  833.290;   -9.881; 2558.190
890.593;  808.461;  -10.371; 2567.669
891.153;  779.579;  -13.301; 2460.307
891.714;  733.652;  -11.431; 2372.046
892.275;  703.756;  -11.291; 2309.505
892.835;  672.897;  -11.471; 2382.543
893.396;  620.290;  -11.541; 2295.502
893.956;  563.578;  -11.181; 2162.420
894.517;  524.298;  -11.741; 2125.439
895.077;  514.595;  -11.671; 2086.978
895.638;  513.508;  -11.311; 2126.316
896.198;  484.861;   -9.831; 1838.275
896.758;  442.962;   -8.421; 1892.813
897.319;  410.853;  -12.351; 1792.232
897.879;  394.897;  -13.511; 1762.751
898.439;  369.349;  -12.001; 1661.149
898.999;  346.369;  -10.180; 1781.468
899.559;  337.717;  -12.030; 1703.347
900.119;  333.079;  -15.710; 1537.525
900.679;  329.206;   -8.900; 1638.384
901.239;  315.713;   -8.340; 1527.902
901.799;  305.197;  -13.910; 1456.441
902.359;  299.027;  -13.460; 1357.140
902.919;  291.614;  -11.490; 1331.118
903.479;  278.716;  -12.110; 1317.257
904.038;  257.823;  -11.720; 1262.595
904.598;  241.422;  -13.610; 1152.034
905.158;  237.238;  -11.040; 1240.893
905.717;  231.426;  -10.900; 1233.691
906.277;  220.945;  -15.080; 1217.330
906.836;  211.966;  -13.380; 1222.408
907.396;  203.682;  -10.780; 1193.047
907.955;  196.562;   -8.500; 1182.526
908.515;  190.151;  -12.760; 1099.364
909.074;  184.156;  -11.900; 1092.863
909.633;  178.372;   -8.950; 1069.121
910.192;  174.205;   -8.770; 1196.460
910.752;  169.480;  -12.390; 1029.960
911.311;  165.245;  -13.680; 1009.780
911.870;  162.381;  -12.370;  971.460
912.429;  163.211;  -10.900; 1094.080
912.988;  161.764;  -11.690; 1081.060
913.547;  156.931;  -13.240;  940.380
914.106;  152.249;  -11.990;  999.420
914.665;  149.448;   -9.990;  984.020
915.224;  148.936;  -12.880; 1035.760
915.782;  148.434;  -12.350;  922.560
916.341;  147.797;   -9.110; 1049.840
916.900;  143.795;   -9.270;  925.260
917.458;  142.063;  -13.240;  884.220
918.017;  141.302;  -13.550;  942.600
918.576;  140.603;  -12.320;  904.440
919.134;  139.355;  -11.490;  837.980
919.693;  138.037;  -13.670;  893.060
920.251;  135.404;  -15.470;  876.500
920.809;  134.332;  -11.290;  839.580
921.368;  133.653;  -10.210;  885.360
921.926;  132.839;  -12.140;  842.940
922.484;  131.507;  -13.080;  903.360
923.042;  131.109;  -11.720;  880.340
923.601;  134.049;   -7.480;  998.680
924.159;  132.948;  -11.570;  935.560
924.717;  128.815;  -13.840;  841.080
925.275;  128.803;  -10.640;  903.240
925.833;  128.998;  -11.540;  779.320
926.391;  129.760;  -12.960;  938.380
926.949;  127.712;  -14.130;  857.680
927.506;  127.873;  -11.750;  903.500
928.064;  128.661;  -10.250;  877.580
928.622;  127.981;  -13.030;  880.100
929.180;  127.459;  -13.400;  814.180
929.737;  128.651;  -10.700;  808.540
930.295;  131.813;  -10.070;  928.480
930.853;  132.862;  -11.960;  849.100
931.410;  133.188;  -13.120;  821.120
931.968;  133.483;  -10.770;  940.660
932.525;  132.941;  -10.680;  909.380
933.082;  134.249;  -13.130;  811.440
933.640;  134.732;  -13.210;  925.900
934.197;  132.659;  -11.060;  886.360
934.754;  133.043;   -9.580;  897.780
935.312;  136.284;  -14.000;  863.340
935.869;  139.896;  -10.710; 1012.980
936.426;  139.701;   -9.860;  872.800
936.983;  140.872;   -9.710;  889.020
937.540;  141.190;  -13.990;  838.280
938.097;  140.136;  -14.040;  940.120
938.654;  140.581;  -10.310;  898.860
939.211;  143.389;  -10.560;  952.480
939.768;  146.573;  -13.900;  915.420
940.324;  148.877;  -14.760;  904.200
940.881;  150.949;  -10.370;  878.500
941.438;  151.136;   -8.260; 1021.200
941.995;  147.734;  -12.540;  992.560
942.551;  144.416;  -14.670;  875.620
943.108;  145.365;  -10.450;  937.920
943.664;  147.469;  -10.750;  869.340
944.221;  150.090;  -11.550; 1088.140
944.777;  147.865;  -14.770;  869.680
945.334;  148.263;  -12.820;  884.840
945.890;  151.121;  -10.130;  946.480
946.446;  151.036;  -13.470;  947.020
947.003;  152.980;  -12.120;  964.940
947.559;  154.926;   -9.980; 1063.040
948.115;  153.911;   -9.080; 1026.540
948.671;  152.392;  -10.830;  967.300
949.227;  148.746;  -12.440;  859.560
949.783;  145.964;  -12.910;  858.900
950.339;  147.631;  -10.270;  991.000
950.895;  147.651;  -13.630; 1023.840
951.451;  146.997;  -15.100;  925.280
952.007;  148.463;  -11.330;  998.540
952.563;  149.762;  -10.580;  937.780
953.118;  148.604;  -13.440;  904.940
953.674;  147.819;  -12.710;  935.780
954.230;  147.827;  -10.350;  949.640
954.785;  145.215;   -9.190;  936.640
955.341;  143.241;  -11.200;  998.160
955.897;  141.531;  -16.560;  834.660
956.452;  142.294;  -12.570;  953.840
957.008;  141.386;   -7.970; 1083.640
957.563;  139.220;  -11.940; 1009.540
958.118;  134.547;  -13.450;  877.700
958.674;  135.125;  -12.030;  946.780
959.229;  135.841;   -9.410; 1013.980
959.784;  133.907;  -12.000;  832.400
960.339;  132.875;  -14.780; 1001.280
960.894;  129.510;   -9.860;  963.760
961.449;  126.524;   -9.970;  859.960
962.004;  126.833;  -10.900; 1212.840
962.559;  121.661;  -13.150;  860.140
963.114;  119.263;  -13.740;  742.480
963.669;  118.831;   -9.820;  915.500
964.224;  117.502;  -13.890;  874.340
964.779;  116.377;  -12.600;  828.420
965.334;  116.957;  -10.950; 1017.860
965.888;  117.626;  -11.170;  875.360
966.443;  119.295;  -12.540;  972.380
966.998;  119.537;  -15.780;  819.460
967.552;  118.396;   -9.760;  908.380
968.107;  114.164;   -9.060;  868.300
968.661;  115.495;  -11.950;  922.440
969.216;  115.043;  -12.800;  856.280
969.770;  116.259;  -11.210;  917.200
970.324;  115.057;  -11.610;  923.140
970.879;  111.811;  -11.370;  947.180
971.433;  108.979;  -12.540;  952.720
971.987;  104.090;  -11.320;  895.340
972.541;  101.444;  -10.720;  917.100
973.095;  100.935;   -9.680; 1009.460
973.649;   99.935;  -11.440;  809.480
974.203;   98.696;  -11.210;  829.040
974.757;   98.421;  -10.240;  855.220
975.311;   98.747;  -13.720;  872.600
975.865;   97.808;  -13.770;  881.820
976.419;   95.745;  -11.690;  857.400
976.973;   96.740;   -9.510;  849.620
977.526;   98.326;  -12.620;  949.920
978.080;   98.052;  -12.010;  796.780
978.634;   99.016;  -10.170;  921.320
979.187;   97.046;   -9.020;  905.400
979.741;   93.962;   -9.820; 1018.380
980.294;   89.273;  -14.870;  789.160
980.848;   87.322;  -12.380;  717.220
981.401;   89.187;  -10.350;  816.540
981.955;   91.263;  -13.720;  844.300
982.508;   90.418;  -11.490;  746.340
983.061;   89.836;  -10.000;  915.260
983.615;   86.616;  -11.480;  798.800
984.168;   83.839;  -13.220;  770.080
984.721;   82.721;  -13.960;  880.760
985.274;   81.180;  -10.870;  867.500
985.827;   80.665;   -9.790;  834.220
986.380;   78.494;  -13.120;  721.340
986.933;   77.786;  -12.450;  864.800
987.486;   76.730;  -10.210;  861.920
988.039;   75.508;   -8.430;  863.100
988.591;   73.438;  -10.520;  893.260
989.144;   71.171;  -14.860;  737.260
989.697;   70.600;  -13.080;  758.740
990.250;   71.015;  -10.150;  858.100
990.802;   69.812;  -13.430;  755.860
991.355;   71.112;  -12.750;  974.880
991.907;   68.628;  -12.040;  864.320
992.460;   66.143;  -11.330;  753.760
993.012;   66.020;  -13.610;  749.540
993.565;   64.373;  -13.460;  711.360
994.117;   65.660;   -9.360;  950.780
994.669;   62.680;  -11.300;  701.320
995.221;   61.027;  -13.540;  791.920
995.774;   58.949;  -13.430;  787.580
996.326;   57.185;  -12.520;  740.220
996.878;   56.705;  -10.950;  838.420
997.430;   54.868;  -14.300;  699.860
997.982;   54.340;  -13.760;  750.140
998.534;   53.057;  -11.530;  739.060
999.086;   52.386;  -10.310;  738.220
999.638;   51.579;  -12.530;  661.380
1000.190;   50.936;  -11.840;  699.320
1000.741;   50.076;  -10.260;  742.700
1001.293;   50.521;   -8.860;  686.020
1001.845;   48.226;  -13.700;  676.640
1002.396;   48.149;  -12.100;  743.400
1002.948;   48.063;  -12.760;  737.400
1003.500;   47.150;  -10.380;  723.780
1004.051;   47.565;  -11.900;  907.580
1004.603;   45.721;  -12.250;  791.820
1005.154;   41.514;  -13.210;  608.980
1005.705;   41.413;  -10.950;  723.960
1006.257;   41.389;  -13.880;  707.220
1006.808;   39.790;  -12.840;  685.460
1007.359;   39.862;  -10.570;  763.240
1007.910;   38.567;   -9.620;  646.640
1008.461;   38.725;  -13.630;  732.940
1009.013;   37.486;  -17.200;  588.340
1009.564;   38.891;  -10.200;  793.520
1010.115;   36.345;  -12.570;  597.040
1010.665;   35.878;  -15.150;  602.160
1011.216;   36.254;  -14.480;  667.920
1011.767;   35.457;  -11.340;  697.920
1012.318;   35.363;   -9.780;  736.980
1012.869;   34.516;  -12.380;  679.000
1013.419;   34.736;  -15.560;  603.120
1013.970;   34.446;  -11.010;  666.640
1014.521;   34.095;  -11.610;  620.620
1015.071;   34.544;  -13.450;  670.380
1015.622;   33.514;  -13.870;  635.460
1016.172;   33.356;  -11.610;  596.820
1016.723;   33.174;  -12.120;  614.380
1017.273;   33.004;  -13.620;  604.160
1017.823;   32.830;  -14.140;  650.340
1018.374;   31.870;  -12.800;  611.760
1018.924;   32.818;  -12.340;  716.880
1019.474;   32.149;  -11.410;  718.880
1020.024;   31.788;  -14.770;  657.580
1020.574;   32.281;   -9.780;  726.160
1021.124;   31.988;   -8.560;  673.580
1021.674;   30.580;  -15.190;  559.120
1022.224;   32.666;  -13.530;  708.940
1022.774;   30.752;  -13.280;  668.820
1023.324;   31.335;  -10.690;  753.520
1023.874;   32.918;  -10.240;  875.760
1024.423;   30.251;  -12.540;  613.700
1024.973;   29.546;  -10.010;  610.760
1025.523;   29.015;  -10.550;  620.960
1026.072;   28.681;  -13.560;  606.420
1026.622;   28.145;  -15.120;  675.740
1027.172;   29.936;  -11.260;  715.660
1027.721;   28.584;  -11.410;  601.220
1028.270;   29.795;  -13.530;  663.400
1028.820;   29.042;  -13.680;  638.080
1029.369;   28.050;  -13.520;  612.700
1029.918;   28.032;  -10.980;  649.840
1030.468;   28.074;  -13.530;  564.780
1031.017;   27.628;  -13.170;  634.800
1031.566;   27.151;  -12.200;  608.900
1032.115;   27.054;   -9.960;  694.500
1032.664;   26.479;  -13.210;  596.480
1033.213;   27.059;  -12.500;  735.420
1033.762;   26.832;  -11.910;  635.620
1034.311;   26.839;   -9.640;  677.220
1034.860;   27.894;  -13.310;  691.000
1035.408;   27.323;  -11.830;  722.720
1035.957;   27.318;  -12.000;  719.540
1036.506;   24.511;  -11.690;  530.800
1037.055;   27.327;  -10.990;  844.320
1037.603;   25.807;  -15.120;  664.000
1038.152;   23.778;  -12.450;  534.760
1038.700;   24.803;  -10.560;  585.740
1039.249;   24.031;  -11.080;  681.220
1039.797;   24.509;  -12.540;  633.360
1040.345;   25.246;  -11.920;  705.420
1040.894;   24.322;  -11.410;  625.300
1041.442;   24.050;  -14.320;  632.200
1041.990;   23.451;  -16.240;  559.160
1042.538;   23.040;  -11.680;  536.180
1043.087;   22.442;  -10.760;  570.860
1043.635;   24.629;  -11.850;  670.500
1044.183;   22.970;  -15.480;  586.400
1044.731;   22.773;  -11.770;  576.000
1045.279;   22.614;  -13.090;  674.920
1045.827;   24.660;  -12.440;  892.400
1046.374;   22.084;  -13.840;  515.420
1046.922;   21.849;  -13.220;  590.580
1047.470;   23.083;  -10.230;  691.300
1048.018;   22.597;  -14.590;  647.960
1048.565;   23.215;  -12.050;  708.600
1049.113;   21.230;  -11.650;  557.000
1049.660;   21.365;  -10.510;  629.660
1050.208;   22.339;  -13.310;  675.640
1050.755;   21.124;  -15.900;  606.580
1051.303;   21.012;  -11.430;  686.820
1051.850;   20.873;   -8.480;  635.120
1052.397;   19.215;  -15.010;  473.960
1052.945;   20.565;  -13.960;  617.760
1053.492;   21.431;  -13.150;  741.840
1054.039;   21.011;   -9.630;  720.180
1054.586;   20.532;  -13.680;  557.240
1055.133;   20.582;  -14.570;  693.140
1055.680;   20.494;  -13.820;  646.620
1056.227;   19.262;  -11.730;  542.780
1056.774;   21.335;  -12.480;  794.980
1057.321;   19.555;  -13.930;  523.260
1057.868;   19.022;  -11.690;  651.320
1058.415;   19.227;   -9.520;  651.980
1058.961;   19.579;  -13.160;  678.940
1059.508;   19.231;  -12.920;  643.820
1060.055;   18.819;  -11.920;  581.780
1060.601;   19.436;  -11.500;  624.300
1061.148;   18.943;  -14.330;  616.820
1061.694;   18.546;  -16.870;  592.580
1062.241;   18.056;  -10.330;  596.320
1062.787;   18.064;  -10.620;  663.140
1063.334;   19.863;  -10.110;  808.560
1063.880;   18.028;  -13.400;  668.360
1064.426;   18.471;  -10.680;  706.820
1064.972;   17.679;   -9.920;  601.340
1065.518;   16.446;  -10.980;  566.640
1066.065;   17.562;  -14.890;  624.460
1066.611;   17.223;  -12.870;  598.800
1067.157;   17.697;  -12.950;  641.860
1067.703;   17.231;  -13.540;  668.480
1068.249;   16.900;  -13.540;  605.220
1068.794;   16.841;  -12.600;  626.880
1069.340;   15.571;  -10.620;  578.960
1069.886;   16.806;  -12.830;  590.700
1070.432;   15.128;  -14.870;  541.720
1070.977;   15.860;  -11.980;  601.080
1071.523;   15.697;   -8.200;  573.060
1072.068;   15.724;  -12.330;  582.000
1072.614;   15.627;  -16.370;  527.760
1073.160;   16.442;  -11.100;  687.040
1073.705;   14.465;  -10.480;  572.520
1074.250;   15.160;  -14.520;  559.900
1074.796;   16.201;  -11.460;  655.160
1075.341;   15.483;  -11.950;  664.100
1075.886;   15.594;  -11.460;  594.240
1076.431;   15.217;  -13.770;  649.880
1076.976;   15.284;  -12.680;  639.220
1077.521;   14.008;  -13.170;  583.080
1078.067;   14.087;  -10.860;  579.400
1078.612;   14.886;  -13.920;  661.620
1079.156;   14.617;  -13.880;  601.540
1079.701;   14.655;  -13.120;  693.260
1080.246;   14.985;   -9.940;  696.300
1080.791;   13.956;  -14.740;  625.020
1081.336;   13.966;  -13.750;  659.320
1081.880;   14.106;  -13.400;  649.680
1082.425;   13.655;  -12.220;  573.480
1082.970;   15.409;  -11.610;  717.040
1083.514;   13.749;  -13.580;  597.000
1084.059;   11.930;  -12.810;  586.720
1084.603;   12.371;  -12.320;  565.840
1085.147;   12.703;  -13.190;  645.220
1085.692;   14.283;  -12.480;  716.800
1086.236;   12.451;  -13.020;  503.140
1086.780;   13.743;   -9.190;  751.440
1087.325;   14.024;  -12.480;  654.620
1087.869;   12.498;  -12.450;  610.700
1088.413;   13.158;  -12.240;  705.040
1088.957;   11.041;   -9.020;  543.400
1089.501;   13.562;  -10.320;  766.640
1090.045;   12.444;  -12.720;  726.480
1090.589;   10.474;  -13.690;  569.920
1091.133;   11.993;  -10.020;  673.340
1091.676;   11.964;  -12.330;  591.940
1092.220;   11.355;  -14.970;  600.920
1092.764;   12.213;  -12.430;  706.960
1093.307;   11.845;   -9.800;  673.780
1093.851;   10.913;  -14.970;  556.540
1094.395;   11.685;  -15.310;  683.140
1094.938;   11.265;  -10.370;  632.520
1095.482;   11.167;  -11.050;  559.800
1096.025;   11.541;  -11.840;  710.880
1096.568;   11.692;  -12.840;  779.280
1097.112;    9.278;  -14.700;  508.180
1097.655;   11.033;   -8.720;  603.000
1098.198;   10.246;  -13.610;  600.180
1098.741;    9.280;  -13.350;  612.860
1099.285;   10.843;  -11.230;  657.300
1099.828;    9.357;  -11.840;  439.400
1100.371;    9.765;  -10.840;  608.160
1100.914;   10.159;  -14.190;  682.660
1101.457;    9.598;  -11.240;  679.900
1101.999;    7.998;  -11.270;  584.680
1102.542;   10.169;  -11.480;  641.440
1103.085;    8.667;  -11.750;  658.500
1103.628;    9.700;  -11.400;  762.060
1104.170;    9.267;  -10.490;  588.280
1104.713;    9.576;  -10.600;  646.700
1105.256;    9.311;  -14.360;  557.440
1105.798;    7.358;  -13.210;  499.980
1106.341;    9.886;  -10.270;  728.900
1106.883;    8.460;  -12.200;  521.340
1107.425;    9.172;  -13.110;  668.180
1107.968;    8.816;  -12.840;  612.380
1108.510;    8.525;   -6.480;  684.960
1109.052;    7.523;  -13.940;  612.620
1109.594;    7.372;  -13.690;  554.440
1110.136;    8.580;  -11.880;  643.220
1110.679;    6.974;   -9.500;  633.080
1111.221;    7.984;  -14.160;  604.460
1111.763;    7.349;  -13.980;  559.220
1112.304;    7.127;  -13.880;  547.140
1112.846;    8.144;  -12.210;  666.240
1113.388;   10.917;  -11.390;  942.180
1113.930;    7.427;  -14.540;  694.200
1114.472;    6.548;  -12.640;  606.540
1115.013;    6.077;  -11.620;  551.280
1115.555;    5.978;  -13.640;  587.100
1116.097;    6.114;  -15.380;  579.480
1116.638;    7.005;  -12.640;  684.600
1117.180;    6.985;   -9.850;  667.740
1117.721;    6.823;  -13.690;  568.580
1118.262;    6.836;  -12.680;  677.960
1118.804;    7.515;  -12.530;  637.340
1119.345;    5.084;  -11.690;  578.400
1119.886;    6.984;  -13.380;  704.040
1120.427;    5.865;  -14.070;  589.020
1120.969;    5.661;  -13.500;  597.920
1121.510;    5.474;  -11.480;  563.060
1122.051;    5.889;  -12.830;  723.580
1122.592;    4.943;  -14.290;  655.420
1123.133;    4.366;  -12.400;  547.940
1123.673;    6.659;  -10.130;  706.480
1124.214;    5.497;  -12.930;  612.460
1124.755;    5.896;  -14.380;  639.460
1125.296;    4.938;  -14.000;  627.320
1125.836;    5.712;  -10.070;  691.500
1126.377;    4.946;  -12.640;  599.660
1126.918;    5.388;  -12.960;  614.980
1127.458;    4.831;  -13.350;  622.220
1127.999;    5.132;  -10.750;  656.980
1128.539;    6.366;  -12.350;  694.240
1129.079;    4.185;  -14.860;  632.720
1129.620;    4.283;  -13.840;  558.100
1130.160;    3.509;  -12.330;  539.480
1130.700;    5.122;  -14.530;  640.840
1131.240;    5.191;  -12.530;  643.700
1131.781;    3.882;  -14.450;  619.680
1132.321;    4.174;   -9.790;  599.120
1132.861;    3.485;  -14.860;  564.200
1133.401;    3.118;  -14.290;  593.940
1133.941;    4.258;  -11.750;  626.280
1134.481;    3.384;   -9.920;  597.580
1135.020;    4.032;  -12.290;  609.160
1135.560;    3.394;  -11.650;  674.940
1136.100;    2.842;  -16.270;  501.160
1136.640;    3.434;  -10.890;  510.480
1137.179;    2.867;  -14.180;  537.960
1137.719;    3.375;  -16.250;  605.400
1138.258;    3.092;  -14.230;  587.360
1138.798;    3.322;   -9.090;  663.780
1139.337;    1.591;  -15.130;  482.840
1139.877;    3.192;  -13.680;  642.360
1140.416;    4.530;  -11.320;  878.060
1140.955;    1.882;  -10.860;  535.380
1141.494;    2.997;  -12.920;  669.280
1142.034;    1.817;  -13.930;  583.520
1142.573;    3.293;  -11.440;  646.280
1143.112;    2.852;  -12.000;  553.480
1143.651;    2.169;  -13.670;  536.480
1144.190;    3.132;  -12.730;  691.640
1144.729;    2.624;  -14.560;  607.420
1145.267;    1.992;  -11.830;  584.900
1145.806;    3.590;  -12.230;  637.040
1146.345;    1.251;  -14.130;  635.020
1146.884;    1.040;  -11.590;  622.500
1147.422;    1.092;  -12.550;  533.060
1147.961;    3.418;  -11.180;  708.460
1148.500;    2.246;  -11.510;  669.720
1149.038;    2.687;  -11.640;  632.500
1149.577;    2.461;  -10.130;  698.640
1150.115;    0.348;  -13.970;  452.280
1150.653;    1.387;  -14.520;  607.340
1151.192;    1.376;  -12.810;  552.920
1151.730;    1.980;   -9.100;  652.560
1152.268;    1.180;  -12.220;  589.520
1152.806;    1.173;  -14.140;  571.180
1153.344;   -0.349;  -12.350;  577.640
1153.882;    0.753;   -8.980;  600.060
1154.421;   -0.365;  -15.190;  470.620
1154.958;    0.611;  -15.210;  595.240
1155.496;    1.418;  -12.850;  645.280
1156.034;    1.255;   -9.940;  721.880
1156.572;    2.404;  -13.570;  667.060
1157.110;   -0.013;  -14.590;  473.940
1157.647;    1.264;  -13.030;  676.960
1158.185;   -0.299;  -12.140;  564.320
1158.723;   -0.716;  -14.390;  509.200
1159.260;    0.460;  -14.090;  701.700
1159.798;    0.809;  -11.920;  658.160
1160.335;   -0.236;  -11.110;  631.820

