
Integration time [ms]:   3.276
Averaging Nr. [scans]: 1000
Smoothing Nr. [pixels]: 0
Data measured with spectrometer [name]: 7414430SP
Wave   ;Sample   ;Dark     ;Reference
[nm]   ;[counts] ;[counts] ;[counts] 

288.544;  150.497;    7.793;  793.890
289.143;  155.707;    7.462;  681.602
289.742;  154.470;    8.602;  828.814
290.341;  139.670;    1.321;  789.841
290.940;  128.972;   -0.709;  730.702
291.538;  130.468;    0.881;  881.108
292.137;  130.407;    0.122;  792.581
292.736;  135.421;   -1.929;  975.101
293.335;  130.912;   -8.229;  735.086
293.934;  132.336;   -5.279;  781.677
294.532;  129.312;   -1.369; 1031.958
295.131;  115.889;   -7.641;  834.394
295.730;  115.742;   -8.420;  809.588
296.328;  115.431;   -5.611;  783.442
296.927;  115.261;   -5.781;  779.652
297.525;  117.390;   -6.361;  781.236
298.124;  108.195;  -11.382;  654.009
298.722;  110.854;   -7.641;  761.933
299.321;  108.479;   -6.811;  708.597
299.919;  106.703;   -6.991;  751.918
300.518;  103.656;  -10.362;  689.338
301.116;  105.835;   -9.581;  691.381
301.715;  105.111;   -4.891;  730.222
302.313;  104.064;   -8.801;  704.943
302.911;  100.168;   -8.522;  733.830
303.509;  104.968;   -6.171;  925.627
304.108;  102.638;   -7.311;  760.383
304.706;  102.376;   -8.321;  801.664
305.304;   96.084;  -10.222;  796.707
305.902;  101.872;   -6.021;  784.484
306.500;   97.840;   -4.971;  728.200
307.098;   95.749;   -7.061;  746.560
307.696;   94.854;   -8.801;  780.432
308.294;   94.751;   -6.411;  731.359
308.892;   95.908;   -2.901;  759.769
309.490;   91.977;   -5.041;  712.161
310.088;   90.527;   -5.002;  788.444
310.686;   94.924;   -2.041;  821.749
311.284;   90.955;   -2.351;  766.040
311.882;   89.119;   -4.422;  731.225
312.480;   85.643;   -4.192;  697.167
313.078;   86.736;   -1.172;  808.331
313.675;   87.877;   -2.601;  691.600
314.273;   81.664;   -1.312;  797.837
314.871;   83.592;   -3.942;  589.829
315.468;   80.318;   -2.802;  652.090
316.066;   83.170;   -0.701;  694.427
316.664;   75.761;   -4.362;  656.351
317.261;   80.510;   -2.872;  910.128
317.859;   75.300;   -2.022;  768.735
318.456;   74.609;   -0.531;  830.096
319.054;   71.937;   -3.912;  787.828
319.651;   70.464;   -4.752;  759.928
320.249;   69.987;   -2.602;  810.188
320.846;   67.589;   -0.821;  714.286
321.443;   63.935;   -4.642;  832.135
322.041;   61.831;   -5.002;  812.315
322.638;   60.022;   -3.982;  701.456
323.235;   60.348;   -3.411;  665.683
323.833;   58.000;   -7.361;  740.354
324.430;   53.208;   -8.611;  615.900
325.027;   54.805;   -4.061;  876.855
325.624;   54.373;   -4.031;  644.532
326.221;   50.934;   -7.481;  689.717
326.818;   50.544;   -5.281;  818.332
327.415;   53.990;   -7.460;  748.828
328.012;   52.949;   -5.510;  690.585
328.609;   52.569;   -7.880;  731.389
329.206;   49.536;   -8.331;  778.621
329.803;   50.014;   -5.121;  737.841
330.400;   52.342;   -4.510;  704.260
330.997;   53.700;   -6.441;  817.147
331.594;   53.283;   -8.831;  788.185
332.191;   58.359;   -7.621;  728.722
332.787;   61.137;   -4.591;  844.463
333.384;   58.969;   -7.412;  763.093
333.981;   58.433;   -8.293;  815.687
334.578;   60.490;   -7.052;  708.378
335.174;   64.132;   -3.102;  731.469
335.771;   64.151;   -5.943;  836.456
336.367;   60.483;   -7.393;  710.631
336.964;   64.521;   -4.063;  793.266
337.561;   61.905;   -3.813;  731.112
338.157;   57.317;   -4.654;  911.916
338.754;   55.559;   -7.934;  796.589
339.350;   53.571;   -4.414;  722.493
339.946;   55.707;   -4.664;  773.135
340.543;   47.525;   -6.375;  846.136
341.139;   42.127;   -9.815;  720.836
341.735;   39.436;   -4.526;  772.593
342.332;   38.303;   -4.895;  691.472
342.928;   38.966;   -4.295;  795.394
343.524;   32.961;   -5.476;  761.684
344.120;   28.969;   -5.856;  738.562
344.716;   32.032;   -2.155;  723.717
345.313;   29.614;   -6.275;  795.342
345.909;   24.927;   -8.815;  627.336
346.505;   26.254;   -5.305;  740.247
347.101;   26.768;   -2.674;  827.864
347.697;   27.220;   -4.344;  785.398
348.293;   22.030;   -9.975;  627.244
348.889;   23.301;   -5.774;  745.914
349.485;   21.712;   -5.004;  688.205
350.081;   22.717;   -4.704;  772.592
350.676;   17.744;   -6.635;  691.606
351.272;   22.442;   -4.504;  809.530
351.868;   22.149;   -3.914;  780.497
352.464;   19.712;   -9.044;  723.932
353.059;   15.426;   -8.314;  646.017
353.655;   18.993;   -7.024;  777.063
354.251;   19.515;   -5.343;  759.845
354.846;   14.647;   -8.604;  740.646
355.442;   12.105;   -6.945;  753.071
356.038;   14.587;   -7.564;  751.708
356.633;   14.171;   -5.814;  728.594
357.229;   11.894;   -7.364;  724.757
357.824;   10.253;   -8.024;  703.600
358.420;    9.753;   -9.384;  679.726
359.015;    9.816;   -5.104;  695.357
359.610;   11.322;   -6.854;  763.920
360.206;    5.702;  -10.185;  603.240
360.801;    8.742;   -7.054;  646.503
361.396;    9.853;   -5.034;  725.975
361.992;    5.572;   -8.284;  668.220
362.587;    3.237;   -8.625;  670.160
363.182;    5.376;   -7.674;  689.631
363.777;    5.696;   -5.164;  738.242
364.372;    5.870;   -8.604;  737.314
364.967;    1.812;   -9.055;  680.744
365.563;    6.037;   -6.114;  815.567
366.158;    2.480;   -5.814;  685.161
366.753;    2.939;   -7.854;  649.263
367.348;    2.196;   -7.804;  746.056
367.942;    2.506;   -7.954;  697.298
368.537;    0.228;   -4.984;  754.245
369.132;    0.372;   -8.564;  703.428
369.727;   -3.102;   -8.855;  638.079
370.322;   -1.664;   -6.245;  580.186
370.917;   -2.246;   -6.425;  710.646
371.511;    0.353;   -6.294;  861.834
372.106;   -2.901;   -7.685;  776.964
372.701;   -5.782;   -7.335;  585.988
373.296;   -0.143;   -4.564;  863.135
373.890;   -5.435;  -10.235;  647.840
374.485;   -7.453;   -7.885;  691.199
375.079;   -3.402;   -7.324;  738.685
375.674;   -1.824;   -3.494;  812.970
376.268;   -6.874;   -8.525;  691.759
376.863;  -12.402;  -10.086;  580.327
377.457;   -5.569;   -7.025;  662.490
378.052;   -8.053;   -3.585;  764.884
378.646;   -9.190;   -7.595;  741.167
379.240;   -8.936;   -8.335;  721.176
379.835;   -8.106;   -5.785;  636.978
380.429;  -10.821;   -4.335;  562.557
381.023;  -10.757;   -6.805;  779.205
381.617;  -12.780;   -9.195;  680.106
382.212;   -9.275;   -6.905;  685.303
382.806;   -9.425;   -3.745;  760.690
383.400;  -13.273;   -7.745;  672.281
383.994;  -14.119;   -9.765;  664.870
384.588;   -9.470;   -6.564;  697.701
385.182;   -8.874;   -5.344;  726.624
385.776;  -10.524;   -8.514;  706.875
386.370;  -13.966;   -9.555;  681.968
386.964;  -12.033;   -8.715;  684.155
387.558;  -10.575;   -6.174;  598.360
388.152;  -13.619;   -8.725;  681.959
388.745;  -12.145;   -7.965;  814.707
389.339;   -9.661;   -5.924;  747.642
389.933;   -9.220;   -5.524;  695.370
390.527;  -10.755;   -7.114;  859.029
391.120;  -16.875;  -10.725;  595.318
391.714;  -13.644;   -8.035;  711.633
392.308;  -10.335;   -3.574;  780.253
392.901;  -14.362;   -7.245;  642.460
393.495;  -16.386;   -9.285;  595.414
394.089;  -13.941;   -5.895;  760.452
394.682;  -14.765;   -4.295;  697.188
395.275;  -15.274;   -9.875;  719.927
395.869;  -16.407;   -8.485;  667.314
396.462;  -14.685;   -7.455;  616.609
397.056;  -11.324;   -5.424;  776.621
397.649;  -15.613;   -6.605;  731.575
398.242;  -13.544;   -8.224;  712.645
398.836;  -11.884;   -7.474;  766.408
399.429;  -13.532;   -7.094;  631.041
400.022;  -17.523;   -9.475;  665.902
400.615;  -14.929;   -7.145;  805.609
401.208;  -12.738;   -7.174;  691.451
401.802;  -15.494;   -5.515;  699.329
402.395;  -16.471;   -9.875;  683.502
402.988;  -16.876;   -8.845;  696.627
403.581;  -13.244;   -8.874;  646.878
404.174;  -11.333;   -5.324;  686.568
404.767;  -14.605;   -9.575;  638.583
405.360;  -16.892;  -10.965;  621.445
405.953;  -11.195;   -8.764;  759.034
406.545;  -10.940;   -7.514;  725.342
407.138;  -15.154;  -10.025;  618.350
407.731;  -14.336;  -10.034;  613.303
408.324;   -9.946;   -9.374;  660.554
408.917;  -10.746;   -6.534;  681.864
409.509;  -13.108;   -8.004;  740.396
410.102;  -14.921;   -9.875;  643.948
410.695;   -8.450;   -8.604;  665.758
411.287;  -10.095;   -6.794;  599.821
411.880;  -11.387;   -9.334;  585.421
412.472;  -13.915;  -10.254;  613.092
413.065;  -10.881;   -6.714;  629.408
413.657;   -9.342;   -7.234;  576.678
414.250;   -9.167;  -10.544;  646.681
414.842;  -10.307;   -9.744;  676.353
415.434;   -8.211;   -6.994;  570.463
416.027;   -4.557;   -5.893;  652.196
416.619;   -6.722;   -7.264;  713.400
417.211;   -7.536;  -10.374;  599.352
417.804;   -3.472;   -7.993;  628.499
418.396;   -7.851;   -7.234;  607.643
418.988;   -5.384;   -9.443;  659.238
419.580;   -9.000;  -10.724;  568.276
420.172;   -5.908;  -10.323;  536.196
420.764;   -2.310;   -8.793;  672.482
421.356;   -3.049;  -11.143;  636.898
421.948;   -3.893;   -8.293;  677.661
422.540;    0.679;   -7.893;  680.027
423.132;   -0.089;   -7.082;  600.641
423.724;   -3.488;   -8.653;  561.267
424.316;   -1.378;  -10.213;  621.345
424.908;    2.381;   -9.762;  591.517
425.500;    2.596;   -5.572;  647.978
426.092;    3.435;   -8.422;  648.268
426.683;    2.811;   -9.283;  684.836
427.275;    5.415;   -7.852;  641.471
427.867;    6.224;   -5.272;  668.948
428.458;    6.316;   -7.682;  732.344
429.050;    5.723;  -10.612;  680.749
429.642;    7.905;   -9.882;  743.124
430.233;    8.039;   -6.962;  569.356
430.825;    8.669;   -6.842;  724.809
431.416;    6.929;   -9.672;  698.241
432.008;   10.921;   -6.552;  651.723
432.599;   11.088;   -6.891;  656.073
433.190;    7.873;  -10.912;  637.670
433.782;    7.379;  -11.172;  590.395
434.373;   15.251;   -6.061;  884.765
434.964;   13.443;   -8.251;  602.920
435.556;   11.468;   -9.722;  634.537
436.147;   13.869;   -9.082;  758.490
436.738;   14.187;   -8.041;  701.099
437.329;   18.657;   -7.341;  721.723
437.920;   12.478;   -8.162;  666.688
438.511;   11.645;  -11.802;  564.526
439.103;   19.361;  -10.191;  623.998
439.694;   19.881;   -7.601;  681.583
440.285;   21.363;   -8.541;  764.432
440.876;   18.575;   -9.751;  845.738
441.466;   18.673;   -9.401;  575.162
442.057;   23.213;   -7.760;  665.814
442.648;   22.308;   -9.971;  746.255
443.239;   21.477;  -11.001;  620.477
443.830;   26.352;   -7.990;  704.958
444.421;   27.373;   -7.910;  655.474
445.011;   23.916;   -8.131;  693.619
445.602;   24.148;   -7.111;  743.126
446.193;   25.788;  -10.920;  488.117
446.783;   29.942;   -6.500;  640.397
447.374;   25.673;   -8.671;  692.759
447.964;   26.865;  -10.781;  713.770
448.555;   35.104;   -9.650;  822.742
449.145;   31.134;   -8.660;  662.853
449.736;   32.329;   -8.990;  803.179
450.326;   31.737;   -9.500;  713.626
450.917;   37.462;   -8.680;  675.324
451.507;   35.626;   -7.520;  600.661
452.097;   36.088;   -8.590;  746.267
452.688;   37.628;  -11.340;  742.160
453.278;   37.321;  -10.100;  566.840
453.868;   41.814;   -6.019;  793.550
454.458;   39.528;   -9.440;  651.141
455.048;   40.495;  -10.560;  711.783
455.639;   41.601;  -11.799;  567.096
456.229;   45.630;   -6.899;  710.694
456.819;   47.071;   -7.389;  751.158
457.409;   47.546;  -11.119;  773.993
457.999;   49.933;   -9.289;  737.505
458.589;   50.120;   -6.139;  686.606
459.179;   49.554;   -8.729;  717.658
459.769;   47.624;   -9.789;  627.099
460.358;   53.141;  -10.259;  797.262
460.948;   52.962;   -7.299;  689.503
461.538;   54.309;  -10.289;  660.677
462.128;   52.267;  -11.269;  664.934
462.717;   58.985;   -9.368;  710.326
463.307;   62.020;   -7.908;  705.846
463.897;   57.234;   -9.599;  656.942
464.486;   56.997;   -9.769;  837.128
465.076;   61.994;   -8.048;  733.776
465.666;   64.685;   -9.358;  652.900
466.255;   62.010;   -7.919;  785.651
466.845;   61.675;  -11.689;  666.749
467.434;   65.618;   -7.818;  725.873
468.023;   65.630;   -7.678;  658.357
468.613;   63.228;  -10.939;  713.946
469.202;   66.953;  -10.118;  646.507
469.791;   70.773;   -9.108;  737.811
470.381;   73.179;   -6.058;  742.813
470.970;   72.863;  -10.428;  711.099
471.559;   73.877;  -10.268;  733.291
472.148;   76.883;   -8.448;  675.737
472.738;   78.700;   -6.917;  765.466
473.327;   78.049;  -11.978;  637.529
473.916;   78.037;  -11.888;  737.446
474.505;   82.089;   -9.437;  751.703
475.094;   83.988;   -6.747;  806.570
475.683;   84.109;   -9.367;  797.699
476.272;   85.348;  -12.637;  730.632
476.861;   88.134;  -10.027;  706.754
477.449;   93.968;   -8.716;  728.487
478.038;   88.456;   -9.577;  692.513
478.627;   90.465;   -9.718;  714.852
479.216;   97.018;   -8.947;  769.441
479.805;   98.648;   -6.256;  783.375
480.393;   98.778;   -7.937; 1008.945
480.982;   98.678;   -7.717;  874.501
481.571;  105.015;   -9.266;  858.333
482.159;  104.052;   -7.636;  705.386
482.748;  104.740;   -9.667;  821.385
483.336;  109.433;  -10.376;  858.209
483.925;  109.756;   -7.147;  774.373
484.513;  116.584;   -7.996;  758.962
485.102;  112.874;  -10.027;  810.965
485.690;  121.642;  -10.446; 1011.050
486.278;  123.436;   -8.446;  979.329
486.867;  124.136;   -6.356;  809.662
487.455;  124.907;   -9.136;  898.229
488.043;  126.748;  -10.646;  748.361
488.631;  136.576;   -7.456; 1005.079
489.220;  139.291;   -6.636;  908.626
489.808;  139.684;  -11.036;  741.415
490.396;  147.248;  -10.246;  914.645
490.984;  152.668;   -8.556;  830.161
491.572;  161.826;   -5.886;  940.315
492.160;  167.695;   -9.486;  919.081
492.748;  178.559;  -10.976;  884.341
493.336;  201.558;   -8.776; 1019.693
493.924;  225.615;   -5.465;  958.077
494.512;  250.813;   -9.986; 1066.638
495.100;  286.837;  -10.636; 1103.280
495.687;  337.826;  -10.885; 1206.373
496.275;  394.782;   -8.126; 1150.796
496.863;  460.473;  -10.586; 1281.171
497.451;  557.380;  -11.926; 1386.805
498.038;  686.366;  -10.885; 1556.729
498.626;  789.376;   -6.315; 1741.407
499.214;  917.608;   -7.326; 2016.609
499.801; 1105.402;  -11.906; 2220.633
500.389; 1348.150;  -10.466; 2312.494
500.976; 1650.055;   -5.236; 2744.849
501.564; 2043.729;   -8.936; 3148.565
502.151; 2400.111;  -13.176; 3515.999
502.738; 2850.293;  -10.646; 3971.274
503.326; 3235.338;   -9.525; 4403.796
503.913; 3595.739;  -10.856; 5161.749
504.500; 3899.008;  -11.586; 5986.420
505.088; 4339.891;  -10.336; 6381.201
505.675; 4838.166;   -6.355; 6925.547
506.262; 5464.425;   -9.046; 7619.060
506.849; 6165.754;  -10.416; 8733.969
507.436; 6598.917;  -10.305; 9790.121
508.023; 7117.409;   -5.496; 9985.472
508.610; 7397.879;   -7.856;10434.618
509.197; 8014.243;  -10.097;11198.435
509.784; 9389.449;  -10.886;12391.194
510.371;10314.643;   -9.315;13603.713
510.958;11019.323;   -9.936;14426.586
511.545;11822.896;   -9.326;15243.775
512.132;12691.372;  -10.075;15945.876
512.719;13304.292;   -7.796;16340.369
513.305;14098.229;  -10.606;18011.766
513.892;14808.150;  -11.486;19754.971
514.479;16316.522;   -9.126;20967.805
515.066;17789.793;   -6.026;22299.793
515.652;18793.088;   -8.466;22908.660
516.239;19878.922;  -10.886;23798.875
516.825;20978.248;  -11.496;25567.275
517.412;22070.434;   -5.796;28154.959
517.998;22892.041;  -10.506;28344.111
518.585;22921.152;  -10.076;27134.219
519.171;23102.279;   -8.315;27268.576
519.758;24075.990;   -8.596;28964.129
520.344;25890.430;   -8.466;30664.494
520.930;26405.973;  -11.006;32550.605
521.516;28112.908;  -10.495;35422.895
522.103;30684.818;   -5.526;38280.004
522.689;31688.121;   -8.746;37835.117
523.275;31332.504;  -11.376;37288.613
523.861;31762.643;  -11.156;37281.395
524.447;32620.549;   -8.135;37846.949
525.033;32132.170;   -7.896;38321.949
525.619;32556.295;  -12.476;38579.285
526.205;34456.844;   -9.516;40622.875
526.791;37001.051;   -6.926;42258.836
527.377;37076.531;   -8.346;42966.902
527.963;39054.578;   -8.717;42018.949
528.549;37558.770;  -11.016;42476.828
529.135;36005.055;   -8.536;41854.852
529.721;35604.664;   -9.666;41237.711
530.306;35014.531;  -10.066;41259.445
530.892;35116.309;  -11.356;41506.047
531.478;36457.789;   -6.596;43559.613
532.063;38613.613;   -8.836;47695.563
532.649;38626.430;  -10.047;50808.324
533.235;40118.965;   -9.746;51787.500
533.820;41639.926;   -6.566;52145.035
534.406;42397.215;  -10.817;51133.488
534.991;41880.973;   -9.416;49996.805
535.576;40845.984;   -9.036;48882.852
536.162;41293.461;   -6.156;46942.285
536.747;42519.563;  -11.607;45711.746
537.333;46130.945;  -11.787;48510.180
537.918;48986.453;  -12.437;50439.891
538.503;47609.820;   -7.196;50863.711
539.088;44701.164;  -10.556;50906.922
539.673;44445.305;   -8.767;52621.965
540.259;43932.313;  -10.026;52368.094
540.844;41466.457;   -7.416;50879.109
541.429;42020.641;   -9.467;52077.777
542.014;45534.336;   -9.527;52716.695
542.599;45558.750;   -9.946;52363.281
543.184;42927.813;   -7.927;53187.137
543.769;43958.094;   -9.297;54697.605
544.354;43359.938;  -10.127;53913.914
544.938;42632.996;   -9.267;49680.164
545.523;44741.422;   -6.506;47386.277
546.108;46921.328;   -9.787;49151.949
546.693;49188.344;  -11.587;51384.637
547.278;48950.262;  -10.986;51853.254
547.862;45576.758;   -8.206;51173.750
548.447;41143.246;  -10.067;51691.395
549.031;40718.477;   -9.637;52456.703
549.616;45256.332;   -9.926;52714.516
550.201;44324.418;   -6.347;52414.598
550.785;45042.816;   -7.917;52355.059
551.370;44713.898;  -10.867;54589.453
551.954;45109.551;   -9.047;58267.348
552.538;46415.789;   -7.827;59062.176
553.123;44800.578;  -10.287;58115.285
553.707;42494.785;  -12.178;56556.285
554.291;42996.938;   -8.717;56201.668
554.876;44333.215;   -7.457;55335.762
555.460;45150.313;  -10.387;54155.703
556.044;47215.738;   -9.618;53721.484
556.628;45705.961;  -11.567;53731.016
557.212;44318.852;   -8.097;54312.531
557.796;42398.117;  -11.077;53797.773
558.380;42462.121;  -11.108;56145.984
558.964;43506.406;   -9.057;57277.930
559.548;44336.309;   -6.977;56459.641
560.132;42612.121;  -11.457;54434.543
560.716;41575.992;  -11.378;54800.617
561.300;42325.461;   -9.577;57606.945
561.884;43515.328;   -7.127;58972.445
562.467;42704.840;   -7.118;57327.570
563.051;41975.414;  -13.358;54962.434
563.635;41970.801;  -10.178;52594.473
564.219;42359.047;   -7.837;50610.410
564.802;43248.723;  -11.398;49551.180
565.386;43679.211;  -12.788;48370.953
565.969;43327.449;   -9.077;48178.871
566.553;42713.441;   -6.207;49957.305
567.136;42630.742;   -8.568;50369.594
567.720;38825.980;  -11.868;49492.004
568.303;37194.973;   -8.268;50616.352
568.887;37171.766;   -8.698;50727.148
569.470;37285.207;   -6.808;51698.379
570.053;36164.656;  -13.188;52122.078
570.637;35129.977;  -12.037;52536.438
571.220;34561.652;   -8.577;51186.098
571.803;34454.754;   -8.498;51032.762
572.386;36385.613;  -10.498;49609.887
572.969;38920.477;   -9.388;48285.926
573.552;37445.145;   -8.338;47624.285
574.135;36340.688;   -8.518;45498.641
574.718;33506.020;  -13.628;41970.434
575.301;31624.260;  -10.893;41447.137
575.884;29742.500;   -8.158;40923.836
576.467;30373.434;  -10.328;45267.723
577.050;33241.520;  -13.058;48175.543
577.633;36078.211;   -9.458;47729.328
578.216;35728.344;   -8.928;47579.793
578.799;34969.824;   -9.358;47820.996
579.381;33525.000;  -11.388;48115.551
579.964;32004.115;  -11.718;47333.766
580.547;33327.551;   -8.588;46668.969
581.129;34278.645;   -8.859;44466.141
581.712;34609.305;  -10.729;44164.922
582.294;35458.355;  -11.118;46477.855
582.877;35638.250;   -5.218;48244.254
583.459;33543.840;   -8.679;47437.895
584.042;32069.438;  -10.709;46943.219
584.624;32746.150;  -11.669;46792.227
585.206;32009.059;   -8.218;46557.250
585.789;32067.801;  -10.569;45793.773
586.371;34750.293;  -11.859;43836.391
586.953;35271.410;  -10.719;42972.492
587.536;36137.309;   -7.198;42487.211
588.118;35758.215;   -8.720;42086.414
588.700;32343.996;  -10.439;43389.930
589.282;31256.277;   -9.198;43646.039
589.864;31480.512;   -9.199;43438.109
590.446;31327.133;  -11.319;43151.926
591.028;29410.174;  -11.159;42781.867
591.610;27483.891;  -11.779;42839.098
592.192;26276.727;   -7.668;42820.402
592.774;27063.662;  -11.949;40724.277
593.356;27357.883;  -12.129;39874.789
593.937;27474.053;  -10.669;39980.648
594.519;29633.377;   -6.509;42069.633
595.101;31936.119;  -10.849;42976.031
595.683;32190.643;  -11.679;44084.441
596.264;33328.617;   -9.049;43478.797
596.846;32045.184;   -8.849;43803.672
597.427;31407.176;   -9.570;42986.934
598.009;33109.316;  -12.620;42832.219
598.591;33543.691;  -10.039;42580.086
599.172;32741.057;  -10.369;43061.805
599.753;32663.467;   -9.140;41691.469
600.335;34429.332;  -11.430;40692.520
600.916;33143.594;   -9.939;39982.422
601.498;30428.863;   -8.479;40318.617
602.079;29102.590;  -10.920;40670.609
602.660;29170.521;  -11.480;41450.898
603.241;30232.273;  -11.699;41137.738
603.823;29280.883;   -9.579;38868.797
604.404;29237.533;  -10.620;38182.785
604.985;30442.447;  -10.450;38078.047
605.566;29529.992;   -9.129;38056.633
606.147;29429.334;   -7.510;37020.418
606.728;31637.414;  -10.660;37883.359
607.309;30849.199;  -11.740;38748.273
607.890;30054.156;   -9.759;38850.230
608.471;29756.273;   -8.250;37457.918
609.051;28975.438;   -9.240;36066.457
609.632;28096.455;  -12.120;35991.074
610.213;29080.449;   -9.110;37402.641
610.794;29551.371;   -8.030;38383.363
611.374;28660.730;   -8.110;40562.387
611.955;28883.371;  -13.560;38533.727
612.536;30405.332;  -11.400;36951.789
613.116;30194.705;   -8.070;37197.891
613.697;30499.957;  -10.830;38411.125
614.277;29142.516;  -11.641;38673.938
614.858;29928.586;  -13.310;37075.863
615.438;29182.684;   -7.460;35092.906
616.019;26352.416;   -7.601;33666.301
616.599;27030.535;  -12.020;34189.023
617.179;28996.830;  -11.780;36952.047
617.760;29856.904;   -8.570;39582.574
618.340;31209.555;  -11.471;38943.977
618.920;32768.574;  -11.170;37594.156
619.500;32330.912;  -11.071;37866.938
620.080;31586.289;   -7.750;37869.043
620.660;32538.768;  -12.711;36868.617
621.241;33235.719;  -10.211;36352.309
621.821;33231.109;  -10.961;35459.520
622.401;32848.730;   -7.720;35207.414
622.980;31965.695;   -8.981;35980.422
623.560;30453.994;   -9.331;37351.328
624.140;29812.982;   -9.850;34388.582
624.720;24933.984;   -7.451;32368.764
625.300;21228.594;   -9.070;32638.629
625.880;24481.777;  -12.601;34599.035
626.459;28274.643;  -11.751;36831.738
627.039;31295.627;   -9.281;38299.098
627.619;31240.031;   -8.801;38289.574
628.198;29479.859;  -12.071;37220.695
628.778;28837.273;   -9.461;37632.563
629.357;29768.361;   -8.491;38003.012
629.937;29666.549;   -9.721;38402.039
630.516;28916.152;   -9.951;37868.801
631.096;28711.771;  -11.731;35760.410
631.675;31852.582;   -8.572;35225.219
632.254;36878.098;  -11.282;35130.289
632.834;36191.281;  -13.322;35794.570
633.413;34195.051;  -10.301;35788.922
633.992;31234.586;   -8.582;34532.863
634.571;32471.234;   -8.352;33590.113
635.151;35256.395;  -11.912;34943.863
635.730;33525.285;  -10.511;35352.523
636.309;30262.424;   -7.731;35366.605
636.888;27910.393;   -9.952;36165.637
637.467;28775.791;  -11.672;37515.902
638.046;30832.805;   -8.901;39288.695
638.625;33905.117;   -7.912;38279.699
639.204;33575.648;  -10.022;37741.598
639.782;31563.646;  -12.252;38364.551
640.361;27865.721;  -10.041;36740.621
640.940;24923.398;  -11.161;34950.082
641.519;25328.229;   -9.701;34137.398
642.097;27978.215;  -11.271;35654.258
642.676;30956.078;   -8.651;35637.957
643.255;31859.115;   -8.711;36567.074
643.833;30878.010;   -9.581;37809.434
644.412;31321.986;  -13.711;37337.293
644.990;30747.613;  -11.811;37018.531
645.569;30613.688;   -9.411;36518.469
646.147;29353.547;  -10.291;36186.430
646.726;28471.264;  -12.401;36267.688
647.304;29811.963;  -10.411;36647.625
647.882;31809.689;   -9.651;39286.742
648.461;33281.801;   -9.631;39157.703
649.039;31784.539;  -11.881;35412.883
649.617;31384.648;   -9.661;34744.918
650.195;31344.479;   -9.301;35403.098
650.773;30183.811;  -10.511;35053.797
651.352;27552.934;  -11.521;33756.816
651.930;25258.365;  -12.211;31868.773
652.508;23654.502;   -9.171;33121.551
653.086;27285.369;   -9.371;33564.793
653.663;30147.756;  -13.161;34054.668
654.241;29183.893;  -13.031;35693.309
654.819;31037.002;   -9.371;36422.906
655.397;31079.490;  -10.511;38213.484
655.975;30955.359;  -10.371;39507.625
656.553;30991.727;  -10.051;39498.223
657.130;29152.201;  -10.061;40395.480
657.708;28512.096;   -9.561;39242.020
658.286;28426.992;  -11.511;38920.020
658.863;29583.381;  -10.261;40202.898
659.441;32147.316;   -7.531;39677.938
660.018;31149.020;   -9.501;40413.355
660.596;30250.984;  -13.301;39931.414
661.173;32465.094;  -11.211;39604.531
661.750;32470.338;   -9.951;39700.070
662.328;31440.926;   -9.390;39292.809
662.905;30758.617;  -11.330;38235.648
663.482;26471.270;   -9.050;36212.305
664.060;24533.465;   -8.240;35944.945
664.637;27195.441;  -10.050;35170.785
665.214;29179.992;  -11.760;34197.523
665.791;30816.119;  -10.530;34549.520
666.368;29337.773;   -9.690;35118.578
666.945;29983.234;   -9.320;36019.418
667.522;31593.715;  -11.860;36048.438
668.099;32128.588;  -10.770;36243.914
668.676;31690.902;   -6.260;35958.875
669.253;29895.430;   -7.000;37384.730
669.830;30269.367;  -10.190;36779.629
670.407;29818.549;   -9.550;35231.289
670.984;30060.188;   -9.260;35544.270
671.560;30169.051;   -9.280;35466.867
672.137;28799.426;  -11.810;34280.863
672.714;29562.377;  -11.490;34632.863
673.290;29656.469;   -7.740;35135.422
673.867;29935.191;  -10.660;36114.480
674.443;30213.068;  -12.230;36152.859
675.020;28686.668;  -10.450;35327.238
675.596;29762.535;   -9.260;35795.176
676.173;30153.719;  -10.780;35430.355
676.749;29944.646;  -13.690;33549.516
677.326;30395.898;  -11.980;32210.012
677.902;30634.121;   -8.630;32068.871
678.478;29696.971;  -10.730;32583.891
679.054;29509.328;  -10.520;32088.928
679.631;30226.252;  -11.920;30978.848
680.207;31076.535;   -7.490;33160.887
680.783;32357.969;   -9.860;35570.363
681.359;31631.609;  -13.380;36125.184
681.935;30598.920;  -12.480;35240.922
682.511;29133.525;   -7.900;34429.961
683.087;29046.563;   -7.710;34463.680
683.663;29246.932;  -11.480;34648.898
684.239;28474.676;  -14.090;34546.457
684.815;28017.840;   -7.560;35586.375
685.390;28454.576;   -9.910;35821.895
685.966;29005.637;  -11.159;35085.871
686.542;31740.514;  -11.169;34198.230
687.118;33673.859;   -5.959;32847.707
687.693;33614.547;  -10.329;32794.027
688.269;32855.648;  -12.059;33072.367
688.844;30626.049;  -10.909;33141.664
689.420;28483.340;   -8.019;33965.742
689.995;26198.994;   -8.399;34655.523
690.571;25141.168;  -10.949;33576.742
691.146;25836.748;   -9.619;32657.219
691.722;25106.352;   -8.999;32526.979
692.297;25199.648;  -11.589;33014.617
692.872;27387.090;  -11.739;34012.254
693.448;26725.270;  -11.059;34237.434
694.023;25959.121;  -10.139;34142.672
694.598;28059.500;   -9.029;34132.031
695.173;28041.393;  -13.319;34205.250
695.748;27541.336;  -10.169;32882.488
696.323;27456.938;   -8.339;32864.906
696.898;27505.633;   -8.169;33170.004
697.473;27136.578;  -12.309;32432.984
698.048;26936.201;  -10.989;31649.303
698.623;27586.867;   -9.329;30778.141
699.198;29778.742;   -9.849;31140.119
699.773;30390.123;  -12.329;31764.299
700.348;28667.684;  -10.389;31780.816
700.922;28746.002;   -9.269;32046.375
701.497;29106.834;   -9.329;32603.574
702.072;29170.004;  -10.789;34799.871
702.646;28293.402;  -10.839;35793.172
703.221;26308.697;   -9.099;35201.590
703.795;28350.037;  -10.939;34764.527
704.370;28872.766;  -12.859;34307.367
704.944;29386.064;  -11.559;33509.887
705.519;30567.754;   -7.939;31388.584
706.093;31695.400;  -10.499;31340.104
706.668;31640.225;  -11.289;32630.281
707.242;30173.973;  -11.509;32728.779
707.816;28563.531;   -9.639;32947.238
708.390;27289.969;  -11.429;33277.855
708.965;28419.258;  -11.869;33834.336
709.539;29248.143;  -11.689;33709.273
710.113;29841.766;  -10.478;33044.313
710.687;28902.854;  -10.228;31953.992
711.261;26613.010;  -13.698;30505.949
711.835;26361.355;  -13.378;30262.369
712.409;27545.979;   -9.698;31254.447
712.983;28996.955;  -11.898;32754.986
713.557;29659.070;  -15.138;34018.824
714.131;29424.922;  -14.098;34579.625
714.704;28631.049;   -9.958;33890.262
715.278;26292.680;  -10.028;33531.102
715.852;25660.492;  -11.148;33601.660
716.425;26504.445;   -9.068;33515.117
716.999;26876.621;  -10.038;33185.555
717.573;27947.896;   -9.798;33905.996
718.146;29202.375;  -12.378;35199.293
718.720;28683.176;  -11.918;35060.551
719.293;28022.980;   -8.088;34973.230
719.867;30895.221;  -10.888;36394.449
720.440;30775.594;  -11.938;36663.008
721.013;29322.098;  -12.818;35102.426
721.587;28015.844;  -10.298;33985.266
722.160;26488.088;  -10.048;33524.965
722.733;25728.443;  -12.108;32987.043
723.306;26581.967;  -10.818;33066.301
723.880;28725.078;   -8.908;33399.500
724.453;30178.133;   -9.878;33468.297
725.026;28888.814;  -11.188;33816.637
725.599;26357.338;  -11.678;32797.996
726.172;27114.521;   -9.618;33187.434
726.745;28558.492;   -8.258;35136.613
727.318;30253.336;  -12.978;35751.730
727.891;30732.525;  -12.148;35890.430
728.463;30482.650;   -8.968;34822.090
729.036;29406.881;  -10.188;32895.086
729.609;29635.020;  -11.788;31823.225
730.182;26222.379;  -11.788;31445.283
730.754;23655.320;  -10.268;32373.223
731.327;23642.496;   -9.998;33676.820
731.900;23778.387;  -12.228;33417.000
732.472;25455.332;  -13.848;31978.498
733.045;27639.045;   -8.698;30368.777
733.617;27567.434;  -10.607;30574.215
734.190;26835.328;  -11.507;31280.975
734.762;23797.604;  -13.647;31674.412
735.334;22355.012;   -9.767;31247.291
735.907;22942.604;   -9.897;29876.211
736.479;22579.234;  -11.637;29808.488
737.051;22249.684;   -9.567;30233.547
737.623;23866.684;   -8.187;31469.086
738.195;25204.057;  -11.187;31784.225
738.768;26872.457;  -12.337;32120.523
739.340;26348.252;  -12.227;32094.342
739.912;24919.561;  -11.057;31312.680
740.484;23887.922;  -10.207;31946.238
741.056;23118.309;  -10.047;32984.059
741.628;25068.035;  -13.627;33897.715
742.199;27456.451;   -7.177;33213.016
742.771;25655.086;  -10.797;31369.113
743.343;23106.854;  -11.997;31865.473
743.915;21896.236;  -12.867;32388.631
744.487;22196.527;   -7.617;31079.568
745.058;22463.578;   -9.557;30570.107
745.630;23144.340;   -9.877;29970.127
746.201;23838.736;  -14.177;29186.766
746.773;23909.842;   -9.237;28805.723
747.344;23744.217;   -9.847;29591.223
747.916;22480.918;  -11.657;31412.201
748.487;22497.660;  -10.587;32194.898
749.059;23871.102;   -8.707;32533.719
749.630;25053.426;  -10.537;32158.518
750.201;24123.387;  -11.687;30855.395
750.773;22312.752;  -11.647;28622.555
751.344;22499.906;   -7.147;28405.732
751.915;23578.465;   -9.757;28461.551
752.486;22557.189;  -12.427;27842.850
753.057;20203.914;  -12.227;27845.008
753.628;19182.430;  -10.417;27728.107
754.199;20563.691;  -11.767;27381.086
754.770;21688.377;  -11.187;25882.203
755.341;21519.660;  -10.507;25886.184
755.912;21613.793;   -9.387;26050.861
756.483;20909.139;  -10.647;26798.779
757.054;19044.768;  -11.837;27048.238
757.625;17883.813;  -12.716;26294.838
758.195;17631.180;   -9.666;26142.076
758.766;17268.643;   -8.656;26392.234
759.337;18296.652;  -12.856;26334.594
759.907;20456.178;  -13.366;27579.652
760.478;21355.375;   -8.576;28352.770
761.048;20703.100;  -10.526;27325.088
761.619;19923.496;  -11.116;26460.428
762.189;19743.512;  -12.136;26029.826
762.760;20682.197;   -9.456;26430.145
763.330;21766.781;   -7.136;26670.902
763.900;21006.424;  -11.786;26603.021
764.471;18166.744;  -11.546;25542.740
765.041;16987.457;   -8.096;24358.459
765.611;17355.729;   -8.876;23991.297
766.181;17956.389;  -12.196;24470.236
766.751;18669.363;  -11.636;24845.975
767.321;18435.342;  -10.156;24533.633
767.891;16519.928;  -11.766;24916.492
768.461;16015.615;  -14.936;24776.771
769.031;16458.506;  -12.356;24757.988
769.601;18132.236;   -7.526;24181.088
770.171;18060.627;  -10.766;23670.387
770.741;17255.566;  -13.176;22960.045
771.311;17490.119;  -10.616;22917.523
771.880;17658.793;   -9.576;23562.941
772.450;17029.570;  -10.336;24216.500
773.020;17071.361;  -13.516;24140.398
773.589;16847.389;  -13.466;24414.857
774.159;16458.691;   -8.686;23858.717
774.729;16060.411;   -9.476;22942.135
775.298;15434.896;  -13.666;22324.033
775.867;14980.602;  -11.716;21140.313
776.437;14908.035;   -9.906;20838.092
777.006;14525.513;  -12.166;20599.510
777.576;14584.299;  -12.356;20508.809
778.145;14896.585;  -11.646;20732.947
778.714;14732.743;   -8.226;21062.465
779.283;13808.815;   -9.556;20949.664
779.853;13484.294;  -14.116;20508.623
780.422;13990.495;  -11.506;20649.082
780.991;13544.362;   -9.556;21527.520
781.560;12545.797;   -9.095;22632.658
782.129;12417.811;  -12.135;23048.277
782.698;12421.553;  -10.865;23438.555
783.267;12036.328;   -9.335;23267.734
783.836;11958.394;  -11.045;22415.133
784.404;12915.555;  -13.865;20443.152
784.973;13258.951;  -13.095;19699.150
785.542;13072.839;  -11.575;19763.828
786.111;12996.116;   -9.705;20341.408
786.679;12609.584;  -12.105;20207.967
787.248;12382.504;  -12.455;19516.465
787.817;12145.937;  -11.535;18900.363
788.385;11693.254;   -9.765;17879.121
788.954;11036.266;  -14.005;17658.301
789.522;10617.547;  -11.955;17788.879
790.090;11252.611;  -10.135;18118.277
790.659;11565.981;  -10.975;18338.736
791.227;10959.957;  -13.375;18508.615
791.795;11467.902;  -12.375;17898.254
792.364;11850.552;  -10.725;17295.133
792.932;12076.597;   -9.715;16822.051
793.500;12229.683;  -12.675;17040.148
794.068;12489.827;  -13.495;17179.787
794.636;12633.729;  -10.885;16664.246
795.204;12207.087;  -11.045;16524.545
795.772;12227.821;  -13.175;17274.564
796.340;11722.264;  -12.445;17891.002
796.908;11593.112;   -9.735;17648.561
797.476;11586.251;   -9.815;17064.080
798.044;11128.156;  -13.985;16672.777
798.612;10221.587;  -13.115;17023.996
799.180; 9852.711;  -10.185;16561.615
799.747; 9756.412;   -9.055;15962.773
800.315; 9452.195;  -12.385;15296.992
800.883; 9082.358;  -15.035;14801.771
801.450; 8998.259;  -10.365;14534.430
802.018; 9002.371;   -9.855;14173.248
802.585; 9060.153;  -11.905;14029.547
803.153; 9179.285;  -11.585;13836.846
803.720; 9169.269;   -9.095;13567.324
804.287; 8860.327;   -9.135;13360.622
804.855; 8416.417;  -11.604;13681.981
805.422; 8241.855;  -11.794;13536.560
805.989; 8190.783;  -10.734;13355.958
806.556; 8355.229;  -10.444;13747.896
807.124; 8653.786;  -12.764;13987.376
807.691; 8579.704;  -12.964;14038.674
808.258; 8374.722;  -11.134;14120.152
808.825; 8059.906;   -9.854;13860.111
809.392; 8106.281;  -10.504;13268.790
809.959; 7634.533;  -13.054;12680.389
810.526; 7226.285;   -8.294;12427.308
811.093; 7233.348;   -8.394;12030.105
811.659; 7741.184;  -12.304;11653.664
812.226; 8108.323;  -13.944;11637.183
812.793; 7780.930;  -10.484;11611.521
813.360; 7186.452;  -10.144;11885.181
813.926; 6844.598;  -11.684;12770.539
814.493; 6609.654;  -13.644;12677.638
815.060; 6289.205;   -9.724;11974.336
815.626; 6405.051;   -9.854;11594.715
816.193; 6874.544;  -13.254;11579.474
816.759; 6904.343;  -13.204;11666.972
817.325; 7039.552;   -9.434;11325.530
817.892; 7409.839;  -10.134;11105.369
818.458; 7796.872;  -13.474;10843.928
819.024; 7415.368;  -11.854;10714.406
819.591; 7051.134;  -10.244;10469.165
820.157; 6770.026;  -10.704;10235.523
820.723; 6257.838;  -12.324;10847.563
821.289; 6015.402;   -9.444;11040.980
821.855; 5961.669;   -8.374;10357.100
822.421; 5976.302;  -10.234; 9978.918
822.987; 5932.285;  -13.294; 9754.177
823.553; 5626.308;  -10.884;10065.755
824.119; 5468.333;   -8.884;10036.294
824.685; 5524.917;   -6.784;10029.192
825.251; 5582.324;  -12.004;10199.230
825.816; 5542.113;  -11.474; 9820.189
826.382; 5371.431;   -9.174; 9297.248
826.948; 5612.579;   -9.214; 9381.347
827.513; 5999.423;  -10.774; 9450.726
828.079; 5782.094;  -11.924; 9472.444
828.645; 5219.554;  -10.543; 9292.643
829.210; 5172.669;  -10.533; 9065.341
829.776; 5154.202;  -10.753; 9132.620
830.341; 5016.840;  -10.173; 9092.878
830.906; 5199.357;  -10.743; 9078.557
831.472; 5544.230;  -11.113; 8534.535
832.037; 5278.983;  -10.603; 8677.874
832.602; 4701.979;  -13.323; 8628.692
833.167; 4366.785;  -10.823; 8879.031
833.733; 4290.539;  -10.113; 9189.790
834.298; 4381.146;  -13.583; 9052.608
834.863; 4378.818;  -12.703; 8895.087
835.428; 4342.741;  -10.523; 8824.266
835.993; 4270.688;   -6.963; 8845.385
836.558; 4187.394;  -10.763; 8888.563
837.123; 4345.717;   -9.903; 8966.582
837.688; 4539.654;   -9.913; 8617.860
838.253; 4724.850;  -10.283; 8590.699
838.817; 4916.954;  -12.963; 8443.797
839.382; 4833.754;  -14.243; 8799.356
839.947; 4529.395;  -10.733; 8810.595
840.511; 4218.384;   -9.383; 8796.394
841.076; 3866.871;  -12.563; 8347.231
841.641; 3924.018;  -12.953; 8224.330
842.205; 3996.506;   -7.043; 8223.349
842.770; 4148.062;   -8.163; 8622.107
843.334; 4410.331;  -12.503; 8410.386
843.898; 4408.767;  -11.693; 8337.465
844.463; 4436.593;  -10.203; 8506.283
845.027; 4160.170;   -9.533; 8280.962
845.591; 3940.875;  -13.443; 8231.141
846.156; 3923.513;  -13.143; 7969.179
846.720; 3781.741;   -9.433; 7768.278
847.284; 3642.538;  -11.033; 7630.957
847.848; 3467.042;  -10.403; 7472.395
848.412; 3373.271;  -11.553; 7437.394
848.976; 3452.365;   -8.393; 7674.592
849.540; 3429.463;   -8.713; 7836.011
850.104; 3541.023;  -12.463; 7913.669
850.668; 3883.447;  -12.973; 7694.508
851.232; 3977.737;  -10.793; 7756.887
851.796; 3794.704;  -10.662; 7926.545
852.359; 3487.886;  -13.082; 7827.844
852.923; 3334.639;  -12.192; 7641.163
853.487; 3159.616;  -11.912; 7342.501
854.050; 3085.892;  -10.892; 7042.820
854.614; 3218.908;  -13.992; 7151.338
855.177; 3335.908;  -11.732; 7105.077
855.741; 3390.697;   -8.962; 6989.675
856.304; 3288.390;   -9.442; 6596.634
856.868; 3212.751;  -14.192; 6356.272
857.431; 3321.244;  -12.702; 6468.571
857.995; 3433.514;   -9.942; 6373.210
858.558; 3443.508;   -9.112; 6324.448
859.121; 3189.621;  -12.932; 6408.327
859.684; 3094.590;  -13.442; 6347.886
860.247; 3220.192;  -10.632; 6321.264
860.810; 3185.507;  -11.272; 6301.903
861.374; 2930.170;   -9.832; 6607.881
861.937; 2678.183;  -11.762; 6408.200
862.500; 2646.615;   -9.722; 6572.639
863.062; 2801.660;  -10.512; 6387.297
863.625; 2984.749;  -11.232; 6190.836
864.188; 3140.781;  -14.112; 5807.254
864.751; 3182.848;  -11.302; 5682.413
865.314; 3059.114;  -10.112; 5547.492
865.876; 2888.864;  -12.182; 5500.150
866.439; 2911.448;  -10.722; 5415.909
867.002; 2866.534;   -9.252; 5501.567
867.564; 2635.529;   -9.572; 5413.946
868.127; 2412.439;  -13.142; 5160.325
868.689; 2334.136;  -12.902; 5133.183
869.252; 2268.385;   -9.732; 5252.382
869.814; 2186.594;   -9.432; 5297.141
870.377; 2205.375;  -11.552; 5390.919
870.939; 2274.365;   -9.052; 5599.898
871.501; 2317.155;  -10.982; 5248.336
872.063; 2313.838;  -12.292; 4854.235
872.626; 2279.322;  -14.912; 4817.074
873.188; 2296.381;  -13.112; 4987.732
873.750; 2240.457;  -13.442; 4868.651
874.312; 2133.369;   -9.402; 4779.330
874.874; 2039.365;  -11.062; 4866.348
875.436; 1962.550;  -13.931; 4718.887
875.998; 1958.975;   -9.561; 4660.005
876.560; 1966.323;  -11.321; 4462.964
877.122; 1905.173;  -12.221; 4145.042
877.683; 1817.413;  -12.191; 4056.481
878.245; 1749.454;  -12.101; 3950.740
878.807; 1779.582;   -8.971; 4058.958
879.369; 1790.542;  -12.071; 3954.677
879.930; 1689.874;  -14.621; 3941.495
880.492; 1633.396;  -10.311; 4067.014
881.053; 1601.750;  -10.901; 3859.633
881.615; 1484.848;  -14.411; 3776.071
882.176; 1403.343;  -13.761; 3734.750
882.738; 1379.870;   -9.181; 3678.489
883.299; 1354.686;  -11.791; 3405.407
883.860; 1359.658;  -13.121; 3351.106
884.422; 1369.490;  -11.211; 3394.044
884.983; 1321.396;  -10.091; 3166.443
885.544; 1215.958;   -8.461; 3189.802
886.105; 1134.584;  -12.361; 3160.360
886.666; 1070.651;  -14.141; 3093.059
887.227; 1013.649;  -11.361; 2941.957
887.788;  946.257;  -11.401; 2974.836
888.349;  887.532;  -13.791; 2721.214
888.910;  892.884;  -13.191; 2696.493
889.471;  904.050;   -9.881; 2560.172
890.032;  888.147;   -9.881; 2558.190
890.593;  862.646;  -10.371; 2567.669
891.153;  833.627;  -13.301; 2460.307
891.714;  780.654;  -11.431; 2372.046
892.275;  739.944;  -11.291; 2309.505
892.835;  695.799;  -11.471; 2382.543
893.396;  635.822;  -11.541; 2295.502
893.956;  580.989;  -11.181; 2162.420
894.517;  546.651;  -11.741; 2125.439
895.077;  539.458;  -11.671; 2086.978
895.638;  538.858;  -11.311; 2126.316
896.198;  509.310;   -9.831; 1838.275
896.758;  464.660;   -8.421; 1892.813
897.319;  431.223;  -12.351; 1792.232
897.879;  411.938;  -13.511; 1762.751
898.439;  384.857;  -12.001; 1661.149
898.999;  359.053;  -10.180; 1781.468
899.559;  350.624;  -12.030; 1703.347
900.119;  346.302;  -15.710; 1537.525
900.679;  342.988;   -8.900; 1638.384
901.239;  329.465;   -8.340; 1527.902
901.799;  318.467;  -13.910; 1456.441
902.359;  312.339;  -13.460; 1357.140
902.919;  304.395;  -11.490; 1331.118
903.479;  290.010;  -12.110; 1317.257
904.038;  267.596;  -11.720; 1262.595
904.598;  250.958;  -13.610; 1152.034
905.158;  247.738;  -11.040; 1240.893
905.717;  238.592;  -10.900; 1233.691
906.277;  227.318;  -15.080; 1217.330
906.836;  218.507;  -13.380; 1222.408
907.396;  210.053;  -10.780; 1193.047
907.955;  203.391;   -8.500; 1182.526
908.515;  197.223;  -12.760; 1099.364
909.074;  190.782;  -11.900; 1092.863
909.633;  184.526;   -8.950; 1069.121
910.192;  179.103;   -8.770; 1196.460
910.752;  174.682;  -12.390; 1029.960
911.311;  170.543;  -13.680; 1009.780
911.870;  168.439;  -12.370;  971.460
912.429;  168.692;  -10.900; 1094.080
912.988;  168.030;  -11.690; 1081.060
913.547;  162.822;  -13.240;  940.380
914.106;  157.316;  -11.990;  999.420
914.665;  153.016;   -9.990;  984.020
915.224;  152.441;  -12.880; 1035.760
915.782;  152.866;  -12.350;  922.560
916.341;  152.996;   -9.110; 1049.840
916.900;  148.236;   -9.270;  925.260
917.458;  146.975;  -13.240;  884.220
918.017;  146.777;  -13.550;  942.600
918.576;  145.785;  -12.320;  904.440
919.134;  143.444;  -11.490;  837.980
919.693;  141.010;  -13.670;  893.060
920.251;  140.172;  -15.470;  876.500
920.809;  138.269;  -11.290;  839.580
921.368;  138.256;  -10.210;  885.360
921.926;  136.334;  -12.140;  842.940
922.484;  135.685;  -13.080;  903.360
923.042;  135.531;  -11.720;  880.340
923.601;  138.269;   -7.480;  998.680
924.159;  136.776;  -11.570;  935.560
924.717;  134.266;  -13.840;  841.080
925.275;  133.815;  -10.640;  903.240
925.833;  132.695;  -11.540;  779.320
926.391;  133.722;  -12.960;  938.380
926.949;  131.752;  -14.130;  857.680
927.506;  132.903;  -11.750;  903.500
928.064;  132.694;  -10.250;  877.580
928.622;  131.566;  -13.030;  880.100
929.180;  132.063;  -13.400;  814.180
929.737;  133.425;  -10.700;  808.540
930.295;  136.855;  -10.070;  928.480
930.853;  137.711;  -11.960;  849.100
931.410;  138.705;  -13.120;  821.120
931.968;  138.373;  -10.770;  940.660
932.525;  138.033;  -10.680;  909.380
933.082;  138.099;  -13.130;  811.440
933.640;  139.670;  -13.210;  925.900
934.197;  138.130;  -11.060;  886.360
934.754;  138.536;   -9.580;  897.780
935.312;  141.223;  -14.000;  863.340
935.869;  145.707;  -10.710; 1012.980
936.426;  146.225;   -9.860;  872.800
936.983;  147.101;   -9.710;  889.020
937.540;  146.962;  -13.990;  838.280
938.097;  145.473;  -14.040;  940.120
938.654;  145.366;  -10.310;  898.860
939.211;  148.833;  -10.560;  952.480
939.768;  152.664;  -13.900;  915.420
940.324;  156.304;  -14.760;  904.200
940.881;  156.296;  -10.370;  878.500
941.438;  157.234;   -8.260; 1021.200
941.995;  152.911;  -12.540;  992.560
942.551;  150.279;  -14.670;  875.620
943.108;  150.948;  -10.450;  937.920
943.664;  153.400;  -10.750;  869.340
944.221;  157.172;  -11.550; 1088.140
944.777;  154.964;  -14.770;  869.680
945.334;  157.810;  -12.820;  884.840
945.890;  159.257;  -10.130;  946.480
946.446;  159.171;  -13.470;  947.020
947.003;  160.789;  -12.120;  964.940
947.559;  164.049;   -9.980; 1063.040
948.115;  161.865;   -9.080; 1026.540
948.671;  160.287;  -10.830;  967.300
949.227;  157.402;  -12.440;  859.560
949.783;  154.693;  -12.910;  858.900
950.339;  155.500;  -10.270;  991.000
950.895;  156.677;  -13.630; 1023.840
951.451;  156.441;  -15.100;  925.280
952.007;  158.185;  -11.330;  998.540
952.563;  160.224;  -10.580;  937.780
953.118;  159.647;  -13.440;  904.940
953.674;  158.494;  -12.710;  935.780
954.230;  157.731;  -10.350;  949.640
954.785;  155.559;   -9.190;  936.640
955.341;  152.778;  -11.200;  998.160
955.897;  150.631;  -16.560;  834.660
956.452;  152.269;  -12.570;  953.840
957.008;  151.258;   -7.970; 1083.640
957.563;  148.862;  -11.940; 1009.540
958.118;  144.469;  -13.450;  877.700
958.674;  145.471;  -12.030;  946.780
959.229;  146.245;   -9.410; 1013.980
959.784;  144.614;  -12.000;  832.400
960.339;  143.436;  -14.780; 1001.280
960.894;  139.940;   -9.860;  963.760
961.449;  136.225;   -9.970;  859.960
962.004;  136.638;  -10.900; 1212.840
962.559;  131.241;  -13.150;  860.140
963.114;  129.353;  -13.740;  742.480
963.669;  128.804;   -9.820;  915.500
964.224;  126.921;  -13.890;  874.340
964.779;  126.345;  -12.600;  828.420
965.334;  126.676;  -10.950; 1017.860
965.888;  126.071;  -11.170;  875.360
966.443;  131.237;  -12.540;  972.380
966.998;  132.230;  -15.780;  819.460
967.552;  132.276;   -9.760;  908.380
968.107;  126.778;   -9.060;  868.300
968.661;  123.410;  -11.950;  922.440
969.216;  116.164;  -12.800;  856.280
969.770;  106.705;  -11.210;  917.200
970.324;   96.602;  -11.610;  923.140
970.879;   90.071;  -11.370;  947.180
971.433;   88.763;  -12.540;  952.720
971.987;   87.959;  -11.320;  895.340
972.541;   89.513;  -10.720;  917.100
973.095;   91.927;   -9.680; 1009.460
973.649;   92.213;  -11.440;  809.480
974.203;   92.422;  -11.210;  829.040
974.757;   93.977;  -10.240;  855.220
975.311;   94.474;  -13.720;  872.600
975.865;   94.528;  -13.770;  881.820
976.419;   93.216;  -11.690;  857.400
976.973;   94.626;   -9.510;  849.620
977.526;   96.830;  -12.620;  949.920
978.080;   96.266;  -12.010;  796.780
978.634;   97.880;  -10.170;  921.320
979.187;   95.094;   -9.020;  905.400
979.741;   93.673;   -9.820; 1018.380
980.294;   89.135;  -14.870;  789.160
980.848;   87.416;  -12.380;  717.220
981.401;   89.808;  -10.350;  816.540
981.955;   92.285;  -13.720;  844.300
982.508;   90.586;  -11.490;  746.340
983.061;   91.095;  -10.000;  915.260
983.615;   87.452;  -11.480;  798.800
984.168;   85.063;  -13.220;  770.080
984.721;   84.060;  -13.960;  880.760
985.274;   84.234;  -10.870;  867.500
985.827;   82.366;   -9.790;  834.220
986.380;   80.247;  -13.120;  721.340
986.933;   79.684;  -12.450;  864.800
987.486;   78.545;  -10.210;  861.920
988.039;   77.470;   -8.430;  863.100
988.591;   74.577;  -10.520;  893.260
989.144;   73.018;  -14.860;  737.260
989.697;   72.776;  -13.080;  758.740
990.250;   73.382;  -10.150;  858.100
990.802;   72.740;  -13.430;  755.860
991.355;   73.560;  -12.750;  974.880
991.907;   71.248;  -12.040;  864.320
992.460;   68.937;  -11.330;  753.760
993.012;   67.892;  -13.610;  749.540
993.565;   66.981;  -13.460;  711.360
994.117;   68.272;   -9.360;  950.780
994.669;   64.584;  -11.300;  701.320
995.221;   63.159;  -13.540;  791.920
995.774;   61.201;  -13.430;  787.580
996.326;   59.461;  -12.520;  740.220
996.878;   59.411;  -10.950;  838.420
997.430;   56.960;  -14.300;  699.860
997.982;   56.091;  -13.760;  750.140
998.534;   55.915;  -11.530;  739.060
999.086;   54.438;  -10.310;  738.220
999.638;   53.665;  -12.530;  661.380
1000.190;   53.427;  -11.840;  699.320
1000.741;   52.911;  -10.260;  742.700
1001.293;   51.729;   -8.860;  686.020
1001.845;   49.458;  -13.700;  676.640
1002.396;   49.077;  -12.100;  743.400
1002.948;   47.584;  -12.760;  737.400
1003.500;   45.782;  -10.380;  723.780
1004.051;   46.505;  -11.900;  907.580
1004.603;   45.779;  -12.250;  791.820
1005.154;   42.434;  -13.210;  608.980
1005.705;   41.274;  -10.950;  723.960
1006.257;   40.991;  -13.880;  707.220
1006.808;   40.582;  -12.840;  685.460
1007.359;   40.290;  -10.570;  763.240
1007.910;   39.323;   -9.620;  646.640
1008.461;   39.179;  -13.630;  732.940
1009.013;   38.746;  -17.200;  588.340
1009.564;   39.695;  -10.200;  793.520
1010.115;   37.386;  -12.570;  597.040
1010.665;   36.866;  -15.150;  602.160
1011.216;   37.704;  -14.480;  667.920
1011.767;   36.920;  -11.340;  697.920
1012.318;   36.700;   -9.780;  736.980
1012.869;   35.669;  -12.380;  679.000
1013.419;   35.172;  -15.560;  603.120
1013.970;   35.597;  -11.010;  666.640
1014.521;   34.598;  -11.610;  620.620
1015.071;   34.949;  -13.450;  670.380
1015.622;   34.922;  -13.870;  635.460
1016.172;   34.132;  -11.610;  596.820
1016.723;   33.253;  -12.120;  614.380
1017.273;   33.778;  -13.620;  604.160
1017.823;   33.911;  -14.140;  650.340
1018.374;   33.210;  -12.800;  611.760
1018.924;   33.288;  -12.340;  716.880
1019.474;   33.622;  -11.410;  718.880
1020.024;   31.786;  -14.770;  657.580
1020.574;   33.413;   -9.780;  726.160
1021.124;   32.400;   -8.560;  673.580
1021.674;   31.242;  -15.190;  559.120
1022.224;   33.271;  -13.530;  708.940
1022.774;   31.774;  -13.280;  668.820
1023.324;   32.117;  -10.690;  753.520
1023.874;   33.776;  -10.240;  875.760
1024.423;   30.694;  -12.540;  613.700
1024.973;   29.849;  -10.010;  610.760
1025.523;   29.398;  -10.550;  620.960
1026.072;   29.763;  -13.560;  606.420
1026.622;   29.663;  -15.120;  675.740
1027.172;   31.399;  -11.260;  715.660
1027.721;   29.415;  -11.410;  601.220
1028.270;   29.852;  -13.530;  663.400
1028.820;   29.318;  -13.680;  638.080
1029.369;   28.692;  -13.520;  612.700
1029.918;   29.293;  -10.980;  649.840
1030.468;   28.091;  -13.530;  564.780
1031.017;   28.398;  -13.170;  634.800
1031.566;   27.831;  -12.200;  608.900
1032.115;   28.872;   -9.960;  694.500
1032.664;   27.047;  -13.210;  596.480
1033.213;   28.074;  -12.500;  735.420
1033.762;   27.252;  -11.910;  635.620
1034.311;   27.490;   -9.640;  677.220
1034.860;   27.812;  -13.310;  691.000
1035.408;   27.381;  -11.830;  722.720
1035.957;   27.523;  -12.000;  719.540
1036.506;   25.622;  -11.690;  530.800
1037.055;   27.838;  -10.990;  844.320
1037.603;   26.118;  -15.120;  664.000
1038.152;   25.465;  -12.450;  534.760
1038.700;   25.674;  -10.560;  585.740
1039.249;   25.383;  -11.080;  681.220
1039.797;   25.836;  -12.540;  633.360
1040.345;   26.011;  -11.920;  705.420
1040.894;   25.263;  -11.410;  625.300
1041.442;   24.885;  -14.320;  632.200
1041.990;   23.607;  -16.240;  559.160
1042.538;   23.825;  -11.680;  536.180
1043.087;   25.072;  -10.760;  570.860
1043.635;   25.158;  -11.850;  670.500
1044.183;   23.955;  -15.480;  586.400
1044.731;   23.703;  -11.770;  576.000
1045.279;   23.147;  -13.090;  674.920
1045.827;   25.382;  -12.440;  892.400
1046.374;   22.143;  -13.840;  515.420
1046.922;   22.266;  -13.220;  590.580
1047.470;   23.847;  -10.230;  691.300
1048.018;   23.169;  -14.590;  647.960
1048.565;   23.876;  -12.050;  708.600
1049.113;   21.697;  -11.650;  557.000
1049.660;   22.347;  -10.510;  629.660
1050.208;   22.357;  -13.310;  675.640
1050.755;   21.098;  -15.900;  606.580
1051.303;   22.509;  -11.430;  686.820
1051.850;   21.415;   -8.480;  635.120
1052.397;   19.743;  -15.010;  473.960
1052.945;   20.524;  -13.960;  617.760
1053.492;   22.445;  -13.150;  741.840
1054.039;   21.506;   -9.630;  720.180
1054.586;   20.098;  -13.680;  557.240
1055.133;   21.663;  -14.570;  693.140
1055.680;   21.457;  -13.820;  646.620
1056.227;   20.254;  -11.730;  542.780
1056.774;   21.825;  -12.480;  794.980
1057.321;   19.177;  -13.930;  523.260
1057.868;   19.961;  -11.690;  651.320
1058.415;   20.444;   -9.520;  651.980
1058.961;   19.829;  -13.160;  678.940
1059.508;   19.957;  -12.920;  643.820
1060.055;   20.214;  -11.920;  581.780
1060.601;   19.992;  -11.500;  624.300
1061.148;   19.236;  -14.330;  616.820
1061.694;   18.470;  -16.870;  592.580
1062.241;   19.341;  -10.330;  596.320
1062.787;   19.587;  -10.620;  663.140
1063.334;   19.890;  -10.110;  808.560
1063.880;   19.446;  -13.400;  668.360
1064.426;   18.901;  -10.680;  706.820
1064.972;   17.303;   -9.920;  601.340
1065.518;   16.804;  -10.980;  566.640
1066.065;   18.355;  -14.890;  624.460
1066.611;   17.492;  -12.870;  598.800
1067.157;   18.466;  -12.950;  641.860
1067.703;   17.967;  -13.540;  668.480
1068.249;   17.400;  -13.540;  605.220
1068.794;   17.972;  -12.600;  626.880
1069.340;   15.976;  -10.620;  578.960
1069.886;   16.887;  -12.830;  590.700
1070.432;   16.581;  -14.870;  541.720
1070.977;   16.720;  -11.980;  601.080
1071.523;   15.912;   -8.200;  573.060
1072.068;   16.450;  -12.330;  582.000
1072.614;   16.351;  -16.370;  527.760
1073.160;   17.431;  -11.100;  687.040
1073.705;   15.526;  -10.480;  572.520
1074.250;   15.747;  -14.520;  559.900
1074.796;   16.865;  -11.460;  655.160
1075.341;   16.650;  -11.950;  664.100
1075.886;   15.543;  -11.460;  594.240
1076.431;   15.096;  -13.770;  649.880
1076.976;   15.285;  -12.680;  639.220
1077.521;   14.834;  -13.170;  583.080
1078.067;   14.032;  -10.860;  579.400
1078.612;   15.585;  -13.920;  661.620
1079.156;   15.188;  -13.880;  601.540
1079.701;   16.468;  -13.120;  693.260
1080.246;   15.044;   -9.940;  696.300
1080.791;   15.054;  -14.740;  625.020
1081.336;   14.817;  -13.750;  659.320
1081.880;   14.779;  -13.400;  649.680
1082.425;   13.743;  -12.220;  573.480
1082.970;   15.444;  -11.610;  717.040
1083.514;   13.995;  -13.580;  597.000
1084.059;   12.881;  -12.810;  586.720
1084.603;   12.971;  -12.320;  565.840
1085.147;   13.723;  -13.190;  645.220
1085.692;   14.192;  -12.480;  716.800
1086.236;   12.478;  -13.020;  503.140
1086.780;   14.988;   -9.190;  751.440
1087.325;   13.688;  -12.480;  654.620
1087.869;   13.522;  -12.450;  610.700
1088.413;   13.723;  -12.240;  705.040
1088.957;   12.141;   -9.020;  543.400
1089.501;   13.947;  -10.320;  766.640
1090.045;   13.118;  -12.720;  726.480
1090.589;   10.634;  -13.690;  569.920
1091.133;   13.126;  -10.020;  673.340
1091.676;   12.434;  -12.330;  591.940
1092.220;   11.797;  -14.970;  600.920
1092.764;   13.702;  -12.430;  706.960
1093.307;   12.785;   -9.800;  673.780
1093.851;   10.939;  -14.970;  556.540
1094.395;   12.675;  -15.310;  683.140
1094.938;   11.593;  -10.370;  632.520
1095.482;   11.912;  -11.050;  559.800
1096.025;   12.382;  -11.840;  710.880
1096.568;   12.691;  -12.840;  779.280
1097.112;    9.948;  -14.700;  508.180
1097.655;   11.771;   -8.720;  603.000
1098.198;   10.007;  -13.610;  600.180
1098.741;   10.217;  -13.350;  612.860
1099.285;   11.262;  -11.230;  657.300
1099.828;    9.514;  -11.840;  439.400
1100.371;    9.893;  -10.840;  608.160
1100.914;   10.521;  -14.190;  682.660
1101.457;   10.621;  -11.240;  679.900
1101.999;    9.079;  -11.270;  584.680
1102.542;   10.391;  -11.480;  641.440
1103.085;    9.841;  -11.750;  658.500
1103.628;   11.218;  -11.400;  762.060
1104.170;    9.203;  -10.490;  588.280
1104.713;    9.766;  -10.600;  646.700
1105.256;    8.851;  -14.360;  557.440
1105.798;    8.288;  -13.210;  499.980
1106.341;   10.053;  -10.270;  728.900
1106.883;    8.456;  -12.200;  521.340
1107.425;    8.699;  -13.110;  668.180
1107.968;    9.593;  -12.840;  612.380
1108.510;    9.368;   -6.480;  684.960
1109.052;    7.828;  -13.940;  612.620
1109.594;    8.803;  -13.690;  554.440
1110.136;    8.864;  -11.880;  643.220
1110.679;    8.053;   -9.500;  633.080
1111.221;    8.629;  -14.160;  604.460
1111.763;    7.575;  -13.980;  559.220
1112.304;    8.022;  -13.880;  547.140
1112.846;    8.917;  -12.210;  666.240
1113.388;   10.925;  -11.390;  942.180
1113.930;    8.216;  -14.540;  694.200
1114.472;    7.414;  -12.640;  606.540
1115.013;    6.082;  -11.620;  551.280
1115.555;    6.059;  -13.640;  587.100
1116.097;    6.384;  -15.380;  579.480
1116.638;    7.419;  -12.640;  684.600
1117.180;    7.867;   -9.850;  667.740
1117.721;    7.419;  -13.690;  568.580
1118.262;    7.377;  -12.680;  677.960
1118.804;    7.193;  -12.530;  637.340
1119.345;    6.467;  -11.690;  578.400
1119.886;    7.378;  -13.380;  704.040
1120.427;    5.740;  -14.070;  589.020
1120.969;    5.695;  -13.500;  597.920
1121.510;    4.972;  -11.480;  563.060
1122.051;    5.940;  -12.830;  723.580
1122.592;    5.611;  -14.290;  655.420
1123.133;    4.810;  -12.400;  547.940
1123.673;    6.467;  -10.130;  706.480
1124.214;    5.737;  -12.930;  612.460
1124.755;    5.528;  -14.380;  639.460
1125.296;    6.158;  -14.000;  627.320
1125.836;    6.706;  -10.070;  691.500
1126.377;    5.585;  -12.640;  599.660
1126.918;    5.183;  -12.960;  614.980
1127.458;    4.349;  -13.350;  622.220
1127.999;    5.748;  -10.750;  656.980
1128.539;    5.825;  -12.350;  694.240
1129.079;    4.392;  -14.860;  632.720
1129.620;    4.347;  -13.840;  558.100
1130.160;    4.596;  -12.330;  539.480
1130.700;    5.602;  -14.530;  640.840
1131.240;    5.110;  -12.530;  643.700
1131.781;    5.201;  -14.450;  619.680
1132.321;    4.293;   -9.790;  599.120
1132.861;    3.472;  -14.860;  564.200
1133.401;    3.548;  -14.290;  593.940
1133.941;    4.124;  -11.750;  626.280
1134.481;    3.222;   -9.920;  597.580
1135.020;    3.672;  -12.290;  609.160
1135.560;    4.303;  -11.650;  674.940
1136.100;    3.430;  -16.270;  501.160
1136.640;    3.412;  -10.890;  510.480
1137.179;    3.327;  -14.180;  537.960
1137.719;    3.673;  -16.250;  605.400
1138.258;    3.677;  -14.230;  587.360
1138.798;    4.537;   -9.090;  663.780
1139.337;    2.071;  -15.130;  482.840
1139.877;    3.525;  -13.680;  642.360
1140.416;    5.260;  -11.320;  878.060
1140.955;    2.217;  -10.860;  535.380
1141.494;    3.087;  -12.920;  669.280
1142.034;    2.615;  -13.930;  583.520
1142.573;    3.642;  -11.440;  646.280
1143.112;    2.393;  -12.000;  553.480
1143.651;    2.687;  -13.670;  536.480
1144.190;    3.369;  -12.730;  691.640
1144.729;    2.948;  -14.560;  607.420
1145.267;    2.907;  -11.830;  584.900
1145.806;    2.673;  -12.230;  637.040
1146.345;    1.724;  -14.130;  635.020
1146.884;    2.150;  -11.590;  622.500
1147.422;    1.267;  -12.550;  533.060
1147.961;    2.556;  -11.180;  708.460
1148.500;    2.850;  -11.510;  669.720
1149.038;    2.394;  -11.640;  632.500
1149.577;    2.235;  -10.130;  698.640
1150.115;    0.513;  -13.970;  452.280
1150.653;    2.218;  -14.520;  607.340
1151.192;    1.780;  -12.810;  552.920
1151.730;    2.064;   -9.100;  652.560
1152.268;    0.791;  -12.220;  589.520
1152.806;    1.302;  -14.140;  571.180
1153.344;    0.798;  -12.350;  577.640
1153.882;    1.259;   -8.980;  600.060
1154.421;   -0.129;  -15.190;  470.620
1154.958;    0.598;  -15.210;  595.240
1155.496;    2.136;  -12.850;  645.280
1156.034;    1.255;   -9.940;  721.880
1156.572;    1.853;  -13.570;  667.060
1157.110;    0.080;  -14.590;  473.940
1157.647;    1.478;  -13.030;  676.960
1158.185;    0.132;  -12.140;  564.320
1158.723;   -0.947;  -14.390;  509.200
1159.260;    0.798;  -14.090;  701.700
1159.798;    0.576;  -11.920;  658.160
1160.335;    0.682;  -11.110;  631.820

