
Integration time [ms]:   3.276
Averaging Nr. [scans]: 1000
Smoothing Nr. [pixels]: 0
Data measured with spectrometer [name]: 7414430SP
Wave   ;Sample   ;Dark     ;Reference
[nm]   ;[counts] ;[counts] ;[counts] 

288.544;  150.684;    7.793;  793.890
289.143;  155.767;    7.462;  681.602
289.742;  155.493;    8.602;  828.814
290.341;  140.374;    1.321;  789.841
290.940;  130.734;   -0.709;  730.702
291.538;  131.509;    0.881;  881.108
292.137;  131.067;    0.122;  792.581
292.736;  135.126;   -1.929;  975.101
293.335;  131.844;   -8.229;  735.086
293.934;  131.703;   -5.279;  781.677
294.532;  130.912;   -1.369; 1031.958
295.131;  116.829;   -7.641;  834.394
295.730;  116.538;   -8.420;  809.588
296.328;  116.058;   -5.611;  783.442
296.927;  116.533;   -5.781;  779.652
297.525;  117.050;   -6.361;  781.236
298.124;  107.704;  -11.382;  654.009
298.722;  111.650;   -7.641;  761.933
299.321;  109.716;   -6.811;  708.597
299.919;  107.317;   -6.991;  751.918
300.518;  104.636;  -10.362;  689.338
301.116;  106.065;   -9.581;  691.381
301.715;  106.043;   -4.891;  730.222
302.313;  104.882;   -8.801;  704.943
302.911;  100.142;   -8.522;  733.830
303.509;  105.977;   -6.171;  925.627
304.108;  103.735;   -7.311;  760.383
304.706;  101.899;   -8.321;  801.664
305.304;   96.767;  -10.222;  796.707
305.902;  102.434;   -6.021;  784.484
306.500;   98.418;   -4.971;  728.200
307.098;   97.087;   -7.061;  746.560
307.696;   94.238;   -8.801;  780.432
308.294;   95.063;   -6.411;  731.359
308.892;   97.688;   -2.901;  759.769
309.490;   93.538;   -5.041;  712.161
310.088;   92.162;   -5.002;  788.444
310.686;   96.114;   -2.041;  821.749
311.284;   91.616;   -2.351;  766.040
311.882;   89.648;   -4.422;  731.225
312.480;   86.261;   -4.192;  697.167
313.078;   87.917;   -1.172;  808.331
313.675;   88.205;   -2.601;  691.600
314.273;   83.638;   -1.312;  797.837
314.871;   82.607;   -3.942;  589.829
315.468;   82.042;   -2.802;  652.090
316.066;   83.765;   -0.701;  694.427
316.664;   76.811;   -4.362;  656.351
317.261;   80.169;   -2.872;  910.128
317.859;   76.555;   -2.022;  768.735
318.456;   75.881;   -0.531;  830.096
319.054;   71.946;   -3.912;  787.828
319.651;   71.515;   -4.752;  759.928
320.249;   70.432;   -2.602;  810.188
320.846;   68.210;   -0.821;  714.286
321.443;   66.496;   -4.642;  832.135
322.041;   63.081;   -5.002;  812.315
322.638;   60.850;   -3.982;  701.456
323.235;   61.933;   -3.411;  665.683
323.833;   59.410;   -7.361;  740.354
324.430;   54.698;   -8.611;  615.900
325.027;   55.466;   -4.061;  876.855
325.624;   54.917;   -4.031;  644.532
326.221;   51.776;   -7.481;  689.717
326.818;   52.509;   -5.281;  818.332
327.415;   54.738;   -7.460;  748.828
328.012;   54.815;   -5.510;  690.585
328.609;   53.417;   -7.880;  731.389
329.206;   51.867;   -8.331;  778.621
329.803;   51.549;   -5.121;  737.841
330.400;   54.226;   -4.510;  704.260
330.997;   55.665;   -6.441;  817.147
331.594;   54.819;   -8.831;  788.185
332.191;   59.721;   -7.621;  728.722
332.787;   62.100;   -4.591;  844.463
333.384;   60.718;   -7.412;  763.093
333.981;   59.295;   -8.293;  815.687
334.578;   61.919;   -7.052;  708.378
335.174;   64.977;   -3.102;  731.469
335.771;   65.126;   -5.943;  836.456
336.367;   62.193;   -7.393;  710.631
336.964;   65.167;   -4.063;  793.266
337.561;   62.696;   -3.813;  731.112
338.157;   58.559;   -4.654;  911.916
338.754;   56.902;   -7.934;  796.589
339.350;   54.475;   -4.414;  722.493
339.946;   56.518;   -4.664;  773.135
340.543;   49.120;   -6.375;  846.136
341.139;   42.703;   -9.815;  720.836
341.735;   41.851;   -4.526;  772.593
342.332;   39.583;   -4.895;  691.472
342.928;   40.175;   -4.295;  795.394
343.524;   34.741;   -5.476;  761.684
344.120;   30.245;   -5.856;  738.562
344.716;   33.781;   -2.155;  723.717
345.313;   31.811;   -6.275;  795.342
345.909;   26.839;   -8.815;  627.336
346.505;   27.963;   -5.305;  740.247
347.101;   28.527;   -2.674;  827.864
347.697;   28.984;   -4.344;  785.398
348.293;   23.856;   -9.975;  627.244
348.889;   25.439;   -5.774;  745.914
349.485;   24.556;   -5.004;  688.205
350.081;   24.146;   -4.704;  772.592
350.676;   19.451;   -6.635;  691.606
351.272;   24.123;   -4.504;  809.530
351.868;   23.222;   -3.914;  780.497
352.464;   21.211;   -9.044;  723.932
353.059;   17.848;   -8.314;  646.017
353.655;   20.606;   -7.024;  777.063
354.251;   21.509;   -5.343;  759.845
354.846;   16.475;   -8.604;  740.646
355.442;   14.197;   -6.945;  753.071
356.038;   16.086;   -7.564;  751.708
356.633;   16.135;   -5.814;  728.594
357.229;   13.860;   -7.364;  724.757
357.824;   12.155;   -8.024;  703.600
358.420;   11.519;   -9.384;  679.726
359.015;   11.808;   -5.104;  695.357
359.610;   13.180;   -6.854;  763.920
360.206;    6.666;  -10.185;  603.240
360.801;   10.107;   -7.054;  646.503
361.396;   12.119;   -5.034;  725.975
361.992;    7.629;   -8.284;  668.220
362.587;    4.715;   -8.625;  670.160
363.182;    7.238;   -7.674;  689.631
363.777;    7.886;   -5.164;  738.242
364.372;    7.401;   -8.604;  737.314
364.967;    4.069;   -9.055;  680.744
365.563;    8.099;   -6.114;  815.567
366.158;    5.067;   -5.814;  685.161
366.753;    5.432;   -7.854;  649.263
367.348;    4.229;   -7.804;  746.056
367.942;    3.541;   -7.954;  697.298
368.537;    2.884;   -4.984;  754.245
369.132;    3.446;   -8.564;  703.428
369.727;   -1.124;   -8.855;  638.079
370.322;    0.139;   -6.245;  580.186
370.917;    0.407;   -6.425;  710.646
371.511;    2.821;   -6.294;  861.834
372.106;   -0.447;   -7.685;  776.964
372.701;   -4.080;   -7.335;  585.988
373.296;    2.035;   -4.564;  863.135
373.890;   -2.184;  -10.235;  647.840
374.485;   -4.876;   -7.885;  691.199
375.079;   -1.150;   -7.324;  738.685
375.674;    0.254;   -3.494;  812.970
376.268;   -4.012;   -8.525;  691.759
376.863;   -9.878;  -10.086;  580.327
377.457;   -3.877;   -7.025;  662.490
378.052;   -5.599;   -3.585;  764.884
378.646;   -7.177;   -7.595;  741.167
379.240;   -6.499;   -8.335;  721.176
379.835;   -5.939;   -5.785;  636.978
380.429;   -7.630;   -4.335;  562.557
381.023;   -7.724;   -6.805;  779.205
381.617;   -9.450;   -9.195;  680.106
382.212;   -6.791;   -6.905;  685.303
382.806;   -6.089;   -3.745;  760.690
383.400;   -9.537;   -7.745;  672.281
383.994;  -10.271;   -9.765;  664.870
384.588;   -6.953;   -6.564;  697.701
385.182;   -6.492;   -5.344;  726.624
385.776;   -7.059;   -8.514;  706.875
386.370;  -10.941;   -9.555;  681.968
386.964;   -8.735;   -8.715;  684.155
387.558;   -6.718;   -6.174;  598.360
388.152;  -11.163;   -8.725;  681.959
388.745;   -9.731;   -7.965;  814.707
389.339;   -7.781;   -5.924;  747.642
389.933;   -6.575;   -5.524;  695.370
390.527;   -7.481;   -7.114;  859.029
391.120;  -14.111;  -10.725;  595.318
391.714;  -11.098;   -8.035;  711.633
392.308;   -8.384;   -3.574;  780.253
392.901;  -11.618;   -7.245;  642.460
393.495;  -12.995;   -9.285;  595.414
394.089;  -10.356;   -5.895;  760.452
394.682;  -11.987;   -4.295;  697.188
395.275;  -12.149;   -9.875;  719.927
395.869;  -13.469;   -8.485;  667.314
396.462;  -11.162;   -7.455;  616.609
397.056;   -8.090;   -5.424;  776.621
397.649;  -12.423;   -6.605;  731.575
398.242;  -10.533;   -8.224;  712.645
398.836;   -8.935;   -7.474;  766.408
399.429;  -10.605;   -7.094;  631.041
400.022;  -14.621;   -9.475;  665.902
400.615;  -11.119;   -7.145;  805.609
401.208;   -8.932;   -7.174;  691.451
401.802;  -11.783;   -5.515;  699.329
402.395;  -12.437;   -9.875;  683.502
402.988;  -13.742;   -8.845;  696.627
403.581;   -9.968;   -8.874;  646.878
404.174;   -7.899;   -5.324;  686.568
404.767;  -11.146;   -9.575;  638.583
405.360;  -13.790;  -10.965;  621.445
405.953;   -7.779;   -8.764;  759.034
406.545;   -7.373;   -7.514;  725.342
407.138;  -12.279;  -10.025;  618.350
407.731;  -10.977;  -10.034;  613.303
408.324;   -5.978;   -9.374;  660.554
408.917;   -6.947;   -6.534;  681.864
409.509;   -9.046;   -8.004;  740.396
410.102;  -11.214;   -9.875;  643.948
410.695;   -5.356;   -8.604;  665.758
411.287;   -6.155;   -6.794;  599.821
411.880;   -7.762;   -9.334;  585.421
412.472;  -10.088;  -10.254;  613.092
413.065;   -8.214;   -6.714;  629.408
413.657;   -5.810;   -7.234;  576.678
414.250;   -5.759;  -10.544;  646.681
414.842;   -7.369;   -9.744;  676.353
415.434;   -4.865;   -6.994;  570.463
416.027;   -0.808;   -5.893;  652.196
416.619;   -2.804;   -7.264;  713.400
417.211;   -3.345;  -10.374;  599.352
417.804;    0.365;   -7.993;  628.499
418.396;   -3.187;   -7.234;  607.643
418.988;   -1.240;   -9.443;  659.238
419.580;   -4.638;  -10.724;  568.276
420.172;   -2.845;  -10.323;  536.196
420.764;    1.773;   -8.793;  672.482
421.356;    0.610;  -11.143;  636.898
421.948;   -0.262;   -8.293;  677.661
422.540;    4.452;   -7.893;  680.027
423.132;    4.296;   -7.082;  600.641
423.724;    0.953;   -8.653;  561.267
424.316;    2.578;  -10.213;  621.345
424.908;    6.130;   -9.762;  591.517
425.500;    6.746;   -5.572;  647.978
426.092;    7.581;   -8.422;  648.268
426.683;    6.885;   -9.283;  684.836
427.275;    8.900;   -7.852;  641.471
427.867;   11.314;   -5.272;  668.948
428.458;   11.828;   -7.682;  732.344
429.050;    9.659;  -10.612;  680.749
429.642;   12.824;   -9.882;  743.124
430.233;   13.083;   -6.962;  569.356
430.825;   14.230;   -6.842;  724.809
431.416;   11.209;   -9.672;  698.241
432.008;   14.485;   -6.552;  651.723
432.599;   15.425;   -6.891;  656.073
433.190;   12.159;  -10.912;  637.670
433.782;   12.192;  -11.172;  590.395
434.373;   19.608;   -6.061;  884.765
434.964;   18.318;   -8.251;  602.920
435.556;   15.656;   -9.722;  634.537
436.147;   19.197;   -9.082;  758.490
436.738;   19.241;   -8.041;  701.099
437.329;   24.210;   -7.341;  721.723
437.920;   17.103;   -8.162;  666.688
438.511;   17.218;  -11.802;  564.526
439.103;   23.557;  -10.191;  623.998
439.694;   24.829;   -7.601;  681.583
440.285;   25.881;   -8.541;  764.432
440.876;   24.714;   -9.751;  845.738
441.466;   23.807;   -9.401;  575.162
442.057;   28.982;   -7.760;  665.814
442.648;   27.813;   -9.971;  746.255
443.239;   26.562;  -11.001;  620.477
443.830;   31.758;   -7.990;  704.958
444.421;   33.481;   -7.910;  655.474
445.011;   29.743;   -8.131;  693.619
445.602;   29.739;   -7.111;  743.126
446.193;   31.520;  -10.920;  488.117
446.783;   35.468;   -6.500;  640.397
447.374;   31.490;   -8.671;  692.759
447.964;   32.681;  -10.781;  713.770
448.555;   40.749;   -9.650;  822.742
449.145;   37.009;   -8.660;  662.853
449.736;   37.624;   -8.990;  803.179
450.326;   37.743;   -9.500;  713.626
450.917;   43.085;   -8.680;  675.324
451.507;   41.432;   -7.520;  600.661
452.097;   42.472;   -8.590;  746.267
452.688;   43.976;  -11.340;  742.160
453.278;   43.352;  -10.100;  566.840
453.868;   48.164;   -6.019;  793.550
454.458;   45.741;   -9.440;  651.141
455.048;   46.697;  -10.560;  711.783
455.639;   48.225;  -11.799;  567.096
456.229;   51.574;   -6.899;  710.694
456.819;   53.017;   -7.389;  751.158
457.409;   53.446;  -11.119;  773.993
457.999;   56.042;   -9.289;  737.505
458.589;   56.123;   -6.139;  686.606
459.179;   56.813;   -8.729;  717.658
459.769;   54.170;   -9.789;  627.099
460.358;   59.339;  -10.259;  797.262
460.948;   59.308;   -7.299;  689.503
461.538;   61.582;  -10.289;  660.677
462.128;   58.879;  -11.269;  664.934
462.717;   65.438;   -9.368;  710.326
463.307;   69.228;   -7.908;  705.846
463.897;   65.194;   -9.599;  656.942
464.486;   63.585;   -9.769;  837.128
465.076;   68.198;   -8.048;  733.776
465.666;   72.898;   -9.358;  652.900
466.255;   69.418;   -7.919;  785.651
466.845;   68.553;  -11.689;  666.749
467.434;   71.701;   -7.818;  725.873
468.023;   72.741;   -7.678;  658.357
468.613;   70.510;  -10.939;  713.946
469.202;   75.226;  -10.118;  646.507
469.791;   79.861;   -9.108;  737.811
470.381;   81.192;   -6.058;  742.813
470.970;   81.916;  -10.428;  711.099
471.559;   80.978;  -10.268;  733.291
472.148;   83.997;   -8.448;  675.737
472.738;   85.487;   -6.917;  765.466
473.327;   86.416;  -11.978;  637.529
473.916;   85.972;  -11.888;  737.446
474.505;   90.269;   -9.437;  751.703
475.094;   93.399;   -6.747;  806.570
475.683;   92.613;   -9.367;  797.699
476.272;   93.515;  -12.637;  730.632
476.861;   96.744;  -10.027;  706.754
477.449;  103.140;   -8.716;  728.487
478.038;   97.691;   -9.577;  692.513
478.627;   98.625;   -9.718;  714.852
479.216;  106.009;   -8.947;  769.441
479.805;  108.001;   -6.256;  783.375
480.393;  108.048;   -7.937; 1008.945
480.982;  107.293;   -7.717;  874.501
481.571;  113.786;   -9.266;  858.333
482.159;  114.611;   -7.636;  705.386
482.748;  113.913;   -9.667;  821.385
483.336;  118.873;  -10.376;  858.209
483.925;  120.124;   -7.147;  774.373
484.513;  127.601;   -7.996;  758.962
485.102;  123.839;  -10.027;  810.965
485.690;  132.144;  -10.446; 1011.050
486.278;  134.347;   -8.446;  979.329
486.867;  134.375;   -6.356;  809.662
487.455;  137.240;   -9.136;  898.229
488.043;  139.214;  -10.646;  748.361
488.631;  148.031;   -7.456; 1005.079
489.220;  151.375;   -6.636;  908.626
489.808;  151.528;  -11.036;  741.415
490.396;  160.043;  -10.246;  914.645
490.984;  167.247;   -8.556;  830.161
491.572;  176.546;   -5.886;  940.315
492.160;  182.970;   -9.486;  919.081
492.748;  196.063;  -10.976;  884.341
493.336;  221.375;   -8.776; 1019.693
493.924;  248.504;   -5.465;  958.077
494.512;  277.298;   -9.986; 1066.638
495.100;  319.397;  -10.636; 1103.280
495.687;  374.610;  -10.885; 1206.373
496.275;  439.833;   -8.126; 1150.796
496.863;  510.744;  -10.586; 1281.171
497.451;  618.053;  -11.926; 1386.805
498.038;  764.046;  -10.885; 1556.729
498.626;  879.281;   -6.315; 1741.407
499.214; 1024.557;   -7.326; 2016.609
499.801; 1227.658;  -11.906; 2220.633
500.389; 1500.500;  -10.466; 2312.494
500.976; 1836.004;   -5.236; 2744.849
501.564; 2278.401;   -8.936; 3148.565
502.151; 2666.178;  -13.176; 3515.999
502.738; 3166.599;  -10.646; 3971.274
503.326; 3591.604;   -9.525; 4403.796
503.913; 3992.292;  -10.856; 5161.749
504.500; 4339.726;  -11.586; 5986.420
505.088; 4832.567;  -10.336; 6381.201
505.675; 5383.271;   -6.355; 6925.547
506.262; 6067.205;   -9.046; 7619.060
506.849; 6855.926;  -10.416; 8733.969
507.436; 7333.600;  -10.305; 9790.121
508.023; 7909.055;   -5.496; 9985.472
508.610; 8213.114;   -7.856;10434.618
509.197; 8913.961;  -10.097;11198.435
509.784;10426.724;  -10.886;12391.194
510.371;11473.714;   -9.315;13603.713
510.958;12253.689;   -9.936;14426.586
511.545;13120.258;   -9.326;15243.775
512.132;14047.777;  -10.075;15945.876
512.719;14639.992;   -7.796;16340.369
513.305;15515.394;  -10.606;18011.766
513.892;16264.737;  -11.486;19754.971
514.479;17938.230;   -9.126;20967.805
515.066;19661.850;   -6.026;22299.793
515.652;20761.705;   -8.466;22908.660
516.239;21948.730;  -10.886;23798.875
516.825;23178.371;  -11.496;25567.275
517.412;24314.689;   -5.796;28154.959
517.998;25188.354;  -10.506;28344.111
518.585;25263.227;  -10.076;27134.219
519.171;25433.873;   -8.315;27268.576
519.758;26372.393;   -8.596;28964.129
520.344;28359.373;   -8.466;30664.494
520.930;29009.453;  -11.006;32550.605
521.516;30897.445;  -10.495;35422.895
522.103;33678.305;   -5.526;38280.004
522.689;34607.578;   -8.746;37835.117
523.275;34195.270;  -11.376;37288.613
523.861;34805.059;  -11.156;37281.395
524.447;35734.816;   -8.135;37846.949
525.033;35154.145;   -7.896;38321.949
525.619;35623.098;  -12.476;38579.285
526.205;37641.410;   -9.516;40622.875
526.791;40364.141;   -6.926;42258.836
527.377;40502.043;   -8.346;42966.902
527.963;42699.840;   -8.717;42018.949
528.549;41025.250;  -11.016;42476.828
529.135;39236.406;   -8.536;41854.852
529.721;38847.164;   -9.666;41237.711
530.306;38218.227;  -10.066;41259.445
530.892;38232.742;  -11.356;41506.047
531.478;39663.750;   -6.596;43559.613
532.063;42000.766;   -8.836;47695.563
532.649;42056.863;  -10.047;50808.324
533.235;43637.340;   -9.746;51787.500
533.820;45179.668;   -6.566;52145.035
534.406;46109.918;  -10.817;51133.488
534.991;45649.723;   -9.416;49996.805
535.576;44560.703;   -9.036;48882.852
536.162;44881.676;   -6.156;46942.285
536.747;46032.941;  -11.607;45711.746
537.333;49967.742;  -11.787;48510.180
537.918;53254.926;  -12.437;50439.891
538.503;51680.156;   -7.196;50863.711
539.088;48199.238;  -10.556;50906.922
539.673;47894.770;   -8.767;52621.965
540.259;47423.340;  -10.026;52368.094
540.844;44738.484;   -7.416;50879.109
541.429;45429.441;   -9.467;52077.777
542.014;49263.574;   -9.527;52716.695
542.599;49320.824;   -9.946;52363.281
543.184;46469.574;   -7.927;53187.137
543.769;47361.461;   -9.297;54697.605
544.354;46581.305;  -10.127;53913.914
544.938;45781.695;   -9.267;49680.164
545.523;48155.461;   -6.506;47386.277
546.108;50529.223;   -9.787;49151.949
546.693;53013.488;  -11.587;51384.637
547.278;52532.641;  -10.986;51853.254
547.862;49029.586;   -8.206;51173.750
548.447;44343.637;  -10.067;51691.395
549.031;43864.512;   -9.637;52456.703
549.616;48692.988;   -9.926;52714.516
550.201;47795.688;   -6.347;52414.598
550.785;48620.387;   -7.917;52355.059
551.370;48109.770;  -10.867;54589.453
551.954;48254.277;   -9.047;58267.348
552.538;49684.680;   -7.827;59062.176
553.123;48068.703;  -10.287;58115.285
553.707;45657.246;  -12.178;56556.285
554.291;46031.141;   -8.717;56201.668
554.876;47363.332;   -7.457;55335.762
555.460;48188.949;  -10.387;54155.703
556.044;50566.316;   -9.618;53721.484
556.628;49080.984;  -11.567;53731.016
557.212;47575.973;   -8.097;54312.531
557.796;45479.566;  -11.077;53797.773
558.380;45554.246;  -11.108;56145.984
558.964;46633.043;   -9.057;57277.930
559.548;47677.031;   -6.977;56459.641
560.132;45854.973;  -11.457;54434.543
560.716;44575.133;  -11.378;54800.617
561.300;45211.938;   -9.577;57606.945
561.884;46450.840;   -7.127;58972.445
562.467;45558.102;   -7.118;57327.570
563.051;44892.086;  -13.358;54962.434
563.635;45064.801;  -10.178;52594.473
564.219;45257.762;   -7.837;50610.410
564.802;46091.387;  -11.398;49551.180
565.386;46609.188;  -12.788;48370.953
565.969;46293.949;   -9.077;48178.871
566.553;45567.414;   -6.207;49957.305
567.136;45569.109;   -8.568;50369.594
567.720;41562.773;  -11.868;49492.004
568.303;39664.828;   -8.268;50616.352
568.887;39644.895;   -8.698;50727.148
569.470;39790.898;   -6.808;51698.379
570.053;38607.180;  -13.188;52122.078
570.637;37534.086;  -12.037;52536.438
571.220;37026.063;   -8.577;51186.098
571.803;37056.754;   -8.498;51032.762
572.386;39033.703;  -10.498;49609.887
572.969;41733.570;   -9.388;48285.926
573.552;40263.652;   -8.338;47624.285
574.135;39267.551;   -8.518;45498.641
574.718;36606.852;  -13.628;41970.434
575.301;35304.027;  -10.893;41447.137
575.884;34001.207;   -8.158;40923.836
576.467;35180.840;  -10.328;45267.723
577.050;37560.965;  -13.058;48175.543
577.633;39330.121;   -9.458;47729.328
578.216;38113.695;   -8.928;47579.793
578.799;37044.848;   -9.358;47820.996
579.381;35495.270;  -11.388;48115.551
579.964;33739.070;  -11.718;47333.766
580.547;35158.633;   -8.588;46668.969
581.129;36277.250;   -8.859;44466.141
581.712;36729.160;  -10.729;44164.922
582.294;37542.555;  -11.118;46477.855
582.877;37728.734;   -5.218;48244.254
583.459;35517.203;   -8.679;47437.895
584.042;33955.441;  -10.709;46943.219
584.624;34662.738;  -11.669;46792.227
585.206;33925.281;   -8.218;46557.250
585.789;33919.719;  -10.569;45793.773
586.371;36927.723;  -11.859;43836.391
586.953;37721.301;  -10.719;42972.492
587.536;38573.695;   -7.198;42487.211
588.118;38283.391;   -8.720;42086.414
588.700;34917.637;  -10.439;43389.930
589.282;34116.770;   -9.198;43646.039
589.864;34873.445;   -9.199;43438.109
590.446;36048.203;  -11.319;43151.926
591.028;35958.668;  -11.159;42781.867
591.610;34926.746;  -11.779;42839.098
592.192;32040.715;   -7.668;42820.402
592.774;30331.336;  -11.949;40724.277
593.356;29130.451;  -12.129;39874.789
593.937;28572.094;  -10.669;39980.648
594.519;30497.951;   -6.509;42069.633
595.101;32805.473;  -10.849;42976.031
595.683;33059.586;  -11.679;44084.441
596.264;34283.555;   -9.049;43478.797
596.846;33085.688;   -8.849;43803.672
597.427;32409.818;   -9.570;42986.934
598.009;34168.727;  -12.620;42832.219
598.591;34678.941;  -10.039;42580.086
599.172;33850.980;  -10.369;43061.805
599.753;33886.547;   -9.140;41691.469
600.335;35691.266;  -11.430;40692.520
600.916;34337.145;   -9.939;39982.422
601.498;31490.303;   -8.479;40318.617
602.079;30042.566;  -10.920;40670.609
602.660;30031.000;  -11.480;41450.898
603.241;31201.076;  -11.699;41137.738
603.823;30263.367;   -9.579;38868.797
604.404;30039.877;  -10.620;38182.785
604.985;31323.254;  -10.450;38078.047
605.566;30513.535;   -9.129;38056.633
606.147;30405.066;   -7.510;37020.418
606.728;32648.404;  -10.660;37883.359
607.309;31769.777;  -11.740;38748.273
607.890;30876.383;   -9.759;38850.230
608.471;30644.762;   -8.250;37457.918
609.051;29968.850;   -9.240;36066.457
609.632;29007.266;  -12.120;35991.074
610.213;29919.215;   -9.110;37402.641
610.794;30398.859;   -8.030;38383.363
611.374;29478.186;   -8.110;40562.387
611.955;29637.605;  -13.560;38533.727
612.536;31170.828;  -11.400;36951.789
613.116;30995.256;   -8.070;37197.891
613.697;31454.570;  -10.830;38411.125
614.277;30044.531;  -11.641;38673.938
614.858;30796.781;  -13.310;37075.863
615.438;29975.514;   -7.460;35092.906
616.019;27108.473;   -7.601;33666.301
616.599;27904.482;  -12.020;34189.023
617.179;29881.193;  -11.780;36952.047
617.760;30576.900;   -8.570;39582.574
618.340;31919.537;  -11.471;38943.977
618.920;33643.840;  -11.170;37594.156
619.500;33188.367;  -11.071;37866.938
620.080;32330.508;   -7.750;37869.043
620.660;33185.695;  -12.711;36868.617
621.241;33955.910;  -10.211;36352.309
621.821;34059.797;  -10.961;35459.520
622.401;33725.711;   -7.720;35207.414
622.980;32848.105;   -8.981;35980.422
623.560;31188.674;   -9.331;37351.328
624.140;30366.158;   -9.850;34388.582
624.720;25445.994;   -7.451;32368.764
625.300;21681.693;   -9.070;32638.629
625.880;25004.443;  -12.601;34599.035
626.459;28865.533;  -11.751;36831.738
627.039;32009.936;   -9.281;38299.098
627.619;32043.980;   -8.801;38289.574
628.198;30251.477;  -12.071;37220.695
628.778;29574.373;   -9.461;37632.563
629.357;30449.744;   -8.491;38003.012
629.937;30308.314;   -9.721;38402.039
630.516;29565.264;   -9.951;37868.801
631.096;29395.486;  -11.731;35760.410
631.675;32380.807;   -8.572;35225.219
632.254;37620.617;  -11.282;35130.289
632.834;36971.059;  -13.322;35794.570
633.413;34935.047;  -10.301;35788.922
633.992;31870.365;   -8.582;34532.863
634.571;33033.188;   -8.352;33590.113
635.151;35980.305;  -11.912;34943.863
635.730;34293.855;  -10.511;35352.523
636.309;30914.830;   -7.731;35366.605
636.888;28365.299;   -9.952;36165.637
637.467;29245.672;  -11.672;37515.902
638.046;31339.686;   -8.901;39288.695
638.625;34349.887;   -7.912;38279.699
639.204;33995.484;  -10.022;37741.598
639.782;31999.840;  -12.252;38364.551
640.361;28424.398;  -10.041;36740.621
640.940;25486.186;  -11.161;34950.082
641.519;25856.600;   -9.701;34137.398
642.097;28487.436;  -11.271;35654.258
642.676;31493.523;   -8.651;35637.957
643.255;32349.801;   -8.711;36567.074
643.833;31275.629;   -9.581;37809.434
644.412;31646.127;  -13.711;37337.293
644.990;31177.107;  -11.811;37018.531
645.569;31069.293;   -9.411;36518.469
646.147;29698.502;  -10.291;36186.430
646.726;28794.227;  -12.401;36267.688
647.304;30185.559;  -10.411;36647.625
647.882;32217.906;   -9.651;39286.742
648.461;33742.227;   -9.631;39157.703
649.039;32231.725;  -11.881;35412.883
649.617;31877.279;   -9.661;34744.918
650.195;31800.100;   -9.301;35403.098
650.773;30617.822;  -10.511;35053.797
651.352;27854.842;  -11.521;33756.816
651.930;25501.863;  -12.211;31868.773
652.508;23956.463;   -9.171;33121.551
653.086;27664.451;   -9.371;33564.793
653.663;30571.520;  -13.161;34054.668
654.241;29478.330;  -13.031;35693.309
654.819;31288.965;   -9.371;36422.906
655.397;31373.918;  -10.511;38213.484
655.975;31225.258;  -10.371;39507.625
656.553;31305.672;  -10.051;39498.223
657.130;29505.363;  -10.061;40395.480
657.708;28709.242;   -9.561;39242.020
658.286;28596.891;  -11.511;38920.020
658.863;29858.178;  -10.261;40202.898
659.441;32545.459;   -7.531;39677.938
660.018;31611.871;   -9.501;40413.355
660.596;30699.627;  -13.301;39931.414
661.173;32923.129;  -11.211;39604.531
661.750;32902.281;   -9.951;39700.070
662.328;31787.059;   -9.390;39292.809
662.905;31064.742;  -11.330;38235.648
663.482;26789.789;   -9.050;36212.305
664.060;24755.625;   -8.240;35944.945
664.637;27412.541;  -10.050;35170.785
665.214;29366.287;  -11.760;34197.523
665.791;31048.451;  -10.530;34549.520
666.368;29637.471;   -9.690;35118.578
666.945;30140.717;   -9.320;36019.418
667.522;31753.838;  -11.860;36048.438
668.099;32264.752;  -10.770;36243.914
668.676;31829.824;   -6.260;35958.875
669.253;30017.352;   -7.000;37384.730
669.830;30426.959;  -10.190;36779.629
670.407;30049.229;   -9.550;35231.289
670.984;30210.346;   -9.260;35544.270
671.560;30384.846;   -9.280;35466.867
672.137;29051.393;  -11.810;34280.863
672.714;29798.943;  -11.490;34632.863
673.290;29924.326;   -7.740;35135.422
673.867;30126.172;  -10.660;36114.480
674.443;30508.027;  -12.230;36152.859
675.020;28978.279;  -10.450;35327.238
675.596;29891.373;   -9.260;35795.176
676.173;30195.814;  -10.780;35430.355
676.749;29983.162;  -13.690;33549.516
677.326;30425.508;  -11.980;32210.012
677.902;30708.498;   -8.630;32068.871
678.478;29834.553;  -10.730;32583.891
679.054;29571.564;  -10.520;32088.928
679.631;30250.941;  -11.920;30978.848
680.207;31250.279;   -7.490;33160.887
680.783;32598.787;   -9.860;35570.363
681.359;31842.297;  -13.380;36125.184
681.935;30774.061;  -12.480;35240.922
682.511;29301.553;   -7.900;34429.961
683.087;29138.756;   -7.710;34463.680
683.663;29223.240;  -11.480;34648.898
684.239;28511.273;  -14.090;34546.457
684.815;28149.016;   -7.560;35586.375
685.390;28539.492;   -9.910;35821.895
685.966;29052.941;  -11.159;35085.871
686.542;31777.279;  -11.169;34198.230
687.118;33717.047;   -5.959;32847.707
687.693;33729.172;  -10.329;32794.027
688.269;33009.289;  -12.059;33072.367
688.844;30915.854;  -10.909;33141.664
689.420;28849.529;   -8.019;33965.742
689.995;26439.094;   -8.399;34655.523
690.571;25187.729;  -10.949;33576.742
691.146;25822.105;   -9.619;32657.219
691.722;25125.533;   -8.999;32526.979
692.297;25103.291;  -11.589;33014.617
692.872;27313.859;  -11.739;34012.254
693.448;26733.369;  -11.059;34237.434
694.023;25953.502;  -10.139;34142.672
694.598;28011.438;   -9.029;34132.031
695.173;28098.129;  -13.319;34205.250
695.748;27623.891;  -10.169;32882.488
696.323;27579.367;   -8.339;32864.906
696.898;27620.438;   -8.169;33170.004
697.473;27198.725;  -12.309;32432.984
698.048;26971.809;  -10.989;31649.303
698.623;27533.846;   -9.329;30778.141
699.198;29615.705;   -9.849;31140.119
699.773;30304.471;  -12.329;31764.299
700.348;28541.883;  -10.389;31780.816
700.922;28604.799;   -9.269;32046.375
701.497;29035.098;   -9.329;32603.574
702.072;29180.154;  -10.789;34799.871
702.646;28328.512;  -10.839;35793.172
703.221;26283.799;   -9.099;35201.590
703.795;28370.295;  -10.939;34764.527
704.370;28888.229;  -12.859;34307.367
704.944;29372.195;  -11.559;33509.887
705.519;30489.361;   -7.939;31388.584
706.093;31606.100;  -10.499;31340.104
706.668;31636.902;  -11.289;32630.281
707.242;30179.732;  -11.509;32728.779
707.816;28500.957;   -9.639;32947.238
708.390;27169.355;  -11.429;33277.855
708.965;28147.928;  -11.869;33834.336
709.539;28835.354;  -11.689;33709.273
710.113;29548.318;  -10.478;33044.313
710.687;28814.762;  -10.228;31953.992
711.261;26494.516;  -13.698;30505.949
711.835;26187.629;  -13.378;30262.369
712.409;27321.943;   -9.698;31254.447
712.983;28817.375;  -11.898;32754.986
713.557;29560.443;  -15.138;34018.824
714.131;29353.873;  -14.098;34579.625
714.704;28465.705;   -9.958;33890.262
715.278;26053.979;  -10.028;33531.102
715.852;25415.887;  -11.148;33601.660
716.425;26281.332;   -9.068;33515.117
716.999;26677.691;  -10.038;33185.555
717.573;27691.924;   -9.798;33905.996
718.146;28959.537;  -12.378;35199.293
718.720;28519.691;  -11.918;35060.551
719.293;27804.105;   -8.088;34973.230
719.867;30653.451;  -10.888;36394.449
720.440;30640.891;  -11.938;36663.008
721.013;29180.629;  -12.818;35102.426
721.587;27878.137;  -10.298;33985.266
722.160;26345.770;  -10.048;33524.965
722.733;25521.602;  -12.108;32987.043
723.306;26315.658;  -10.818;33066.301
723.880;28470.578;   -8.908;33399.500
724.453;29999.482;   -9.878;33468.297
725.026;28745.732;  -11.188;33816.637
725.599;26156.928;  -11.678;32797.996
726.172;26749.475;   -9.618;33187.434
726.745;28139.256;   -8.258;35136.613
727.318;29857.234;  -12.978;35751.730
727.891;30475.602;  -12.148;35890.430
728.463;30292.494;   -8.968;34822.090
729.036;29185.449;  -10.188;32895.086
729.609;29369.914;  -11.788;31823.225
730.182;26044.230;  -11.788;31445.283
730.754;23469.807;  -10.268;32373.223
731.327;23384.582;   -9.998;33676.820
731.900;23434.885;  -12.228;33417.000
732.472;25078.037;  -13.848;31978.498
733.045;27328.508;   -8.698;30368.777
733.617;27317.947;  -10.607;30574.215
734.190;26644.740;  -11.507;31280.975
734.762;23661.441;  -13.647;31674.412
735.334;22142.416;   -9.767;31247.291
735.907;22647.555;   -9.897;29876.211
736.479;22324.480;  -11.637;29808.488
737.051;21981.896;   -9.567;30233.547
737.623;23518.645;   -8.187;31469.086
738.195;24786.846;  -11.187;31784.225
738.768;26477.285;  -12.337;32120.523
739.340;26074.129;  -12.227;32094.342
739.912;24680.383;  -11.057;31312.680
740.484;23604.221;  -10.207;31946.238
741.056;22786.410;  -10.047;32984.059
741.628;24735.994;  -13.627;33897.715
742.199;27092.143;   -7.177;33213.016
742.771;25265.418;  -10.797;31369.113
743.343;22729.146;  -11.997;31865.473
743.915;21587.141;  -12.867;32388.631
744.487;21909.395;   -7.617;31079.568
745.058;22203.877;   -9.557;30570.107
745.630;22904.984;   -9.877;29970.127
746.201;23606.514;  -14.177;29186.766
746.773;23642.854;   -9.237;28805.723
747.344;23402.480;   -9.847;29591.223
747.916;22112.840;  -11.657;31412.201
748.487;22068.699;  -10.587;32194.898
749.059;23346.986;   -8.707;32533.719
749.630;24465.559;  -10.537;32158.518
750.201;23548.846;  -11.687;30855.395
750.773;21835.643;  -11.647;28622.555
751.344;22042.990;   -7.147;28405.732
751.915;23187.490;   -9.757;28461.551
752.486;22308.072;  -12.427;27842.850
753.057;19915.820;  -12.227;27845.008
753.628;18843.559;  -10.417;27728.107
754.199;20208.420;  -11.767;27381.086
754.770;21355.408;  -11.187;25882.203
755.341;21194.811;  -10.507;25886.184
755.912;21252.510;   -9.387;26050.861
756.483;20515.395;  -10.647;26798.779
757.054;18710.633;  -11.837;27048.238
757.625;17528.404;  -12.716;26294.838
758.195;17250.250;   -9.666;26142.076
758.766;16901.248;   -8.656;26392.234
759.337;17878.340;  -12.856;26334.594
759.907;19958.840;  -13.366;27579.652
760.478;20865.924;   -8.576;28352.770
761.048;20273.324;  -10.526;27325.088
761.619;19554.541;  -11.116;26460.428
762.189;19374.104;  -12.136;26029.826
762.760;20258.219;   -9.456;26430.145
763.330;21396.209;   -7.136;26670.902
763.900;20697.377;  -11.786;26603.021
764.471;17902.189;  -11.546;25542.740
765.041;16728.684;   -8.096;24358.459
765.611;17094.557;   -8.876;23991.297
766.181;17681.064;  -12.196;24470.236
766.751;18382.537;  -11.636;24845.975
767.321;18194.223;  -10.156;24533.633
767.891;16316.141;  -11.766;24916.492
768.461;15782.071;  -14.936;24776.771
769.031;16184.420;  -12.356;24757.988
769.601;17819.432;   -7.526;24181.088
770.171;17760.521;  -10.766;23670.387
770.741;16884.008;  -13.176;22960.045
771.311;17055.264;  -10.616;22917.523
771.880;17250.193;   -9.576;23562.941
772.450;16627.721;  -10.336;24216.500
773.020;16655.398;  -13.516;24140.398
773.589;16449.289;  -13.466;24414.857
774.159;16055.436;   -8.686;23858.717
774.729;15637.460;   -9.476;22942.135
775.298;15050.042;  -13.666;22324.033
775.867;14651.286;  -11.716;21140.313
776.437;14629.014;   -9.906;20838.092
777.006;14267.363;  -12.166;20599.510
777.576;14311.434;  -12.356;20508.809
778.145;14580.907;  -11.646;20732.947
778.714;14405.736;   -8.226;21062.465
779.283;13480.462;   -9.556;20949.664
779.853;13112.830;  -14.116;20508.623
780.422;13593.010;  -11.506;20649.082
780.991;13181.823;   -9.556;21527.520
781.560;12204.611;   -9.095;22632.658
782.129;12066.459;  -12.135;23048.277
782.698;12081.065;  -10.865;23438.555
783.267;11701.732;   -9.335;23267.734
783.836;11609.838;  -11.045;22415.133
784.404;12562.260;  -13.865;20443.152
784.973;12945.534;  -13.095;19699.150
785.542;12733.606;  -11.575;19763.828
786.111;12636.468;   -9.705;20341.408
786.679;12264.801;  -12.105;20207.967
787.248;12054.026;  -12.455;19516.465
787.817;11860.166;  -11.535;18900.363
788.385;11442.019;   -9.765;17879.121
788.954;10782.667;  -14.005;17658.301
789.522;10335.736;  -11.955;17788.879
790.090;10943.288;  -10.135;18118.277
790.659;11273.256;  -10.975;18338.736
791.227;10659.712;  -13.375;18508.615
791.795;11123.225;  -12.375;17898.254
792.364;11535.317;  -10.725;17295.133
792.932;11786.854;   -9.715;16822.051
793.500;11931.369;  -12.675;17040.148
794.068;12172.703;  -13.495;17179.787
794.636;12321.007;  -10.885;16664.246
795.204;11874.795;  -11.045;16524.545
795.772;11896.160;  -13.175;17274.564
796.340;11417.498;  -12.445;17891.002
796.908;11278.774;   -9.735;17648.561
797.476;11285.550;   -9.815;17064.080
798.044;10851.085;  -13.985;16672.777
798.612; 9958.998;  -13.115;17023.996
799.180; 9575.916;  -10.185;16561.615
799.747; 9480.261;   -9.055;15962.773
800.315; 9170.136;  -12.385;15296.992
800.883; 8812.632;  -15.035;14801.771
801.450; 8733.782;  -10.365;14534.430
802.018; 8753.865;   -9.855;14173.248
802.585; 8835.030;  -11.905;14029.547
803.153; 8924.335;  -11.585;13836.846
803.720; 8893.399;   -9.095;13567.324
804.287; 8605.226;   -9.135;13360.622
804.855; 8184.120;  -11.604;13681.981
805.422; 7994.468;  -11.794;13536.560
805.989; 7943.028;  -10.734;13355.958
806.556; 8091.485;  -10.444;13747.896
807.124; 8360.153;  -12.764;13987.376
807.691; 8285.484;  -12.964;14038.674
808.258; 8098.149;  -11.134;14120.152
808.825; 7805.543;   -9.854;13860.111
809.392; 7853.143;  -10.504;13268.790
809.959; 7390.704;  -13.054;12680.389
810.526; 7012.557;   -8.294;12427.308
811.093; 7073.605;   -8.394;12030.105
811.659; 7625.857;  -12.304;11653.664
812.226; 8019.019;  -13.944;11637.183
812.793; 7677.100;  -10.484;11611.521
813.360; 7061.976;  -10.144;11885.181
813.926; 6694.391;  -11.684;12770.539
814.493; 6436.613;  -13.644;12677.638
815.060; 6108.695;   -9.724;11974.336
815.626; 6214.938;   -9.854;11594.715
816.193; 6672.087;  -13.254;11579.474
816.759; 6680.731;  -13.204;11666.972
817.325; 6784.974;   -9.434;11325.530
817.892; 7132.001;  -10.134;11105.369
818.458; 7525.046;  -13.474;10843.928
819.024; 7184.354;  -11.854;10714.406
819.591; 6820.117;  -10.244;10469.165
820.157; 6544.524;  -10.704;10235.523
820.723; 6040.423;  -12.324;10847.563
821.289; 5774.499;   -9.444;11040.980
821.855; 5712.070;   -8.374;10357.100
822.421; 5737.959;  -10.234; 9978.918
822.987; 5721.264;  -13.294; 9754.177
823.553; 5434.972;  -10.884;10065.755
824.119; 5279.062;   -8.884;10036.294
824.685; 5331.117;   -6.784;10029.192
825.251; 5394.173;  -12.004;10199.230
825.816; 5344.818;  -11.474; 9820.189
826.382; 5160.596;   -9.174; 9297.248
826.948; 5379.496;   -9.214; 9381.347
827.513; 5765.904;  -10.774; 9450.726
828.079; 5569.158;  -11.924; 9472.444
828.645; 5020.210;  -10.543; 9292.643
829.210; 4958.577;  -10.533; 9065.341
829.776; 4940.145;  -10.753; 9132.620
830.341; 4808.506;  -10.173; 9092.878
830.906; 4983.470;  -10.743; 9078.557
831.472; 5329.491;  -11.113; 8534.535
832.037; 5077.816;  -10.603; 8677.874
832.602; 4517.680;  -13.323; 8628.692
833.167; 4198.715;  -10.823; 8879.031
833.733; 4134.696;  -10.113; 9189.790
834.298; 4221.505;  -13.583; 9052.608
834.863; 4213.741;  -12.703; 8895.087
835.428; 4173.865;  -10.523; 8824.266
835.993; 4111.977;   -6.963; 8845.385
836.558; 4026.952;  -10.763; 8888.563
837.123; 4168.171;   -9.903; 8966.582
837.688; 4357.157;   -9.913; 8617.860
838.253; 4535.126;  -10.283; 8590.699
838.817; 4728.469;  -12.963; 8443.797
839.382; 4651.208;  -14.243; 8799.356
839.947; 4350.229;  -10.733; 8810.595
840.511; 4057.388;   -9.383; 8796.394
841.076; 3715.385;  -12.563; 8347.231
841.641; 3760.504;  -12.953; 8224.330
842.205; 3841.587;   -7.043; 8223.349
842.770; 3988.506;   -8.163; 8622.107
843.334; 4234.227;  -12.503; 8410.386
843.898; 4219.964;  -11.693; 8337.465
844.463; 4241.204;  -10.203; 8506.283
845.027; 3980.551;   -9.533; 8280.962
845.591; 3782.964;  -13.443; 8231.141
846.156; 3788.345;  -13.143; 7969.179
846.720; 3659.956;   -9.433; 7768.278
847.284; 3531.907;  -11.033; 7630.957
847.848; 3366.699;  -10.403; 7472.395
848.412; 3278.302;  -11.553; 7437.394
848.976; 3346.786;   -8.393; 7674.592
849.540; 3309.718;   -8.713; 7836.011
850.104; 3407.491;  -12.463; 7913.669
850.668; 3733.631;  -12.973; 7694.508
851.232; 3831.413;  -10.793; 7756.887
851.796; 3664.412;  -10.662; 7926.545
852.359; 3369.912;  -13.082; 7827.844
852.923; 3215.743;  -12.192; 7641.163
853.487; 3035.846;  -11.912; 7342.501
854.050; 2956.129;  -10.892; 7042.820
854.614; 3092.245;  -13.992; 7151.338
855.177; 3220.786;  -11.732; 7105.077
855.741; 3278.181;   -8.962; 6989.675
856.304; 3180.218;   -9.442; 6596.634
856.868; 3100.369;  -14.192; 6356.272
857.431; 3198.611;  -12.702; 6468.571
857.995; 3302.764;   -9.942; 6373.210
858.558; 3311.010;   -9.112; 6324.448
859.121; 3060.732;  -12.932; 6408.327
859.684; 2959.740;  -13.442; 6347.886
860.247; 3083.596;  -10.632; 6321.264
860.810; 3056.278;  -11.272; 6301.903
861.374; 2813.632;   -9.832; 6607.881
861.937; 2570.398;  -11.762; 6408.200
862.500; 2537.050;   -9.722; 6572.639
863.062; 2692.407;  -10.512; 6387.297
863.625; 2877.137;  -11.232; 6190.836
864.188; 3031.658;  -14.112; 5807.254
864.751; 3064.802;  -11.302; 5682.413
865.314; 2944.870;  -10.112; 5547.492
865.876; 2779.197;  -12.182; 5500.150
866.439; 2791.712;  -10.722; 5415.909
867.002; 2744.425;   -9.252; 5501.567
867.564; 2525.066;   -9.572; 5413.946
868.127; 2313.028;  -13.142; 5160.325
868.689; 2239.681;  -12.902; 5133.183
869.252; 2180.422;   -9.732; 5252.382
869.814; 2102.342;   -9.432; 5297.141
870.377; 2117.128;  -11.552; 5390.919
870.939; 2184.074;   -9.052; 5599.898
871.501; 2227.742;  -10.982; 5248.336
872.063; 2220.034;  -12.292; 4854.235
872.626; 2185.457;  -14.912; 4817.074
873.188; 2202.454;  -13.112; 4987.732
873.750; 2149.117;  -13.442; 4868.651
874.312; 2042.621;   -9.402; 4779.330
874.874; 1953.945;  -11.062; 4866.348
875.436; 1879.951;  -13.931; 4718.887
875.998; 1873.520;   -9.561; 4660.005
876.560; 1880.917;  -11.321; 4462.964
877.122; 1822.883;  -12.221; 4145.042
877.683; 1736.373;  -12.191; 4056.481
878.245; 1673.231;  -12.101; 3950.740
878.807; 1704.317;   -8.971; 4058.958
879.369; 1716.466;  -12.071; 3954.677
879.930; 1622.926;  -14.621; 3941.495
880.492; 1569.492;  -10.311; 4067.014
881.053; 1540.112;  -10.901; 3859.633
881.615; 1428.565;  -14.411; 3776.071
882.176; 1346.078;  -13.761; 3734.750
882.738; 1318.737;   -9.181; 3678.489
883.299; 1296.801;  -11.791; 3405.407
883.860; 1303.206;  -13.121; 3351.106
884.422; 1314.445;  -11.211; 3394.044
884.983; 1267.775;  -10.091; 3166.443
885.544; 1169.054;   -8.461; 3189.802
886.105; 1090.757;  -12.361; 3160.360
886.666; 1027.527;  -14.141; 3093.059
887.227;  971.042;  -11.361; 2941.957
887.788;  909.272;  -11.401; 2974.836
888.349;  849.325;  -13.791; 2721.214
888.910;  853.385;  -13.191; 2696.493
889.471;  864.011;   -9.881; 2560.172
890.032;  847.328;   -9.881; 2558.190
890.593;  823.516;  -10.371; 2567.669
891.153;  794.362;  -13.301; 2460.307
891.714;  743.640;  -11.431; 2372.046
892.275;  705.428;  -11.291; 2309.505
892.835;  665.759;  -11.471; 2382.543
893.396;  611.831;  -11.541; 2295.502
893.956;  559.620;  -11.181; 2162.420
894.517;  524.674;  -11.741; 2125.439
895.077;  518.699;  -11.671; 2086.978
895.638;  517.658;  -11.311; 2126.316
896.198;  488.105;   -9.831; 1838.275
896.758;  445.843;   -8.421; 1892.813
897.319;  413.815;  -12.351; 1792.232
897.879;  395.554;  -13.511; 1762.751
898.439;  370.102;  -12.001; 1661.149
898.999;  345.629;  -10.180; 1781.468
899.559;  337.296;  -12.030; 1703.347
900.119;  331.963;  -15.710; 1537.525
900.679;  329.216;   -8.900; 1638.384
901.239;  316.272;   -8.340; 1527.902
901.799;  305.980;  -13.910; 1456.441
902.359;  299.746;  -13.460; 1357.140
902.919;  292.719;  -11.490; 1331.118
903.479;  278.649;  -12.110; 1317.257
904.038;  256.959;  -11.720; 1262.595
904.598;  241.316;  -13.610; 1152.034
905.158;  236.599;  -11.040; 1240.893
905.717;  229.671;  -10.900; 1233.691
906.277;  220.681;  -15.080; 1217.330
906.836;  210.586;  -13.380; 1222.408
907.396;  201.997;  -10.780; 1193.047
907.955;  195.866;   -8.500; 1182.526
908.515;  190.755;  -12.760; 1099.364
909.074;  184.185;  -11.900; 1092.863
909.633;  178.090;   -8.950; 1069.121
910.192;  174.221;   -8.770; 1196.460
910.752;  169.178;  -12.390; 1029.960
911.311;  164.786;  -13.680; 1009.780
911.870;  162.942;  -12.370;  971.460
912.429;  163.667;  -10.900; 1094.080
912.988;  162.149;  -11.690; 1081.060
913.547;  157.239;  -13.240;  940.380
914.106;  151.751;  -11.990;  999.420
914.665;  148.765;   -9.990;  984.020
915.224;  148.823;  -12.880; 1035.760
915.782;  148.206;  -12.350;  922.560
916.341;  147.909;   -9.110; 1049.840
916.900;  144.467;   -9.270;  925.260
917.458;  141.626;  -13.240;  884.220
918.017;  141.330;  -13.550;  942.600
918.576;  140.768;  -12.320;  904.440
919.134;  139.765;  -11.490;  837.980
919.693;  137.731;  -13.670;  893.060
920.251;  135.943;  -15.470;  876.500
920.809;  134.362;  -11.290;  839.580
921.368;  133.786;  -10.210;  885.360
921.926;  132.565;  -12.140;  842.940
922.484;  131.530;  -13.080;  903.360
923.042;  130.833;  -11.720;  880.340
923.601;  133.739;   -7.480;  998.680
924.159;  132.500;  -11.570;  935.560
924.717;  128.642;  -13.840;  841.080
925.275;  128.562;  -10.640;  903.240
925.833;  129.594;  -11.540;  779.320
926.391;  131.043;  -12.960;  938.380
926.949;  128.295;  -14.130;  857.680
927.506;  128.221;  -11.750;  903.500
928.064;  128.872;  -10.250;  877.580
928.622;  127.837;  -13.030;  880.100
929.180;  127.297;  -13.400;  814.180
929.737;  129.263;  -10.700;  808.540
930.295;  132.250;  -10.070;  928.480
930.853;  133.918;  -11.960;  849.100
931.410;  133.968;  -13.120;  821.120
931.968;  133.048;  -10.770;  940.660
932.525;  133.280;  -10.680;  909.380
933.082;  133.978;  -13.130;  811.440
933.640;  134.330;  -13.210;  925.900
934.197;  131.719;  -11.060;  886.360
934.754;  133.619;   -9.580;  897.780
935.312;  136.238;  -14.000;  863.340
935.869;  139.953;  -10.710; 1012.980
936.426;  140.505;   -9.860;  872.800
936.983;  141.558;   -9.710;  889.020
937.540;  141.400;  -13.990;  838.280
938.097;  139.271;  -14.040;  940.120
938.654;  139.930;  -10.310;  898.860
939.211;  142.796;  -10.560;  952.480
939.768;  146.382;  -13.900;  915.420
940.324;  149.166;  -14.760;  904.200
940.881;  149.081;  -10.370;  878.500
941.438;  149.907;   -8.260; 1021.200
941.995;  146.022;  -12.540;  992.560
942.551;  143.324;  -14.670;  875.620
943.108;  144.388;  -10.450;  937.920
943.664;  146.674;  -10.750;  869.340
944.221;  149.961;  -11.550; 1088.140
944.777;  148.755;  -14.770;  869.680
945.334;  149.179;  -12.820;  884.840
945.890;  151.443;  -10.130;  946.480
946.446;  151.568;  -13.470;  947.020
947.003;  152.608;  -12.120;  964.940
947.559;  155.101;   -9.980; 1063.040
948.115;  153.333;   -9.080; 1026.540
948.671;  152.451;  -10.830;  967.300
949.227;  149.531;  -12.440;  859.560
949.783;  146.572;  -12.910;  858.900
950.339;  147.471;  -10.270;  991.000
950.895;  147.583;  -13.630; 1023.840
951.451;  147.445;  -15.100;  925.280
952.007;  149.552;  -11.330;  998.540
952.563;  150.497;  -10.580;  937.780
953.118;  149.814;  -13.440;  904.940
953.674;  149.736;  -12.710;  935.780
954.230;  148.493;  -10.350;  949.640
954.785;  146.514;   -9.190;  936.640
955.341;  144.276;  -11.200;  998.160
955.897;  141.735;  -16.560;  834.660
956.452;  142.988;  -12.570;  953.840
957.008;  142.082;   -7.970; 1083.640
957.563;  139.352;  -11.940; 1009.540
958.118;  134.791;  -13.450;  877.700
958.674;  136.254;  -12.030;  946.780
959.229;  136.544;   -9.410; 1013.980
959.784;  134.393;  -12.000;  832.400
960.339;  132.510;  -14.780; 1001.280
960.894;  129.262;   -9.860;  963.760
961.449;  126.069;   -9.970;  859.960
962.004;  126.700;  -10.900; 1212.840
962.559;  121.237;  -13.150;  860.140
963.114;  119.961;  -13.740;  742.480
963.669;  119.720;   -9.820;  915.500
964.224;  118.530;  -13.890;  874.340
964.779;  117.441;  -12.600;  828.420
965.334;  118.282;  -10.950; 1017.860
965.888;  117.221;  -11.170;  875.360
966.443;  120.049;  -12.540;  972.380
966.998;  118.543;  -15.780;  819.460
967.552;  116.757;   -9.760;  908.380
968.107;  113.253;   -9.060;  868.300
968.661;  115.371;  -11.950;  922.440
969.216;  115.547;  -12.800;  856.280
969.770;  115.514;  -11.210;  917.200
970.324;  115.110;  -11.610;  923.140
970.879;  111.813;  -11.370;  947.180
971.433;  109.085;  -12.540;  952.720
971.987;  103.713;  -11.320;  895.340
972.541;  100.865;  -10.720;  917.100
973.095;  101.425;   -9.680; 1009.460
973.649;   99.867;  -11.440;  809.480
974.203;   98.469;  -11.210;  829.040
974.757;   98.338;  -10.240;  855.220
975.311;   98.807;  -13.720;  872.600
975.865;   98.083;  -13.770;  881.820
976.419;   95.560;  -11.690;  857.400
976.973;   95.921;   -9.510;  849.620
977.526;   98.655;  -12.620;  949.920
978.080;   97.708;  -12.010;  796.780
978.634;   99.277;  -10.170;  921.320
979.187;   96.470;   -9.020;  905.400
979.741;   93.665;   -9.820; 1018.380
980.294;   88.611;  -14.870;  789.160
980.848;   86.773;  -12.380;  717.220
981.401;   90.153;  -10.350;  816.540
981.955;   90.884;  -13.720;  844.300
982.508;   90.938;  -11.490;  746.340
983.061;   90.747;  -10.000;  915.260
983.615;   86.280;  -11.480;  798.800
984.168;   83.648;  -13.220;  770.080
984.721;   82.913;  -13.960;  880.760
985.274;   82.203;  -10.870;  867.500
985.827;   81.127;   -9.790;  834.220
986.380;   78.931;  -13.120;  721.340
986.933;   77.664;  -12.450;  864.800
987.486;   76.473;  -10.210;  861.920
988.039;   75.407;   -8.430;  863.100
988.591;   73.681;  -10.520;  893.260
989.144;   70.531;  -14.860;  737.260
989.697;   70.097;  -13.080;  758.740
990.250;   70.909;  -10.150;  858.100
990.802;   70.823;  -13.430;  755.860
991.355;   71.380;  -12.750;  974.880
991.907;   69.152;  -12.040;  864.320
992.460;   66.925;  -11.330;  753.760
993.012;   65.706;  -13.610;  749.540
993.565;   64.633;  -13.460;  711.360
994.117;   66.434;   -9.360;  950.780
994.669;   62.148;  -11.300;  701.320
995.221;   61.347;  -13.540;  791.920
995.774;   58.991;  -13.430;  787.580
996.326;   57.089;  -12.520;  740.220
996.878;   56.923;  -10.950;  838.420
997.430;   54.964;  -14.300;  699.860
997.982;   54.948;  -13.760;  750.140
998.534;   53.915;  -11.530;  739.060
999.086;   52.936;  -10.310;  738.220
999.638;   51.385;  -12.530;  661.380
1000.190;   51.281;  -11.840;  699.320
1000.741;   49.292;  -10.260;  742.700
1001.293;   49.897;   -8.860;  686.020
1001.845;   49.193;  -13.700;  676.640
1002.396;   48.869;  -12.100;  743.400
1002.948;   47.925;  -12.760;  737.400
1003.500;   46.740;  -10.380;  723.780
1004.051;   47.568;  -11.900;  907.580
1004.603;   45.477;  -12.250;  791.820
1005.154;   41.669;  -13.210;  608.980
1005.705;   40.984;  -10.950;  723.960
1006.257;   41.120;  -13.880;  707.220
1006.808;   39.305;  -12.840;  685.460
1007.359;   39.487;  -10.570;  763.240
1007.910;   38.444;   -9.620;  646.640
1008.461;   38.540;  -13.630;  732.940
1009.013;   37.591;  -17.200;  588.340
1009.564;   38.810;  -10.200;  793.520
1010.115;   36.412;  -12.570;  597.040
1010.665;   36.551;  -15.150;  602.160
1011.216;   36.287;  -14.480;  667.920
1011.767;   35.418;  -11.340;  697.920
1012.318;   35.871;   -9.780;  736.980
1012.869;   34.775;  -12.380;  679.000
1013.419;   34.621;  -15.560;  603.120
1013.970;   34.345;  -11.010;  666.640
1014.521;   33.652;  -11.610;  620.620
1015.071;   34.077;  -13.450;  670.380
1015.622;   33.238;  -13.870;  635.460
1016.172;   32.614;  -11.610;  596.820
1016.723;   32.803;  -12.120;  614.380
1017.273;   32.546;  -13.620;  604.160
1017.823;   32.609;  -14.140;  650.340
1018.374;   33.070;  -12.800;  611.760
1018.924;   31.685;  -12.340;  716.880
1019.474;   32.388;  -11.410;  718.880
1020.024;   30.961;  -14.770;  657.580
1020.574;   32.242;   -9.780;  726.160
1021.124;   32.245;   -8.560;  673.580
1021.674;   30.095;  -15.190;  559.120
1022.224;   31.427;  -13.530;  708.940
1022.774;   31.387;  -13.280;  668.820
1023.324;   31.226;  -10.690;  753.520
1023.874;   32.095;  -10.240;  875.760
1024.423;   29.801;  -12.540;  613.700
1024.973;   29.733;  -10.010;  610.760
1025.523;   28.804;  -10.550;  620.960
1026.072;   28.907;  -13.560;  606.420
1026.622;   28.420;  -15.120;  675.740
1027.172;   29.733;  -11.260;  715.660
1027.721;   28.322;  -11.410;  601.220
1028.270;   29.303;  -13.530;  663.400
1028.820;   29.007;  -13.680;  638.080
1029.369;   27.971;  -13.520;  612.700
1029.918;   29.016;  -10.980;  649.840
1030.468;   27.716;  -13.530;  564.780
1031.017;   28.022;  -13.170;  634.800
1031.566;   26.498;  -12.200;  608.900
1032.115;   27.038;   -9.960;  694.500
1032.664;   26.606;  -13.210;  596.480
1033.213;   27.230;  -12.500;  735.420
1033.762;   26.351;  -11.910;  635.620
1034.311;   26.350;   -9.640;  677.220
1034.860;   27.567;  -13.310;  691.000
1035.408;   26.662;  -11.830;  722.720
1035.957;   26.699;  -12.000;  719.540
1036.506;   24.809;  -11.690;  530.800
1037.055;   27.184;  -10.990;  844.320
1037.603;   25.698;  -15.120;  664.000
1038.152;   24.015;  -12.450;  534.760
1038.700;   24.954;  -10.560;  585.740
1039.249;   24.824;  -11.080;  681.220
1039.797;   25.336;  -12.540;  633.360
1040.345;   24.358;  -11.920;  705.420
1040.894;   23.987;  -11.410;  625.300
1041.442;   24.634;  -14.320;  632.200
1041.990;   21.870;  -16.240;  559.160
1042.538;   22.718;  -11.680;  536.180
1043.087;   23.238;  -10.760;  570.860
1043.635;   24.859;  -11.850;  670.500
1044.183;   22.255;  -15.480;  586.400
1044.731;   22.433;  -11.770;  576.000
1045.279;   22.065;  -13.090;  674.920
1045.827;   24.796;  -12.440;  892.400
1046.374;   21.911;  -13.840;  515.420
1046.922;   20.882;  -13.220;  590.580
1047.470;   23.546;  -10.230;  691.300
1048.018;   22.850;  -14.590;  647.960
1048.565;   22.941;  -12.050;  708.600
1049.113;   21.123;  -11.650;  557.000
1049.660;   21.078;  -10.510;  629.660
1050.208;   21.531;  -13.310;  675.640
1050.755;   20.779;  -15.900;  606.580
1051.303;   21.321;  -11.430;  686.820
1051.850;   21.126;   -8.480;  635.120
1052.397;   19.747;  -15.010;  473.960
1052.945;   20.098;  -13.960;  617.760
1053.492;   21.309;  -13.150;  741.840
1054.039;   21.163;   -9.630;  720.180
1054.586;   20.060;  -13.680;  557.240
1055.133;   20.717;  -14.570;  693.140
1055.680;   20.826;  -13.820;  646.620
1056.227;   19.116;  -11.730;  542.780
1056.774;   21.036;  -12.480;  794.980
1057.321;   18.923;  -13.930;  523.260
1057.868;   19.446;  -11.690;  651.320
1058.415;   18.843;   -9.520;  651.980
1058.961;   20.094;  -13.160;  678.940
1059.508;   19.151;  -12.920;  643.820
1060.055;   18.280;  -11.920;  581.780
1060.601;   19.346;  -11.500;  624.300
1061.148;   18.832;  -14.330;  616.820
1061.694;   18.291;  -16.870;  592.580
1062.241;   18.781;  -10.330;  596.320
1062.787;   18.499;  -10.620;  663.140
1063.334;   20.560;  -10.110;  808.560
1063.880;   18.672;  -13.400;  668.360
1064.426;   18.431;  -10.680;  706.820
1064.972;   16.440;   -9.920;  601.340
1065.518;   17.384;  -10.980;  566.640
1066.065;   17.739;  -14.890;  624.460
1066.611;   16.103;  -12.870;  598.800
1067.157;   17.097;  -12.950;  641.860
1067.703;   17.300;  -13.540;  668.480
1068.249;   17.903;  -13.540;  605.220
1068.794;   16.654;  -12.600;  626.880
1069.340;   15.842;  -10.620;  578.960
1069.886;   16.907;  -12.830;  590.700
1070.432;   15.244;  -14.870;  541.720
1070.977;   15.428;  -11.980;  601.080
1071.523;   15.504;   -8.200;  573.060
1072.068;   16.412;  -12.330;  582.000
1072.614;   15.161;  -16.370;  527.760
1073.160;   15.706;  -11.100;  687.040
1073.705;   14.774;  -10.480;  572.520
1074.250;   15.404;  -14.520;  559.900
1074.796;   15.938;  -11.460;  655.160
1075.341;   16.394;  -11.950;  664.100
1075.886;   15.070;  -11.460;  594.240
1076.431;   14.939;  -13.770;  649.880
1076.976;   14.905;  -12.680;  639.220
1077.521;   14.239;  -13.170;  583.080
1078.067;   13.495;  -10.860;  579.400
1078.612;   13.916;  -13.920;  661.620
1079.156;   14.686;  -13.880;  601.540
1079.701;   14.986;  -13.120;  693.260
1080.246;   14.747;   -9.940;  696.300
1080.791;   14.884;  -14.740;  625.020
1081.336;   13.935;  -13.750;  659.320
1081.880;   13.907;  -13.400;  649.680
1082.425;   12.939;  -12.220;  573.480
1082.970;   14.893;  -11.610;  717.040
1083.514;   13.260;  -13.580;  597.000
1084.059;   11.969;  -12.810;  586.720
1084.603;   12.504;  -12.320;  565.840
1085.147;   13.285;  -13.190;  645.220
1085.692;   13.715;  -12.480;  716.800
1086.236;   11.940;  -13.020;  503.140
1086.780;   13.739;   -9.190;  751.440
1087.325;   13.627;  -12.480;  654.620
1087.869;   13.281;  -12.450;  610.700
1088.413;   13.156;  -12.240;  705.040
1088.957;   11.122;   -9.020;  543.400
1089.501;   13.208;  -10.320;  766.640
1090.045;   12.347;  -12.720;  726.480
1090.589;   10.474;  -13.690;  569.920
1091.133;   11.810;  -10.020;  673.340
1091.676;   12.384;  -12.330;  591.940
1092.220;   11.488;  -14.970;  600.920
1092.764;   12.129;  -12.430;  706.960
1093.307;   12.900;   -9.800;  673.780
1093.851;   10.853;  -14.970;  556.540
1094.395;   11.432;  -15.310;  683.140
1094.938;   10.517;  -10.370;  632.520
1095.482;   10.918;  -11.050;  559.800
1096.025;   11.931;  -11.840;  710.880
1096.568;   11.970;  -12.840;  779.280
1097.112;    8.918;  -14.700;  508.180
1097.655;   10.479;   -8.720;  603.000
1098.198;   10.391;  -13.610;  600.180
1098.741;    9.173;  -13.350;  612.860
1099.285;   11.335;  -11.230;  657.300
1099.828;    8.242;  -11.840;  439.400
1100.371;   10.386;  -10.840;  608.160
1100.914;    9.840;  -14.190;  682.660
1101.457;   10.006;  -11.240;  679.900
1101.999;    8.254;  -11.270;  584.680
1102.542;   10.051;  -11.480;  641.440
1103.085;    8.719;  -11.750;  658.500
1103.628;    9.222;  -11.400;  762.060
1104.170;    9.123;  -10.490;  588.280
1104.713;    9.838;  -10.600;  646.700
1105.256;    8.871;  -14.360;  557.440
1105.798;    7.352;  -13.210;  499.980
1106.341;    9.296;  -10.270;  728.900
1106.883;    8.774;  -12.200;  521.340
1107.425;    8.748;  -13.110;  668.180
1107.968;    8.042;  -12.840;  612.380
1108.510;    8.568;   -6.480;  684.960
1109.052;    7.871;  -13.940;  612.620
1109.594;    7.509;  -13.690;  554.440
1110.136;    8.740;  -11.880;  643.220
1110.679;    7.194;   -9.500;  633.080
1111.221;    7.937;  -14.160;  604.460
1111.763;    7.404;  -13.980;  559.220
1112.304;    7.212;  -13.880;  547.140
1112.846;    7.866;  -12.210;  666.240
1113.388;   10.461;  -11.390;  942.180
1113.930;    7.791;  -14.540;  694.200
1114.472;    6.800;  -12.640;  606.540
1115.013;    5.306;  -11.620;  551.280
1115.555;    6.735;  -13.640;  587.100
1116.097;    6.241;  -15.380;  579.480
1116.638;    6.914;  -12.640;  684.600
1117.180;    6.656;   -9.850;  667.740
1117.721;    7.086;  -13.690;  568.580
1118.262;    7.399;  -12.680;  677.960
1118.804;    6.890;  -12.530;  637.340
1119.345;    6.013;  -11.690;  578.400
1119.886;    7.181;  -13.380;  704.040
1120.427;    5.633;  -14.070;  589.020
1120.969;    5.306;  -13.500;  597.920
1121.510;    5.442;  -11.480;  563.060
1122.051;    6.791;  -12.830;  723.580
1122.592;    4.822;  -14.290;  655.420
1123.133;    4.399;  -12.400;  547.940
1123.673;    6.441;  -10.130;  706.480
1124.214;    5.075;  -12.930;  612.460
1124.755;    6.024;  -14.380;  639.460
1125.296;    5.580;  -14.000;  627.320
1125.836;    5.776;  -10.070;  691.500
1126.377;    5.053;  -12.640;  599.660
1126.918;    5.328;  -12.960;  614.980
1127.458;    4.573;  -13.350;  622.220
1127.999;    4.908;  -10.750;  656.980
1128.539;    5.527;  -12.350;  694.240
1129.079;    4.342;  -14.860;  632.720
1129.620;    3.694;  -13.840;  558.100
1130.160;    3.836;  -12.330;  539.480
1130.700;    5.467;  -14.530;  640.840
1131.240;    5.502;  -12.530;  643.700
1131.781;    3.481;  -14.450;  619.680
1132.321;    3.756;   -9.790;  599.120
1132.861;    2.964;  -14.860;  564.200
1133.401;    3.090;  -14.290;  593.940
1133.941;    3.905;  -11.750;  626.280
1134.481;    3.005;   -9.920;  597.580
1135.020;    3.694;  -12.290;  609.160
1135.560;    3.527;  -11.650;  674.940
1136.100;    2.578;  -16.270;  501.160
1136.640;    1.872;  -10.890;  510.480
1137.179;    2.966;  -14.180;  537.960
1137.719;    3.356;  -16.250;  605.400
1138.258;    3.322;  -14.230;  587.360
1138.798;    3.359;   -9.090;  663.780
1139.337;    2.700;  -15.130;  482.840
1139.877;    3.162;  -13.680;  642.360
1140.416;    4.712;  -11.320;  878.060
1140.955;    1.762;  -10.860;  535.380
1141.494;    2.973;  -12.920;  669.280
1142.034;    2.698;  -13.930;  583.520
1142.573;    3.168;  -11.440;  646.280
1143.112;    2.007;  -12.000;  553.480
1143.651;    2.222;  -13.670;  536.480
1144.190;    3.230;  -12.730;  691.640
1144.729;    2.343;  -14.560;  607.420
1145.267;    2.152;  -11.830;  584.900
1145.806;    2.670;  -12.230;  637.040
1146.345;    1.518;  -14.130;  635.020
1146.884;    2.019;  -11.590;  622.500
1147.422;    0.787;  -12.550;  533.060
1147.961;    3.192;  -11.180;  708.460
1148.500;    3.039;  -11.510;  669.720
1149.038;    2.478;  -11.640;  632.500
1149.577;    2.189;  -10.130;  698.640
1150.115;    0.429;  -13.970;  452.280
1150.653;    1.540;  -14.520;  607.340
1151.192;    1.169;  -12.810;  552.920
1151.730;    1.521;   -9.100;  652.560
1152.268;    1.144;  -12.220;  589.520
1152.806;    1.279;  -14.140;  571.180
1153.344;    0.090;  -12.350;  577.640
1153.882;    0.703;   -8.980;  600.060
1154.421;   -0.399;  -15.190;  470.620
1154.958;   -0.181;  -15.210;  595.240
1155.496;    1.499;  -12.850;  645.280
1156.034;    1.589;   -9.940;  721.880
1156.572;    2.417;  -13.570;  667.060
1157.110;    0.187;  -14.590;  473.940
1157.647;    0.481;  -13.030;  676.960
1158.185;   -0.498;  -12.140;  564.320
1158.723;   -0.968;  -14.390;  509.200
1159.260;    0.724;  -14.090;  701.700
1159.798;    0.125;  -11.920;  658.160
1160.335;   -0.215;  -11.110;  631.820

