
Integration time [ms]:   3.276
Averaging Nr. [scans]: 1000
Smoothing Nr. [pixels]: 0
Data measured with spectrometer [name]: 7414430SP
Wave   ;Sample   ;Dark     ;Reference
[nm]   ;[counts] ;[counts] ;[counts] 

288.544;  150.286;    7.793;  793.890
289.143;  153.769;    7.462;  681.602
289.742;  154.156;    8.602;  828.814
290.341;  138.901;    1.321;  789.841
290.940;  128.524;   -0.709;  730.702
291.538;  129.501;    0.881;  881.108
292.137;  129.190;    0.122;  792.581
292.736;  133.760;   -1.929;  975.101
293.335;  130.655;   -8.229;  735.086
293.934;  130.031;   -5.279;  781.677
294.532;  128.748;   -1.369; 1031.958
295.131;  115.021;   -7.641;  834.394
295.730;  114.962;   -8.420;  809.588
296.328;  114.439;   -5.611;  783.442
296.927;  115.348;   -5.781;  779.652
297.525;  115.973;   -6.361;  781.236
298.124;  106.476;  -11.382;  654.009
298.722;  110.197;   -7.641;  761.933
299.321;  108.869;   -6.811;  708.597
299.919;  106.125;   -6.991;  751.918
300.518;  103.193;  -10.362;  689.338
301.116;  105.114;   -9.581;  691.381
301.715;  105.044;   -4.891;  730.222
302.313;  103.820;   -8.801;  704.943
302.911;   99.921;   -8.522;  733.830
303.509;  104.686;   -6.171;  925.627
304.108;  102.354;   -7.311;  760.383
304.706;  101.424;   -8.321;  801.664
305.304;   95.202;  -10.222;  796.707
305.902;  100.701;   -6.021;  784.484
306.500;   97.182;   -4.971;  728.200
307.098;   95.442;   -7.061;  746.560
307.696;   93.440;   -8.801;  780.432
308.294;   94.181;   -6.411;  731.359
308.892;   95.912;   -2.901;  759.769
309.490;   91.511;   -5.041;  712.161
310.088;   90.546;   -5.002;  788.444
310.686;   94.826;   -2.041;  821.749
311.284;   89.782;   -2.351;  766.040
311.882;   88.554;   -4.422;  731.225
312.480;   85.445;   -4.192;  697.167
313.078;   85.709;   -1.172;  808.331
313.675;   87.494;   -2.601;  691.600
314.273;   82.790;   -1.312;  797.837
314.871;   81.090;   -3.942;  589.829
315.468;   79.477;   -2.802;  652.090
316.066;   81.736;   -0.701;  694.427
316.664;   74.788;   -4.362;  656.351
317.261;   79.483;   -2.872;  910.128
317.859;   75.182;   -2.022;  768.735
318.456;   75.151;   -0.531;  830.096
319.054;   71.175;   -3.912;  787.828
319.651;   70.260;   -4.752;  759.928
320.249;   68.368;   -2.602;  810.188
320.846;   66.446;   -0.821;  714.286
321.443;   65.217;   -4.642;  832.135
322.041;   61.511;   -5.002;  812.315
322.638;   59.460;   -3.982;  701.456
323.235;   60.890;   -3.411;  665.683
323.833;   58.146;   -7.361;  740.354
324.430;   53.131;   -8.611;  615.900
325.027;   53.859;   -4.061;  876.855
325.624;   53.343;   -4.031;  644.532
326.221;   51.214;   -7.481;  689.717
326.818;   50.661;   -5.281;  818.332
327.415;   53.398;   -7.460;  748.828
328.012;   53.223;   -5.510;  690.585
328.609;   52.008;   -7.880;  731.389
329.206;   49.747;   -8.331;  778.621
329.803;   50.004;   -5.121;  737.841
330.400;   52.636;   -4.510;  704.260
330.997;   53.761;   -6.441;  817.147
331.594;   52.358;   -8.831;  788.185
332.191;   57.698;   -7.621;  728.722
332.787;   60.504;   -4.591;  844.463
333.384;   59.382;   -7.412;  763.093
333.981;   58.317;   -8.293;  815.687
334.578;   60.675;   -7.052;  708.378
335.174;   63.474;   -3.102;  731.469
335.771;   63.176;   -5.943;  836.456
336.367;   60.519;   -7.393;  710.631
336.964;   63.279;   -4.063;  793.266
337.561;   61.078;   -3.813;  731.112
338.157;   56.666;   -4.654;  911.916
338.754;   54.821;   -7.934;  796.589
339.350;   52.387;   -4.414;  722.493
339.946;   54.666;   -4.664;  773.135
340.543;   46.883;   -6.375;  846.136
341.139;   42.189;   -9.815;  720.836
341.735;   39.671;   -4.526;  772.593
342.332;   38.718;   -4.895;  691.472
342.928;   38.258;   -4.295;  795.394
343.524;   32.953;   -5.476;  761.684
344.120;   28.208;   -5.856;  738.562
344.716;   32.312;   -2.155;  723.717
345.313;   29.915;   -6.275;  795.342
345.909;   24.508;   -8.815;  627.336
346.505;   26.472;   -5.305;  740.247
347.101;   27.423;   -2.674;  827.864
347.697;   27.421;   -4.344;  785.398
348.293;   22.433;   -9.975;  627.244
348.889;   22.739;   -5.774;  745.914
349.485;   22.584;   -5.004;  688.205
350.081;   22.146;   -4.704;  772.592
350.676;   17.697;   -6.635;  691.606
351.272;   22.239;   -4.504;  809.530
351.868;   21.737;   -3.914;  780.497
352.464;   19.241;   -9.044;  723.932
353.059;   15.403;   -8.314;  646.017
353.655;   19.007;   -7.024;  777.063
354.251;   20.362;   -5.343;  759.845
354.846;   14.199;   -8.604;  740.646
355.442;   13.294;   -6.945;  753.071
356.038;   14.479;   -7.564;  751.708
356.633;   14.502;   -5.814;  728.594
357.229;   12.400;   -7.364;  724.757
357.824;   10.627;   -8.024;  703.600
358.420;    9.844;   -9.384;  679.726
359.015;   10.178;   -5.104;  695.357
359.610;   11.285;   -6.854;  763.920
360.206;    4.854;  -10.185;  603.240
360.801;    8.653;   -7.054;  646.503
361.396;   10.669;   -5.034;  725.975
361.992;    5.781;   -8.284;  668.220
362.587;    2.951;   -8.625;  670.160
363.182;    5.351;   -7.674;  689.631
363.777;    5.609;   -5.164;  738.242
364.372;    5.350;   -8.604;  737.314
364.967;    1.676;   -9.055;  680.744
365.563;    5.646;   -6.114;  815.567
366.158;    3.295;   -5.814;  685.161
366.753;    3.756;   -7.854;  649.263
367.348;    2.282;   -7.804;  746.056
367.942;    1.677;   -7.954;  697.298
368.537;    0.773;   -4.984;  754.245
369.132;    1.085;   -8.564;  703.428
369.727;   -3.057;   -8.855;  638.079
370.322;   -2.040;   -6.245;  580.186
370.917;   -1.406;   -6.425;  710.646
371.511;    1.440;   -6.294;  861.834
372.106;   -2.907;   -7.685;  776.964
372.701;   -5.110;   -7.335;  585.988
373.296;    0.114;   -4.564;  863.135
373.890;   -4.485;  -10.235;  647.840
374.485;   -8.015;   -7.885;  691.199
375.079;   -3.085;   -7.324;  738.685
375.674;   -2.266;   -3.494;  812.970
376.268;   -6.228;   -8.525;  691.759
376.863;  -11.947;  -10.086;  580.327
377.457;   -5.344;   -7.025;  662.490
378.052;   -7.770;   -3.585;  764.884
378.646;   -8.508;   -7.595;  741.167
379.240;   -9.001;   -8.335;  721.176
379.835;   -7.805;   -5.785;  636.978
380.429;   -9.628;   -4.335;  562.557
381.023;  -10.696;   -6.805;  779.205
381.617;  -11.883;   -9.195;  680.106
382.212;   -9.519;   -6.905;  685.303
382.806;   -7.427;   -3.745;  760.690
383.400;  -12.191;   -7.745;  672.281
383.994;  -12.646;   -9.765;  664.870
384.588;   -8.923;   -6.564;  697.701
385.182;   -8.212;   -5.344;  726.624
385.776;   -9.636;   -8.514;  706.875
386.370;  -12.554;   -9.555;  681.968
386.964;  -11.567;   -8.715;  684.155
387.558;   -9.763;   -6.174;  598.360
388.152;  -13.163;   -8.725;  681.959
388.745;  -11.374;   -7.965;  814.707
389.339;   -9.462;   -5.924;  747.642
389.933;   -8.461;   -5.524;  695.370
390.527;  -10.237;   -7.114;  859.029
391.120;  -16.500;  -10.725;  595.318
391.714;  -12.707;   -8.035;  711.633
392.308;  -10.301;   -3.574;  780.253
392.901;  -14.001;   -7.245;  642.460
393.495;  -15.569;   -9.285;  595.414
394.089;  -13.638;   -5.895;  760.452
394.682;  -14.202;   -4.295;  697.188
395.275;  -14.811;   -9.875;  719.927
395.869;  -16.217;   -8.485;  667.314
396.462;  -13.944;   -7.455;  616.609
397.056;  -10.723;   -5.424;  776.621
397.649;  -14.845;   -6.605;  731.575
398.242;  -12.920;   -8.224;  712.645
398.836;  -11.676;   -7.474;  766.408
399.429;  -13.055;   -7.094;  631.041
400.022;  -16.163;   -9.475;  665.902
400.615;  -13.880;   -7.145;  805.609
401.208;  -11.846;   -7.174;  691.451
401.802;  -14.076;   -5.515;  699.329
402.395;  -15.684;   -9.875;  683.502
402.988;  -16.677;   -8.845;  696.627
403.581;  -13.181;   -8.874;  646.878
404.174;  -11.107;   -5.324;  686.568
404.767;  -13.802;   -9.575;  638.583
405.360;  -16.748;  -10.965;  621.445
405.953;  -10.870;   -8.764;  759.034
406.545;  -10.221;   -7.514;  725.342
407.138;  -15.375;  -10.025;  618.350
407.731;  -13.564;  -10.034;  613.303
408.324;   -8.952;   -9.374;  660.554
408.917;  -10.440;   -6.534;  681.864
409.509;  -12.026;   -8.004;  740.396
410.102;  -13.766;   -9.875;  643.948
410.695;   -8.130;   -8.604;  665.758
411.287;   -9.237;   -6.794;  599.821
411.880;  -10.023;   -9.334;  585.421
412.472;  -13.026;  -10.254;  613.092
413.065;  -10.221;   -6.714;  629.408
413.657;   -8.548;   -7.234;  576.678
414.250;   -8.335;  -10.544;  646.681
414.842;  -10.246;   -9.744;  676.353
415.434;   -7.692;   -6.994;  570.463
416.027;   -4.138;   -5.893;  652.196
416.619;   -5.839;   -7.264;  713.400
417.211;   -7.056;  -10.374;  599.352
417.804;   -3.245;   -7.993;  628.499
418.396;   -6.728;   -7.234;  607.643
418.988;   -4.350;   -9.443;  659.238
419.580;   -8.642;  -10.724;  568.276
420.172;   -6.680;  -10.323;  536.196
420.764;   -1.408;   -8.793;  672.482
421.356;   -3.184;  -11.143;  636.898
421.948;   -3.911;   -8.293;  677.661
422.540;    1.847;   -7.893;  680.027
423.132;    0.623;   -7.082;  600.641
423.724;   -3.155;   -8.653;  561.267
424.316;   -0.831;  -10.213;  621.345
424.908;    2.378;   -9.762;  591.517
425.500;    3.316;   -5.572;  647.978
426.092;    3.381;   -8.422;  648.268
426.683;    2.984;   -9.283;  684.836
427.275;    4.882;   -7.852;  641.471
427.867;    7.941;   -5.272;  668.948
428.458;    7.863;   -7.682;  732.344
429.050;    5.680;  -10.612;  680.749
429.642;    8.131;   -9.882;  743.124
430.233;    9.515;   -6.962;  569.356
430.825;    9.784;   -6.842;  724.809
431.416;    6.953;   -9.672;  698.241
432.008;   11.632;   -6.552;  651.723
432.599;   12.366;   -6.891;  656.073
433.190;    8.462;  -10.912;  637.670
433.782;    8.125;  -11.172;  590.395
434.373;   15.312;   -6.061;  884.765
434.964;   13.900;   -8.251;  602.920
435.556;   11.941;   -9.722;  634.537
436.147;   14.764;   -9.082;  758.490
436.738;   14.713;   -8.041;  701.099
437.329;   19.937;   -7.341;  721.723
437.920;   11.970;   -8.162;  666.688
438.511;   12.493;  -11.802;  564.526
439.103;   19.360;  -10.191;  623.998
439.694;   20.557;   -7.601;  681.583
440.285;   21.887;   -8.541;  764.432
440.876;   19.959;   -9.751;  845.738
441.466;   19.039;   -9.401;  575.162
442.057;   25.018;   -7.760;  665.814
442.648;   23.389;   -9.971;  746.255
443.239;   21.508;  -11.001;  620.477
443.830;   26.733;   -7.990;  704.958
444.421;   28.787;   -7.910;  655.474
445.011;   24.874;   -8.131;  693.619
445.602;   24.378;   -7.111;  743.126
446.193;   26.645;  -10.920;  488.117
446.783;   31.310;   -6.500;  640.397
447.374;   26.097;   -8.671;  692.759
447.964;   26.612;  -10.781;  713.770
448.555;   34.963;   -9.650;  822.742
449.145;   32.209;   -8.660;  662.853
449.736;   32.568;   -8.990;  803.179
450.326;   32.562;   -9.500;  713.626
450.917;   38.027;   -8.680;  675.324
451.507;   36.824;   -7.520;  600.661
452.097;   36.580;   -8.590;  746.267
452.688;   38.540;  -11.340;  742.160
453.278;   37.850;  -10.100;  566.840
453.868;   42.382;   -6.019;  793.550
454.458;   39.669;   -9.440;  651.141
455.048;   40.885;  -10.560;  711.783
455.639;   42.504;  -11.799;  567.096
456.229;   45.739;   -6.899;  710.694
456.819;   47.146;   -7.389;  751.158
457.409;   47.992;  -11.119;  773.993
457.999;   50.909;   -9.289;  737.505
458.589;   49.995;   -6.139;  686.606
459.179;   50.259;   -8.729;  717.658
459.769;   48.850;   -9.789;  627.099
460.358;   53.694;  -10.259;  797.262
460.948;   53.192;   -7.299;  689.503
461.538;   54.695;  -10.289;  660.677
462.128;   52.499;  -11.269;  664.934
462.717;   59.052;   -9.368;  710.326
463.307;   62.036;   -7.908;  705.846
463.897;   57.502;   -9.599;  656.942
464.486;   56.818;   -9.769;  837.128
465.076;   61.993;   -8.048;  733.776
465.666;   65.159;   -9.358;  652.900
466.255;   62.786;   -7.919;  785.651
466.845;   62.176;  -11.689;  666.749
467.434;   65.398;   -7.818;  725.873
468.023;   66.494;   -7.678;  658.357
468.613;   64.056;  -10.939;  713.946
469.202;   68.507;  -10.118;  646.507
469.791;   72.182;   -9.108;  737.811
470.381;   74.230;   -6.058;  742.813
470.970;   73.724;  -10.428;  711.099
471.559;   73.381;  -10.268;  733.291
472.148;   76.627;   -8.448;  675.737
472.738;   79.518;   -6.917;  765.466
473.327;   78.494;  -11.978;  637.529
473.916;   78.307;  -11.888;  737.446
474.505;   82.451;   -9.437;  751.703
475.094;   85.672;   -6.747;  806.570
475.683;   85.394;   -9.367;  797.699
476.272;   86.364;  -12.637;  730.632
476.861;   88.841;  -10.027;  706.754
477.449;   95.586;   -8.716;  728.487
478.038;   89.593;   -9.577;  692.513
478.627;   90.666;   -9.718;  714.852
479.216;   97.082;   -8.947;  769.441
479.805;  100.415;   -6.256;  783.375
480.393;  100.496;   -7.937; 1008.945
480.982;   99.325;   -7.717;  874.501
481.571;  105.310;   -9.266;  858.333
482.159;  106.008;   -7.636;  705.386
482.748;  106.603;   -9.667;  821.385
483.336;  110.259;  -10.376;  858.209
483.925;  111.971;   -7.147;  774.373
484.513;  118.207;   -7.996;  758.962
485.102;  114.249;  -10.027;  810.965
485.690;  123.508;  -10.446; 1011.050
486.278;  125.121;   -8.446;  979.329
486.867;  126.337;   -6.356;  809.662
487.455;  127.866;   -9.136;  898.229
488.043;  128.996;  -10.646;  748.361
488.631;  137.930;   -7.456; 1005.079
489.220;  141.739;   -6.636;  908.626
489.808;  142.812;  -11.036;  741.415
490.396;  151.235;  -10.246;  914.645
490.984;  156.711;   -8.556;  830.161
491.572;  167.201;   -5.886;  940.315
492.160;  173.260;   -9.486;  919.081
492.748;  186.319;  -10.976;  884.341
493.336;  210.378;   -8.776; 1019.693
493.924;  237.342;   -5.465;  958.077
494.512;  266.677;   -9.986; 1066.638
495.100;  306.909;  -10.636; 1103.280
495.687;  364.626;  -10.885; 1206.373
496.275;  430.504;   -8.126; 1150.796
496.863;  505.102;  -10.586; 1281.171
497.451;  611.446;  -11.926; 1386.805
498.038;  746.887;  -10.885; 1556.729
498.626;  860.291;   -6.315; 1741.407
499.214; 1020.300;   -7.326; 2016.609
499.801; 1222.568;  -11.906; 2220.633
500.389; 1489.369;  -10.466; 2312.494
500.976; 1802.943;   -5.236; 2744.849
501.564; 2262.029;   -8.936; 3148.565
502.151; 2643.849;  -13.176; 3515.999
502.738; 3103.866;  -10.646; 3971.274
503.326; 3515.686;   -9.525; 4403.796
503.913; 3910.033;  -10.856; 5161.749
504.500; 4282.175;  -11.586; 5986.420
505.088; 4734.388;  -10.336; 6381.201
505.675; 5289.222;   -6.355; 6925.547
506.262; 6032.649;   -9.046; 7619.060
506.849; 6759.813;  -10.416; 8733.969
507.436; 7235.011;  -10.305; 9790.121
508.023; 7804.985;   -5.496; 9985.472
508.610; 8065.668;   -7.856;10434.618
509.197; 8711.973;  -10.097;11198.435
509.784;10116.195;  -10.886;12391.194
510.371;11194.549;   -9.315;13603.713
510.958;11894.357;   -9.936;14426.586
511.545;12634.428;   -9.326;15243.775
512.132;13443.847;  -10.075;15945.876
512.719;13937.926;   -7.796;16340.369
513.305;14882.521;  -10.606;18011.766
513.892;15621.282;  -11.486;19754.971
514.479;16951.881;   -9.126;20967.805
515.066;18518.855;   -6.026;22299.793
515.652;19881.688;   -8.466;22908.660
516.239;20981.971;  -10.886;23798.875
516.825;21826.758;  -11.496;25567.275
517.412;22743.197;   -5.796;28154.959
517.998;23382.314;  -10.506;28344.111
518.585;23541.420;  -10.076;27134.219
519.171;24035.518;   -8.315;27268.576
519.758;25375.184;   -8.596;28964.129
520.344;27157.832;   -8.466;30664.494
520.930;27170.932;  -11.006;32550.605
521.516;28155.852;  -10.495;35422.895
522.103;30197.633;   -5.526;38280.004
522.689;30567.201;   -8.746;37835.117
523.275;30118.193;  -11.376;37288.613
523.861;31452.057;  -11.156;37281.395
524.447;32755.621;   -8.135;37846.949
525.033;32395.078;   -7.896;38321.949
525.619;32266.316;  -12.476;38579.285
526.205;33527.887;   -9.516;40622.875
526.791;35354.250;   -6.926;42258.836
527.377;34653.840;   -8.346;42966.902
527.963;33979.141;   -8.717;42018.949
528.549;31090.270;  -11.016;42476.828
529.135;30464.090;   -8.536;41854.852
529.721;32380.973;   -9.666;41237.711
530.306;33770.840;  -10.066;41259.445
530.892;34345.727;  -11.356;41506.047
531.478;36041.230;   -6.596;43559.613
532.063;38828.773;   -8.836;47695.563
532.649;39391.109;  -10.047;50808.324
533.235;40052.098;   -9.746;51787.500
533.820;40211.086;   -6.566;52145.035
534.406;41340.246;  -10.817;51133.488
534.991;40870.922;   -9.416;49996.805
535.576;39062.852;   -9.036;48882.852
536.162;39094.934;   -6.156;46942.285
536.747;38898.215;  -11.607;45711.746
537.333;40127.434;  -11.787;48510.180
537.918;40321.688;  -12.437;50439.891
538.503;37621.445;   -7.196;50863.711
539.088;35111.250;  -10.556;50906.922
539.673;37465.328;   -8.767;52621.965
540.259;40778.059;  -10.026;52368.094
540.844;40903.824;   -7.416;50879.109
541.429;43353.090;   -9.467;52077.777
542.014;46403.414;   -9.527;52716.695
542.599;45661.598;   -9.946;52363.281
543.184;43411.355;   -7.927;53187.137
543.769;44867.117;   -9.297;54697.605
544.354;44320.363;  -10.127;53913.914
544.938;43059.785;   -9.267;49680.164
545.523;45046.555;   -6.506;47386.277
546.108;47996.496;   -9.787;49151.949
546.693;49944.410;  -11.587;51384.637
547.278;49630.359;  -10.986;51853.254
547.862;46886.789;   -8.206;51173.750
548.447;42504.699;  -10.067;51691.395
549.031;41862.258;   -9.637;52456.703
549.616;46607.809;   -9.926;52714.516
550.201;46038.738;   -6.347;52414.598
550.785;47138.223;   -7.917;52355.059
551.370;46125.895;  -10.867;54589.453
551.954;45524.039;   -9.047;58267.348
552.538;46346.273;   -7.827;59062.176
553.123;44825.930;  -10.287;58115.285
553.707;42454.910;  -12.178;56556.285
554.291;43941.102;   -8.717;56201.668
554.876;46512.363;   -7.457;55335.762
555.460;46704.316;  -10.387;54155.703
556.044;47623.051;   -9.618;53721.484
556.628;46352.867;  -11.567;53731.016
557.212;45359.078;   -8.097;54312.531
557.796;43828.324;  -11.077;53797.773
558.380;43976.172;  -11.108;56145.984
558.964;44375.926;   -9.057;57277.930
559.548;45680.586;   -6.977;56459.641
560.132;43957.484;  -11.457;54434.543
560.716;42437.672;  -11.378;54800.617
561.300;43406.355;   -9.577;57606.945
561.884;44600.082;   -7.127;58972.445
562.467;42964.973;   -7.118;57327.570
563.051;42511.090;  -13.358;54962.434
563.635;43677.477;  -10.178;52594.473
564.219;43775.953;   -7.837;50610.410
564.802;44738.945;  -11.398;49551.180
565.386;44629.750;  -12.788;48370.953
565.969;43868.762;   -9.077;48178.871
566.553;42914.438;   -6.207;49957.305
567.136;43616.879;   -8.568;50369.594
567.720;40216.098;  -11.868;49492.004
568.303;38163.203;   -8.268;50616.352
568.887;38134.098;   -8.698;50727.148
569.470;38436.875;   -6.808;51698.379
570.053;37119.863;  -13.188;52122.078
570.637;35627.191;  -12.037;52536.438
571.220;35673.438;   -8.577;51186.098
571.803;36326.082;   -8.498;51032.762
572.386;38387.492;  -10.498;49609.887
572.969;40913.867;   -9.388;48285.926
573.552;39221.770;   -8.338;47624.285
574.135;37696.027;   -8.518;45498.641
574.718;35349.563;  -13.628;41970.434
575.301;34536.480;  -10.893;41447.137
575.884;33723.395;   -8.158;40923.836
576.467;34874.598;  -10.328;45267.723
577.050;36549.980;  -13.058;48175.543
577.633;37901.516;   -9.458;47729.328
578.216;37107.688;   -8.928;47579.793
578.799;36252.730;   -9.358;47820.996
579.381;35247.422;  -11.388;48115.551
579.964;33337.879;  -11.718;47333.766
580.547;34970.469;   -8.588;46668.969
581.129;36112.184;   -8.859;44466.141
581.712;37000.121;  -10.729;44164.922
582.294;37633.805;  -11.118;46477.855
582.877;37354.527;   -5.218;48244.254
583.459;35072.277;   -8.679;47437.895
584.042;33164.145;  -10.709;46943.219
584.624;33486.508;  -11.669;46792.227
585.206;33044.320;   -8.218;46557.250
585.789;32974.500;  -10.569;45793.773
586.371;36004.766;  -11.859;43836.391
586.953;36763.117;  -10.719;42972.492
587.536;38094.652;   -7.198;42487.211
588.118;38394.188;   -8.720;42086.414
588.700;34537.461;  -10.439;43389.930
589.282;33465.656;   -9.198;43646.039
589.864;34294.594;   -9.199;43438.109
590.446;35399.836;  -11.319;43151.926
591.028;35511.980;  -11.159;42781.867
591.610;34423.844;  -11.779;42839.098
592.192;31651.104;   -7.668;42820.402
592.774;30120.619;  -11.949;40724.277
593.356;28747.010;  -12.129;39874.789
593.937;27619.486;  -10.669;39980.648
594.519;29694.553;   -6.509;42069.633
595.101;31915.973;  -10.849;42976.031
595.683;32184.078;  -11.679;44084.441
596.264;33278.281;   -9.049;43478.797
596.846;32866.035;   -8.849;43803.672
597.427;32893.715;   -9.570;42986.934
598.009;34571.383;  -12.620;42832.219
598.591;34930.301;  -10.039;42580.086
599.172;34131.355;  -10.369;43061.805
599.753;34271.285;   -9.140;41691.469
600.335;35786.781;  -11.430;40692.520
600.916;33880.559;   -9.939;39982.422
601.498;31295.861;   -8.479;40318.617
602.079;29864.230;  -10.920;40670.609
602.660;29660.416;  -11.480;41450.898
603.241;31347.256;  -11.699;41137.738
603.823;30199.912;   -9.579;38868.797
604.404;29388.426;  -10.620;38182.785
604.985;31015.393;  -10.450;38078.047
605.566;31031.463;   -9.129;38056.633
606.147;31238.461;   -7.510;37020.418
606.728;32780.797;  -10.660;37883.359
607.309;31377.494;  -11.740;38748.273
607.890;30904.348;   -9.759;38850.230
608.471;30271.461;   -8.250;37457.918
609.051;29427.768;   -9.240;36066.457
609.632;28374.293;  -12.120;35991.074
610.213;29090.395;   -9.110;37402.641
610.794;29850.268;   -8.030;38383.363
611.374;29347.680;   -8.110;40562.387
611.955;29975.277;  -13.560;38533.727
612.536;31389.936;  -11.400;36951.789
613.116;31167.855;   -8.070;37197.891
613.697;31499.762;  -10.830;38411.125
614.277;29929.920;  -11.641;38673.938
614.858;30834.104;  -13.310;37075.863
615.438;29915.834;   -7.460;35092.906
616.019;27338.385;   -7.601;33666.301
616.599;28080.484;  -12.020;34189.023
617.179;30039.309;  -11.780;36952.047
617.760;31095.246;   -8.570;39582.574
618.340;32174.361;  -11.471;38943.977
618.920;33456.535;  -11.170;37594.156
619.500;33018.867;  -11.071;37866.938
620.080;31884.014;   -7.750;37869.043
620.660;33009.941;  -12.711;36868.617
621.241;34328.820;  -10.211;36352.309
621.821;34752.395;  -10.961;35459.520
622.401;33832.867;   -7.720;35207.414
622.980;33125.965;   -8.981;35980.422
623.560;31642.922;   -9.331;37351.328
624.140;30213.836;   -9.850;34388.582
624.720;25156.939;   -7.451;32368.764
625.300;21741.633;   -9.070;32638.629
625.880;25079.324;  -12.601;34599.035
626.459;28907.871;  -11.751;36831.738
627.039;31980.926;   -9.281;38299.098
627.619;31883.783;   -8.801;38289.574
628.198;30446.086;  -12.071;37220.695
628.778;29681.711;   -9.461;37632.563
629.357;30247.609;   -8.491;38003.012
629.937;30036.229;   -9.721;38402.039
630.516;29554.156;   -9.951;37868.801
631.096;29487.773;  -11.731;35760.410
631.675;31875.852;   -8.572;35225.219
632.254;36907.488;  -11.282;35130.289
632.834;36310.363;  -13.322;35794.570
633.413;34383.863;  -10.301;35788.922
633.992;31795.193;   -8.582;34532.863
634.571;32604.352;   -8.352;33590.113
635.151;35755.457;  -11.912;34943.863
635.730;34059.664;  -10.511;35352.523
636.309;30395.520;   -7.731;35366.605
636.888;27849.498;   -9.952;36165.637
637.467;28423.705;  -11.672;37515.902
638.046;30031.047;   -8.901;39288.695
638.625;33150.820;   -7.912;38279.699
639.204;32908.422;  -10.022;37741.598
639.782;31518.629;  -12.252;38364.551
640.361;28085.486;  -10.041;36740.621
640.940;25301.707;  -11.161;34950.082
641.519;25956.453;   -9.701;34137.398
642.097;28594.107;  -11.271;35654.258
642.676;31390.090;   -8.651;35637.957
643.255;32249.195;   -8.711;36567.074
643.833;31462.135;   -9.581;37809.434
644.412;31353.645;  -13.711;37337.293
644.990;30213.775;  -11.811;37018.531
645.569;29906.246;   -9.411;36518.469
646.147;28982.834;  -10.291;36186.430
646.726;29041.984;  -12.401;36267.688
647.304;30359.566;  -10.411;36647.625
647.882;32037.703;   -9.651;39286.742
648.461;33611.930;   -9.631;39157.703
649.039;32016.488;  -11.881;35412.883
649.617;31391.289;   -9.661;34744.918
650.195;30951.701;   -9.301;35403.098
650.773;29576.691;  -10.511;35053.797
651.352;27001.439;  -11.521;33756.816
651.930;24611.430;  -12.211;31868.773
652.508;23260.092;   -9.171;33121.551
653.086;27133.031;   -9.371;33564.793
653.663;29978.934;  -13.161;34054.668
654.241;28680.795;  -13.031;35693.309
654.819;30357.883;   -9.371;36422.906
655.397;30623.398;  -10.511;38213.484
655.975;30109.715;  -10.371;39507.625
656.553;29993.016;  -10.051;39498.223
657.130;28435.854;  -10.061;40395.480
657.708;27515.627;   -9.561;39242.020
658.286;27639.633;  -11.511;38920.020
658.863;29067.021;  -10.261;40202.898
659.441;32144.707;   -7.531;39677.938
660.018;31723.262;   -9.501;40413.355
660.596;30539.648;  -13.301;39931.414
661.173;32364.910;  -11.211;39604.531
661.750;32307.490;   -9.951;39700.070
662.328;30803.879;   -9.390;39292.809
662.905;30091.514;  -11.330;38235.648
663.482;26257.725;   -9.050;36212.305
664.060;24496.777;   -8.240;35944.945
664.637;27191.971;  -10.050;35170.785
665.214;28901.449;  -11.760;34197.523
665.791;30528.084;  -10.530;34549.520
666.368;29469.555;   -9.690;35118.578
666.945;29964.877;   -9.320;36019.418
667.522;31511.070;  -11.860;36048.438
668.099;31159.277;  -10.770;36243.914
668.676;29969.154;   -6.260;35958.875
669.253;28818.211;   -7.000;37384.730
669.830;29521.959;  -10.190;36779.629
670.407;29230.576;   -9.550;35231.289
670.984;28964.941;   -9.260;35544.270
671.560;29568.064;   -9.280;35466.867
672.137;28982.430;  -11.810;34280.863
672.714;29769.289;  -11.490;34632.863
673.290;30379.936;   -7.740;35135.422
673.867;30636.680;  -10.660;36114.480
674.443;30630.539;  -12.230;36152.859
675.020;28889.449;  -10.450;35327.238
675.596;29777.520;   -9.260;35795.176
676.173;30083.334;  -10.780;35430.355
676.749;29877.676;  -13.690;33549.516
677.326;29924.570;  -11.980;32210.012
677.902;29968.920;   -8.630;32068.871
678.478;29365.418;  -10.730;32583.891
679.054;28688.623;  -10.520;32088.928
679.631;28954.523;  -11.920;30978.848
680.207;30526.119;   -7.490;33160.887
680.783;32183.359;   -9.860;35570.363
681.359;31282.650;  -13.380;36125.184
681.935;30702.674;  -12.480;35240.922
682.511;30022.869;   -7.900;34429.961
683.087;30203.943;   -7.710;34463.680
683.663;29706.430;  -11.480;34648.898
684.239;28461.125;  -14.090;34546.457
684.815;28126.113;   -7.560;35586.375
685.390;28471.984;   -9.910;35821.895
685.966;28930.871;  -11.159;35085.871
686.542;31208.334;  -11.169;34198.230
687.118;33484.895;   -5.959;32847.707
687.693;33935.613;  -10.329;32794.027
688.269;33578.852;  -12.059;33072.367
688.844;31670.150;  -10.909;33141.664
689.420;29495.996;   -8.019;33965.742
689.995;27290.084;   -8.399;34655.523
690.571;25933.648;  -10.949;33576.742
691.146;26421.424;   -9.619;32657.219
691.722;25981.766;   -8.999;32526.979
692.297;25572.441;  -11.589;33014.617
692.872;27340.293;  -11.739;34012.254
693.448;27037.961;  -11.059;34237.434
694.023;26188.008;  -10.139;34142.672
694.598;28091.480;   -9.029;34132.031
695.173;28513.822;  -13.319;34205.250
695.748;27733.916;  -10.169;32882.488
696.323;27978.537;   -8.339;32864.906
696.898;28270.607;   -8.169;33170.004
697.473;28178.244;  -12.309;32432.984
698.048;27605.412;  -10.989;31649.303
698.623;27340.639;   -9.329;30778.141
699.198;29153.943;   -9.849;31140.119
699.773;30250.896;  -12.329;31764.299
700.348;28646.072;  -10.389;31780.816
700.922;28803.672;   -9.269;32046.375
701.497;29788.434;   -9.329;32603.574
702.072;30050.994;  -10.789;34799.871
702.646;28648.959;  -10.839;35793.172
703.221;26447.791;   -9.099;35201.590
703.795;28531.938;  -10.939;34764.527
704.370;28999.697;  -12.859;34307.367
704.944;29386.033;  -11.559;33509.887
705.519;30145.383;   -7.939;31388.584
706.093;31525.420;  -10.499;31340.104
706.668;32064.662;  -11.289;32630.281
707.242;30905.639;  -11.509;32728.779
707.816;29272.295;   -9.639;32947.238
708.390;27789.891;  -11.429;33277.855
708.965;28178.783;  -11.869;33834.336
709.539;27974.551;  -11.689;33709.273
710.113;28399.291;  -10.478;33044.313
710.687;28046.182;  -10.228;31953.992
711.261;26546.656;  -13.698;30505.949
711.835;26309.316;  -13.378;30262.369
712.409;26966.912;   -9.698;31254.447
712.983;28990.111;  -11.898;32754.986
713.557;30033.369;  -15.138;34018.824
714.131;29563.881;  -14.098;34579.625
714.704;28460.604;   -9.958;33890.262
715.278;26200.543;  -10.028;33531.102
715.852;25084.297;  -11.148;33601.660
716.425;25884.617;   -9.068;33515.117
716.999;26734.139;  -10.038;33185.555
717.573;27749.080;   -9.798;33905.996
718.146;28814.086;  -12.378;35199.293
718.720;29027.502;  -11.918;35060.551
719.293;28497.912;   -8.088;34973.230
719.867;31387.400;  -10.888;36394.449
720.440;31265.789;  -11.938;36663.008
721.013;29635.686;  -12.818;35102.426
721.587;28013.906;  -10.298;33985.266
722.160;26864.988;  -10.048;33524.965
722.733;25825.490;  -12.108;32987.043
723.306;26093.240;  -10.818;33066.301
723.880;28692.725;   -8.908;33399.500
724.453;30973.496;   -9.878;33468.297
725.026;29858.461;  -11.188;33816.637
725.599;26710.674;  -11.678;32797.996
726.172;26812.648;   -9.618;33187.434
726.745;27916.199;   -8.258;35136.613
727.318;29347.357;  -12.978;35751.730
727.891;30157.377;  -12.148;35890.430
728.463;29973.311;   -8.968;34822.090
729.036;28895.539;  -10.188;32895.086
729.609;29322.514;  -11.788;31823.225
730.182;26265.623;  -11.788;31445.283
730.754;23744.908;  -10.268;32373.223
731.327;23793.313;   -9.998;33676.820
731.900;23993.293;  -12.228;33417.000
732.472;25280.086;  -13.848;31978.498
733.045;27344.980;   -8.698;30368.777
733.617;27437.682;  -10.607;30574.215
734.190;27142.943;  -11.507;31280.975
734.762;24348.303;  -13.647;31674.412
735.334;22451.539;   -9.767;31247.291
735.907;22979.773;   -9.897;29876.211
736.479;23270.227;  -11.637;29808.488
737.051;23089.018;   -9.567;30233.547
737.623;24044.199;   -8.187;31469.086
738.195;24637.215;  -11.187;31784.225
738.768;26418.598;  -12.337;32120.523
739.340;26865.594;  -12.227;32094.342
739.912;25831.797;  -11.057;31312.680
740.484;24340.154;  -10.207;31946.238
741.056;23081.875;  -10.047;32984.059
741.628;24768.080;  -13.627;33897.715
742.199;26955.557;   -7.177;33213.016
742.771;25247.885;  -10.797;31369.113
743.343;22901.791;  -11.997;31865.473
743.915;21891.750;  -12.867;32388.631
744.487;21975.121;   -7.617;31079.568
745.058;22285.588;   -9.557;30570.107
745.630;22745.869;   -9.877;29970.127
746.201;23620.674;  -14.177;29186.766
746.773;24239.453;   -9.237;28805.723
747.344;24067.426;   -9.847;29591.223
747.916;22506.479;  -11.657;31412.201
748.487;22656.051;  -10.587;32194.898
749.059;23720.764;   -8.707;32533.719
749.630;24203.430;  -10.537;32158.518
750.201;23060.566;  -11.687;30855.395
750.773;21330.717;  -11.647;28622.555
751.344;21399.939;   -7.147;28405.732
751.915;22809.889;   -9.757;28461.551
752.486;22963.398;  -12.427;27842.850
753.057;20633.189;  -12.227;27845.008
753.628;19282.990;  -10.417;27728.107
754.199;20321.627;  -11.767;27381.086
754.770;21403.295;  -11.187;25882.203
755.341;21504.326;  -10.507;25886.184
755.912;21610.742;   -9.387;26050.861
756.483;21166.314;  -10.647;26798.779
757.054;19461.516;  -11.837;27048.238
757.625;18164.045;  -12.716;26294.838
758.195;17778.588;   -9.666;26142.076
758.766;17400.096;   -8.656;26392.234
759.337;18207.445;  -12.856;26334.594
759.907;19905.172;  -13.366;27579.652
760.478;20862.039;   -8.576;28352.770
761.048;20304.834;  -10.526;27325.088
761.619;19439.018;  -11.116;26460.428
762.189;19421.445;  -12.136;26029.826
762.760;20347.582;   -9.456;26430.145
763.330;21480.041;   -7.136;26670.902
763.900;20979.301;  -11.786;26603.021
764.471;18482.871;  -11.546;25542.740
765.041;17278.949;   -8.096;24358.459
765.611;17357.846;   -8.876;23991.297
766.181;17687.283;  -12.196;24470.236
766.751;18553.188;  -11.636;24845.975
767.321;18373.793;  -10.156;24533.633
767.891;16594.059;  -11.766;24916.492
768.461;16081.216;  -14.936;24776.771
769.031;16593.953;  -12.356;24757.988
769.601;18162.641;   -7.526;24181.088
770.171;17970.125;  -10.766;23670.387
770.741;17100.625;  -13.176;22960.045
771.311;17130.410;  -10.616;22917.523
771.880;17493.688;   -9.576;23562.941
772.450;17149.256;  -10.336;24216.500
773.020;17046.020;  -13.516;24140.398
773.589;16343.361;  -13.466;24414.857
774.159;15703.093;   -8.686;23858.717
774.729;15378.558;   -9.476;22942.135
775.298;14962.258;  -13.666;22324.033
775.867;14589.420;  -11.716;21140.313
776.437;14710.173;   -9.906;20838.092
777.006;14568.774;  -12.166;20599.510
777.576;14435.000;  -12.356;20508.809
778.145;14490.999;  -11.646;20732.947
778.714;14358.587;   -8.226;21062.465
779.283;13613.878;   -9.556;20949.664
779.853;13065.241;  -14.116;20508.623
780.422;13511.383;  -11.506;20649.082
780.991;13105.023;   -9.556;21527.520
781.560;11949.571;   -9.095;22632.658
782.129;11797.905;  -12.135;23048.277
782.698;11869.928;  -10.865;23438.555
783.267;11495.507;   -9.335;23267.734
783.836;11413.653;  -11.045;22415.133
784.404;12379.520;  -13.865;20443.152
784.973;12974.173;  -13.095;19699.150
785.542;12882.133;  -11.575;19763.828
786.111;12658.280;   -9.705;20341.408
786.679;12172.365;  -12.105;20207.967
787.248;11948.690;  -12.455;19516.465
787.817;11796.792;  -11.535;18900.363
788.385;11401.522;   -9.765;17879.121
788.954;10833.005;  -14.005;17658.301
789.522;10313.099;  -11.955;17788.879
790.090;10876.213;  -10.135;18118.277
790.659;11298.894;  -10.975;18338.736
791.227;10799.081;  -13.375;18508.615
791.795;11180.653;  -12.375;17898.254
792.364;11582.331;  -10.725;17295.133
792.932;11946.346;   -9.715;16822.051
793.500;12070.104;  -12.675;17040.148
794.068;12194.104;  -13.495;17179.787
794.636;12297.133;  -10.885;16664.246
795.204;11687.925;  -11.045;16524.545
795.772;11747.849;  -13.175;17274.564
796.340;11305.922;  -12.445;17891.002
796.908;11114.349;   -9.735;17648.561
797.476;11009.148;   -9.815;17064.080
798.044;10583.381;  -13.985;16672.777
798.612; 9786.855;  -13.115;17023.996
799.180; 9414.875;  -10.185;16561.615
799.747; 9375.365;   -9.055;15962.773
800.315; 9119.002;  -12.385;15296.992
800.883; 8786.628;  -15.035;14801.771
801.450; 8797.238;  -10.365;14534.430
802.018; 8851.415;   -9.855;14173.248
802.585; 8977.706;  -11.905;14029.547
803.153; 9006.653;  -11.585;13836.846
803.720; 8819.874;   -9.095;13567.324
804.287; 8390.139;   -9.135;13360.622
804.855; 7979.061;  -11.604;13681.981
805.422; 7848.099;  -11.794;13536.560
805.989; 7845.279;  -10.734;13355.958
806.556; 7957.139;  -10.444;13747.896
807.124; 8150.917;  -12.764;13987.376
807.691; 8133.461;  -12.964;14038.674
808.258; 7965.077;  -11.134;14120.152
808.825; 7708.207;   -9.854;13860.111
809.392; 7788.583;  -10.504;13268.790
809.959; 7292.368;  -13.054;12680.389
810.526; 6842.498;   -8.294;12427.308
811.093; 6898.701;   -8.394;12030.105
811.659; 7564.638;  -12.304;11653.664
812.226; 8093.440;  -13.944;11637.183
812.793; 7822.396;  -10.484;11611.521
813.360; 7210.872;  -10.144;11885.181
813.926; 6908.812;  -11.684;12770.539
814.493; 6683.661;  -13.644;12677.638
815.060; 6279.939;   -9.724;11974.336
815.626; 6263.813;   -9.854;11594.715
816.193; 6658.132;  -13.254;11579.474
816.759; 6686.441;  -13.204;11666.972
817.325; 6758.523;   -9.434;11325.530
817.892; 7127.349;  -10.134;11105.369
818.458; 7542.258;  -13.474;10843.928
819.024; 7183.115;  -11.854;10714.406
819.591; 6875.525;  -10.244;10469.165
820.157; 6648.421;  -10.704;10235.523
820.723; 6136.116;  -12.324;10847.563
821.289; 5836.327;   -9.444;11040.980
821.855; 5769.401;   -8.374;10357.100
822.421; 5798.659;  -10.234; 9978.918
822.987; 5852.583;  -13.294; 9754.177
823.553; 5546.070;  -10.884;10065.755
824.119; 5351.651;   -8.884;10036.294
824.685; 5445.991;   -6.784;10029.192
825.251; 5552.342;  -12.004;10199.230
825.816; 5507.569;  -11.474; 9820.189
826.382; 5269.111;   -9.174; 9297.248
826.948; 5455.642;   -9.214; 9381.347
827.513; 5862.523;  -10.774; 9450.726
828.079; 5717.383;  -11.924; 9472.444
828.645; 5134.148;  -10.543; 9292.643
829.210; 5028.828;  -10.533; 9065.341
829.776; 5039.246;  -10.753; 9132.620
830.341; 4950.238;  -10.173; 9092.878
830.906; 5158.002;  -10.743; 9078.557
831.472; 5537.256;  -11.113; 8534.535
832.037; 5302.742;  -10.603; 8677.874
832.602; 4745.528;  -13.323; 8628.692
833.167; 4472.167;  -10.823; 8879.031
833.733; 4405.048;  -10.113; 9189.790
834.298; 4568.813;  -13.583; 9052.608
834.863; 4676.329;  -12.703; 8895.087
835.428; 4660.367;  -10.523; 8824.266
835.993; 4500.411;   -6.963; 8845.385
836.558; 4324.615;  -10.763; 8888.563
837.123; 4450.981;   -9.903; 8966.582
837.688; 4699.490;   -9.913; 8617.860
838.253; 4968.953;  -10.283; 8590.699
838.817; 5183.483;  -12.963; 8443.797
839.382; 5102.000;  -14.243; 8799.356
839.947; 4788.972;  -10.733; 8810.595
840.511; 4495.999;   -9.383; 8796.394
841.076; 4114.076;  -12.563; 8347.231
841.641; 4161.041;  -12.953; 8224.330
842.205; 4268.854;   -7.043; 8223.349
842.770; 4375.673;   -8.163; 8622.107
843.334; 4536.343;  -12.503; 8410.386
843.898; 4457.614;  -11.693; 8337.465
844.463; 4460.983;  -10.203; 8506.283
845.027; 4232.708;   -9.533; 8280.962
845.591; 4055.584;  -13.443; 8231.141
846.156; 4064.234;  -13.143; 7969.179
846.720; 3958.628;   -9.433; 7768.278
847.284; 3841.194;  -11.033; 7630.957
847.848; 3714.269;  -10.403; 7472.395
848.412; 3621.717;  -11.553; 7437.394
848.976; 3667.748;   -8.393; 7674.592
849.540; 3580.592;   -8.713; 7836.011
850.104; 3698.565;  -12.463; 7913.669
850.668; 4078.675;  -12.973; 7694.508
851.232; 4182.621;  -10.793; 7756.887
851.796; 4005.570;  -10.662; 7926.545
852.359; 3699.686;  -13.082; 7827.844
852.923; 3507.667;  -12.192; 7641.163
853.487; 3296.031;  -11.912; 7342.501
854.050; 3247.097;  -10.892; 7042.820
854.614; 3397.086;  -13.992; 7151.338
855.177; 3535.048;  -11.732; 7105.077
855.741; 3563.350;   -8.962; 6989.675
856.304; 3426.597;   -9.442; 6596.634
856.868; 3362.559;  -14.192; 6356.272
857.431; 3446.535;  -12.702; 6468.571
857.995; 3548.945;   -9.942; 6373.210
858.558; 3547.631;   -9.112; 6324.448
859.121; 3264.460;  -12.932; 6408.327
859.684; 3131.991;  -13.442; 6347.886
860.247; 3241.604;  -10.632; 6321.264
860.810; 3238.651;  -11.272; 6301.903
861.374; 2972.487;   -9.832; 6607.881
861.937; 2704.615;  -11.762; 6408.200
862.500; 2692.980;   -9.722; 6572.639
863.062; 2871.550;  -10.512; 6387.297
863.625; 3046.287;  -11.232; 6190.836
864.188; 3201.215;  -14.112; 5807.254
864.751; 3253.713;  -11.302; 5682.413
865.314; 3132.537;  -10.112; 5547.492
865.876; 2910.614;  -12.182; 5500.150
866.439; 2886.697;  -10.722; 5415.909
867.002; 2833.164;   -9.252; 5501.567
867.564; 2634.298;   -9.572; 5413.946
868.127; 2418.853;  -13.142; 5160.325
868.689; 2319.669;  -12.902; 5133.183
869.252; 2222.126;   -9.732; 5252.382
869.814; 2124.976;   -9.432; 5297.141
870.377; 2130.386;  -11.552; 5390.919
870.939; 2190.851;   -9.052; 5599.898
871.501; 2248.820;  -10.982; 5248.336
872.063; 2253.302;  -12.292; 4854.235
872.626; 2217.852;  -14.912; 4817.074
873.188; 2250.655;  -13.112; 4987.732
873.750; 2219.129;  -13.442; 4868.651
874.312; 2115.072;   -9.402; 4779.330
874.874; 2029.875;  -11.062; 4866.348
875.436; 1937.459;  -13.931; 4718.887
875.998; 1927.557;   -9.561; 4660.005
876.560; 1956.785;  -11.321; 4462.964
877.122; 1906.807;  -12.221; 4145.042
877.683; 1823.227;  -12.191; 4056.481
878.245; 1760.063;  -12.101; 3950.740
878.807; 1801.552;   -8.971; 4058.958
879.369; 1817.629;  -12.071; 3954.677
879.930; 1702.605;  -14.621; 3941.495
880.492; 1644.180;  -10.311; 4067.014
881.053; 1671.885;  -10.901; 3859.633
881.615; 1663.255;  -14.411; 3776.071
882.176; 1620.103;  -13.761; 3734.750
882.738; 1503.200;   -9.181; 3678.489
883.299; 1267.723;  -11.791; 3405.407
883.860; 1003.125;  -13.121; 3351.106
884.422;  816.060;  -11.211; 3394.044
884.983;  734.777;  -10.091; 3166.443
885.544;  728.080;   -8.461; 3189.802
886.105;  739.825;  -12.361; 3160.360
886.666;  755.355;  -14.141; 3093.059
887.227;  762.740;  -11.361; 2941.957
887.788;  747.560;  -11.401; 2974.836
888.349;  724.004;  -13.791; 2721.214
888.910;  742.156;  -13.191; 2696.493
889.471;  762.366;   -9.881; 2560.172
890.032;  757.651;   -9.881; 2558.190
890.593;  746.871;  -10.371; 2567.669
891.153;  729.861;  -13.301; 2460.307
891.714;  689.994;  -11.431; 2372.046
892.275;  660.507;  -11.291; 2309.505
892.835;  629.526;  -11.471; 2382.543
893.396;  586.068;  -11.541; 2295.502
893.956;  536.984;  -11.181; 2162.420
894.517;  503.336;  -11.741; 2125.439
895.077;  498.896;  -11.671; 2086.978
895.638;  501.122;  -11.311; 2126.316
896.198;  473.905;   -9.831; 1838.275
896.758;  433.161;   -8.421; 1892.813
897.319;  404.940;  -12.351; 1792.232
897.879;  391.051;  -13.511; 1762.751
898.439;  367.002;  -12.001; 1661.149
898.999;  343.631;  -10.180; 1781.468
899.559;  336.972;  -12.030; 1703.347
900.119;  333.658;  -15.710; 1537.525
900.679;  329.326;   -8.900; 1638.384
901.239;  313.913;   -8.340; 1527.902
901.799;  304.552;  -13.910; 1456.441
902.359;  299.232;  -13.460; 1357.140
902.919;  292.520;  -11.490; 1331.118
903.479;  280.749;  -12.110; 1317.257
904.038;  259.992;  -11.720; 1262.595
904.598;  245.693;  -13.610; 1152.034
905.158;  241.198;  -11.040; 1240.893
905.717;  235.172;  -10.900; 1233.691
906.277;  225.195;  -15.080; 1217.330
906.836;  215.195;  -13.380; 1222.408
907.396;  206.728;  -10.780; 1193.047
907.955;  199.724;   -8.500; 1182.526
908.515;  192.723;  -12.760; 1099.364
909.074;  186.502;  -11.900; 1092.863
909.633;  178.476;   -8.950; 1069.121
910.192;  172.942;   -8.770; 1196.460
910.752;  167.023;  -12.390; 1029.960
911.311;  162.641;  -13.680; 1009.780
911.870;  160.092;  -12.370;  971.460
912.429;  162.149;  -10.900; 1094.080
912.988;  162.406;  -11.690; 1081.060
913.547;  158.103;  -13.240;  940.380
914.106;  153.774;  -11.990;  999.420
914.665;  149.728;   -9.990;  984.020
915.224;  149.644;  -12.880; 1035.760
915.782;  150.546;  -12.350;  922.560
916.341;  150.701;   -9.110; 1049.840
916.900;  146.186;   -9.270;  925.260
917.458;  144.323;  -13.240;  884.220
918.017;  145.140;  -13.550;  942.600
918.576;  143.554;  -12.320;  904.440
919.134;  142.108;  -11.490;  837.980
919.693;  140.423;  -13.670;  893.060
920.251;  137.848;  -15.470;  876.500
920.809;  136.842;  -11.290;  839.580
921.368;  137.000;  -10.210;  885.360
921.926;  136.204;  -12.140;  842.940
922.484;  135.390;  -13.080;  903.360
923.042;  135.029;  -11.720;  880.340
923.601;  137.298;   -7.480;  998.680
924.159;  135.392;  -11.570;  935.560
924.717;  132.970;  -13.840;  841.080
925.275;  132.583;  -10.640;  903.240
925.833;  131.925;  -11.540;  779.320
926.391;  132.691;  -12.960;  938.380
926.949;  132.004;  -14.130;  857.680
927.506;  131.631;  -11.750;  903.500
928.064;  132.292;  -10.250;  877.580
928.622;  130.585;  -13.030;  880.100
929.180;  130.684;  -13.400;  814.180
929.737;  131.805;  -10.700;  808.540
930.295;  135.571;  -10.070;  928.480
930.853;  136.674;  -11.960;  849.100
931.410;  137.465;  -13.120;  821.120
931.968;  137.775;  -10.770;  940.660
932.525;  136.498;  -10.680;  909.380
933.082;  138.116;  -13.130;  811.440
933.640;  138.191;  -13.210;  925.900
934.197;  137.002;  -11.060;  886.360
934.754;  136.962;   -9.580;  897.780
935.312;  140.011;  -14.000;  863.340
935.869;  144.520;  -10.710; 1012.980
936.426;  144.424;   -9.860;  872.800
936.983;  144.591;   -9.710;  889.020
937.540;  144.669;  -13.990;  838.280
938.097;  142.931;  -14.040;  940.120
938.654;  143.917;  -10.310;  898.860
939.211;  146.203;  -10.560;  952.480
939.768;  149.948;  -13.900;  915.420
940.324;  153.233;  -14.760;  904.200
940.881;  153.565;  -10.370;  878.500
941.438;  154.385;   -8.260; 1021.200
941.995;  150.839;  -12.540;  992.560
942.551;  148.340;  -14.670;  875.620
943.108;  148.656;  -10.450;  937.920
943.664;  150.798;  -10.750;  869.340
944.221;  153.756;  -11.550; 1088.140
944.777;  151.262;  -14.770;  869.680
945.334;  151.557;  -12.820;  884.840
945.890;  153.292;  -10.130;  946.480
946.446;  154.128;  -13.470;  947.020
947.003;  155.920;  -12.120;  964.940
947.559;  157.856;   -9.980; 1063.040
948.115;  156.886;   -9.080; 1026.540
948.671;  154.978;  -10.830;  967.300
949.227;  152.014;  -12.440;  859.560
949.783;  150.191;  -12.910;  858.900
950.339;  152.229;  -10.270;  991.000
950.895;  152.544;  -13.630; 1023.840
951.451;  151.268;  -15.100;  925.280
952.007;  152.211;  -11.330;  998.540
952.563;  152.548;  -10.580;  937.780
953.118;  151.734;  -13.440;  904.940
953.674;  150.849;  -12.710;  935.780
954.230;  151.660;  -10.350;  949.640
954.785;  148.471;   -9.190;  936.640
955.341;  145.521;  -11.200;  998.160
955.897;  143.689;  -16.560;  834.660
956.452;  145.390;  -12.570;  953.840
957.008;  143.996;   -7.970; 1083.640
957.563;  141.121;  -11.940; 1009.540
958.118;  136.216;  -13.450;  877.700
958.674;  136.738;  -12.030;  946.780
959.229;  137.711;   -9.410; 1013.980
959.784;  135.226;  -12.000;  832.400
960.339;  135.192;  -14.780; 1001.280
960.894;  132.646;   -9.860;  963.760
961.449;  128.942;   -9.970;  859.960
962.004;  128.277;  -10.900; 1212.840
962.559;  123.075;  -13.150;  860.140
963.114;  120.736;  -13.740;  742.480
963.669;  120.785;   -9.820;  915.500
964.224;  118.916;  -13.890;  874.340
964.779;  118.398;  -12.600;  828.420
965.334;  119.460;  -10.950; 1017.860
965.888;  118.078;  -11.170;  875.360
966.443;  121.350;  -12.540;  972.380
966.998;  121.137;  -15.780;  819.460
967.552;  119.924;   -9.760;  908.380
968.107;  116.359;   -9.060;  868.300
968.661;  117.371;  -11.950;  922.440
969.216;  117.253;  -12.800;  856.280
969.770;  117.966;  -11.210;  917.200
970.324;  116.188;  -11.610;  923.140
970.879;  113.294;  -11.370;  947.180
971.433;  110.916;  -12.540;  952.720
971.987;  105.290;  -11.320;  895.340
972.541;  102.520;  -10.720;  917.100
973.095;  103.975;   -9.680; 1009.460
973.649;  101.638;  -11.440;  809.480
974.203;  100.279;  -11.210;  829.040
974.757;  100.055;  -10.240;  855.220
975.311;  100.274;  -13.720;  872.600
975.865;   99.518;  -13.770;  881.820
976.419;   97.377;  -11.690;  857.400
976.973;   97.978;   -9.510;  849.620
977.526;   99.935;  -12.620;  949.920
978.080;   98.372;  -12.010;  796.780
978.634;  100.556;  -10.170;  921.320
979.187;   98.025;   -9.020;  905.400
979.741;   95.186;   -9.820; 1018.380
980.294;   90.093;  -14.870;  789.160
980.848;   88.924;  -12.380;  717.220
981.401;   90.319;  -10.350;  816.540
981.955;   92.417;  -13.720;  844.300
982.508;   91.389;  -11.490;  746.340
983.061;   91.951;  -10.000;  915.260
983.615;   86.992;  -11.480;  798.800
984.168;   84.338;  -13.220;  770.080
984.721;   83.144;  -13.960;  880.760
985.274;   83.333;  -10.870;  867.500
985.827;   81.826;   -9.790;  834.220
986.380;   79.247;  -13.120;  721.340
986.933;   78.512;  -12.450;  864.800
987.486;   77.782;  -10.210;  861.920
988.039;   76.343;   -8.430;  863.100
988.591;   74.456;  -10.520;  893.260
989.144;   72.126;  -14.860;  737.260
989.697;   71.535;  -13.080;  758.740
990.250;   71.725;  -10.150;  858.100
990.802;   70.472;  -13.430;  755.860
991.355;   72.004;  -12.750;  974.880
991.907;   69.565;  -12.040;  864.320
992.460;   67.127;  -11.330;  753.760
993.012;   66.539;  -13.610;  749.540
993.565;   65.189;  -13.460;  711.360
994.117;   67.482;   -9.360;  950.780
994.669;   63.651;  -11.300;  701.320
995.221;   61.700;  -13.540;  791.920
995.774;   59.299;  -13.430;  787.580
996.326;   58.781;  -12.520;  740.220
996.878;   57.969;  -10.950;  838.420
997.430;   56.059;  -14.300;  699.860
997.982;   55.242;  -13.760;  750.140
998.534;   55.377;  -11.530;  739.060
999.086;   53.195;  -10.310;  738.220
999.638;   51.932;  -12.530;  661.380
1000.190;   51.044;  -11.840;  699.320
1000.741;   52.060;  -10.260;  742.700
1001.293;   50.736;   -8.860;  686.020
1001.845;   49.288;  -13.700;  676.640
1002.396;   49.741;  -12.100;  743.400
1002.948;   49.380;  -12.760;  737.400
1003.500;   47.209;  -10.380;  723.780
1004.051;   48.169;  -11.900;  907.580
1004.603;   45.517;  -12.250;  791.820
1005.154;   42.313;  -13.210;  608.980
1005.705;   42.061;  -10.950;  723.960
1006.257;   40.775;  -13.880;  707.220
1006.808;   40.202;  -12.840;  685.460
1007.359;   41.269;  -10.570;  763.240
1007.910;   39.695;   -9.620;  646.640
1008.461;   39.340;  -13.630;  732.940
1009.013;   38.169;  -17.200;  588.340
1009.564;   39.198;  -10.200;  793.520
1010.115;   36.961;  -12.570;  597.040
1010.665;   37.136;  -15.150;  602.160
1011.216;   36.922;  -14.480;  667.920
1011.767;   36.090;  -11.340;  697.920
1012.318;   36.539;   -9.780;  736.980
1012.869;   35.951;  -12.380;  679.000
1013.419;   34.662;  -15.560;  603.120
1013.970;   35.256;  -11.010;  666.640
1014.521;   34.811;  -11.610;  620.620
1015.071;   34.398;  -13.450;  670.380
1015.622;   34.703;  -13.870;  635.460
1016.172;   33.590;  -11.610;  596.820
1016.723;   33.159;  -12.120;  614.380
1017.273;   33.676;  -13.620;  604.160
1017.823;   33.614;  -14.140;  650.340
1018.374;   32.896;  -12.800;  611.760
1018.924;   32.255;  -12.340;  716.880
1019.474;   32.302;  -11.410;  718.880
1020.024;   31.798;  -14.770;  657.580
1020.574;   32.828;   -9.780;  726.160
1021.124;   33.078;   -8.560;  673.580
1021.674;   31.091;  -15.190;  559.120
1022.224;   31.851;  -13.530;  708.940
1022.774;   31.957;  -13.280;  668.820
1023.324;   32.288;  -10.690;  753.520
1023.874;   32.615;  -10.240;  875.760
1024.423;   30.379;  -12.540;  613.700
1024.973;   29.897;  -10.010;  610.760
1025.523;   29.780;  -10.550;  620.960
1026.072;   29.003;  -13.560;  606.420
1026.622;   29.830;  -15.120;  675.740
1027.172;   30.704;  -11.260;  715.660
1027.721;   28.995;  -11.410;  601.220
1028.270;   29.247;  -13.530;  663.400
1028.820;   29.681;  -13.680;  638.080
1029.369;   28.321;  -13.520;  612.700
1029.918;   28.346;  -10.980;  649.840
1030.468;   27.711;  -13.530;  564.780
1031.017;   28.957;  -13.170;  634.800
1031.566;   27.690;  -12.200;  608.900
1032.115;   28.004;   -9.960;  694.500
1032.664;   27.013;  -13.210;  596.480
1033.213;   27.856;  -12.500;  735.420
1033.762;   26.913;  -11.910;  635.620
1034.311;   27.439;   -9.640;  677.220
1034.860;   27.519;  -13.310;  691.000
1035.408;   27.475;  -11.830;  722.720
1035.957;   27.668;  -12.000;  719.540
1036.506;   24.926;  -11.690;  530.800
1037.055;   26.751;  -10.990;  844.320
1037.603;   26.265;  -15.120;  664.000
1038.152;   24.584;  -12.450;  534.760
1038.700;   24.909;  -10.560;  585.740
1039.249;   25.224;  -11.080;  681.220
1039.797;   25.178;  -12.540;  633.360
1040.345;   24.777;  -11.920;  705.420
1040.894;   24.729;  -11.410;  625.300
1041.442;   24.124;  -14.320;  632.200
1041.990;   23.989;  -16.240;  559.160
1042.538;   23.322;  -11.680;  536.180
1043.087;   23.518;  -10.760;  570.860
1043.635;   25.396;  -11.850;  670.500
1044.183;   23.711;  -15.480;  586.400
1044.731;   22.688;  -11.770;  576.000
1045.279;   23.088;  -13.090;  674.920
1045.827;   25.055;  -12.440;  892.400
1046.374;   22.204;  -13.840;  515.420
1046.922;   22.057;  -13.220;  590.580
1047.470;   23.876;  -10.230;  691.300
1048.018;   23.071;  -14.590;  647.960
1048.565;   24.007;  -12.050;  708.600
1049.113;   21.734;  -11.650;  557.000
1049.660;   21.427;  -10.510;  629.660
1050.208;   22.502;  -13.310;  675.640
1050.755;   21.618;  -15.900;  606.580
1051.303;   22.085;  -11.430;  686.820
1051.850;   20.782;   -8.480;  635.120
1052.397;   20.122;  -15.010;  473.960
1052.945;   19.879;  -13.960;  617.760
1053.492;   21.856;  -13.150;  741.840
1054.039;   22.186;   -9.630;  720.180
1054.586;   20.079;  -13.680;  557.240
1055.133;   21.842;  -14.570;  693.140
1055.680;   20.757;  -13.820;  646.620
1056.227;   19.351;  -11.730;  542.780
1056.774;   21.022;  -12.480;  794.980
1057.321;   19.606;  -13.930;  523.260
1057.868;   20.164;  -11.690;  651.320
1058.415;   18.796;   -9.520;  651.980
1058.961;   19.643;  -13.160;  678.940
1059.508;   19.595;  -12.920;  643.820
1060.055;   19.787;  -11.920;  581.780
1060.601;   19.406;  -11.500;  624.300
1061.148;   19.166;  -14.330;  616.820
1061.694;   18.104;  -16.870;  592.580
1062.241;   18.969;  -10.330;  596.320
1062.787;   19.562;  -10.620;  663.140
1063.334;   20.504;  -10.110;  808.560
1063.880;   18.504;  -13.400;  668.360
1064.426;   18.308;  -10.680;  706.820
1064.972;   17.836;   -9.920;  601.340
1065.518;   16.454;  -10.980;  566.640
1066.065;   17.812;  -14.890;  624.460
1066.611;   16.924;  -12.870;  598.800
1067.157;   18.568;  -12.950;  641.860
1067.703;   17.761;  -13.540;  668.480
1068.249;   17.214;  -13.540;  605.220
1068.794;   18.198;  -12.600;  626.880
1069.340;   16.245;  -10.620;  578.960
1069.886;   17.173;  -12.830;  590.700
1070.432;   15.772;  -14.870;  541.720
1070.977;   16.383;  -11.980;  601.080
1071.523;   15.781;   -8.200;  573.060
1072.068;   16.709;  -12.330;  582.000
1072.614;   16.741;  -16.370;  527.760
1073.160;   17.697;  -11.100;  687.040
1073.705;   15.851;  -10.480;  572.520
1074.250;   15.585;  -14.520;  559.900
1074.796;   16.284;  -11.460;  655.160
1075.341;   15.972;  -11.950;  664.100
1075.886;   15.801;  -11.460;  594.240
1076.431;   15.388;  -13.770;  649.880
1076.976;   14.908;  -12.680;  639.220
1077.521;   15.080;  -13.170;  583.080
1078.067;   13.574;  -10.860;  579.400
1078.612;   15.188;  -13.920;  661.620
1079.156;   14.704;  -13.880;  601.540
1079.701;   15.667;  -13.120;  693.260
1080.246;   14.418;   -9.940;  696.300
1080.791;   14.864;  -14.740;  625.020
1081.336;   14.724;  -13.750;  659.320
1081.880;   14.229;  -13.400;  649.680
1082.425;   13.690;  -12.220;  573.480
1082.970;   14.066;  -11.610;  717.040
1083.514;   14.072;  -13.580;  597.000
1084.059;   13.195;  -12.810;  586.720
1084.603;   12.978;  -12.320;  565.840
1085.147;   13.778;  -13.190;  645.220
1085.692;   14.182;  -12.480;  716.800
1086.236;   12.786;  -13.020;  503.140
1086.780;   14.359;   -9.190;  751.440
1087.325;   13.741;  -12.480;  654.620
1087.869;   13.242;  -12.450;  610.700
1088.413;   13.482;  -12.240;  705.040
1088.957;   11.684;   -9.020;  543.400
1089.501;   13.969;  -10.320;  766.640
1090.045;   12.976;  -12.720;  726.480
1090.589;   11.180;  -13.690;  569.920
1091.133;   12.248;  -10.020;  673.340
1091.676;   12.213;  -12.330;  591.940
1092.220;   12.080;  -14.970;  600.920
1092.764;   12.472;  -12.430;  706.960
1093.307;   12.235;   -9.800;  673.780
1093.851;   10.657;  -14.970;  556.540
1094.395;   12.218;  -15.310;  683.140
1094.938;   10.824;  -10.370;  632.520
1095.482;   10.709;  -11.050;  559.800
1096.025;   11.903;  -11.840;  710.880
1096.568;   12.706;  -12.840;  779.280
1097.112;    9.600;  -14.700;  508.180
1097.655;   11.155;   -8.720;  603.000
1098.198;    9.932;  -13.610;  600.180
1098.741;   10.263;  -13.350;  612.860
1099.285;   11.181;  -11.230;  657.300
1099.828;    9.468;  -11.840;  439.400
1100.371;   10.561;  -10.840;  608.160
1100.914;   10.639;  -14.190;  682.660
1101.457;   10.247;  -11.240;  679.900
1101.999;    8.774;  -11.270;  584.680
1102.542;    9.504;  -11.480;  641.440
1103.085;    9.513;  -11.750;  658.500
1103.628;   10.329;  -11.400;  762.060
1104.170;    9.750;  -10.490;  588.280
1104.713;    9.760;  -10.600;  646.700
1105.256;    9.304;  -14.360;  557.440
1105.798;    8.157;  -13.210;  499.980
1106.341;    9.738;  -10.270;  728.900
1106.883;    9.107;  -12.200;  521.340
1107.425;    8.830;  -13.110;  668.180
1107.968;    8.723;  -12.840;  612.380
1108.510;    8.836;   -6.480;  684.960
1109.052;    7.929;  -13.940;  612.620
1109.594;    7.678;  -13.690;  554.440
1110.136;    8.894;  -11.880;  643.220
1110.679;    7.887;   -9.500;  633.080
1111.221;    7.840;  -14.160;  604.460
1111.763;    8.158;  -13.980;  559.220
1112.304;    7.660;  -13.880;  547.140
1112.846;    7.642;  -12.210;  666.240
1113.388;   10.883;  -11.390;  942.180
1113.930;    8.039;  -14.540;  694.200
1114.472;    6.989;  -12.640;  606.540
1115.013;    6.388;  -11.620;  551.280
1115.555;    6.227;  -13.640;  587.100
1116.097;    6.164;  -15.380;  579.480
1116.638;    8.087;  -12.640;  684.600
1117.180;    7.027;   -9.850;  667.740
1117.721;    6.925;  -13.690;  568.580
1118.262;    7.480;  -12.680;  677.960
1118.804;    7.043;  -12.530;  637.340
1119.345;    5.581;  -11.690;  578.400
1119.886;    7.317;  -13.380;  704.040
1120.427;    6.449;  -14.070;  589.020
1120.969;    6.247;  -13.500;  597.920
1121.510;    5.295;  -11.480;  563.060
1122.051;    5.520;  -12.830;  723.580
1122.592;    5.764;  -14.290;  655.420
1123.133;    4.852;  -12.400;  547.940
1123.673;    6.022;  -10.130;  706.480
1124.214;    5.803;  -12.930;  612.460
1124.755;    5.886;  -14.380;  639.460
1125.296;    6.329;  -14.000;  627.320
1125.836;    6.287;  -10.070;  691.500
1126.377;    5.115;  -12.640;  599.660
1126.918;    5.417;  -12.960;  614.980
1127.458;    5.282;  -13.350;  622.220
1127.999;    5.629;  -10.750;  656.980
1128.539;    5.529;  -12.350;  694.240
1129.079;    4.110;  -14.860;  632.720
1129.620;    4.857;  -13.840;  558.100
1130.160;    3.903;  -12.330;  539.480
1130.700;    4.462;  -14.530;  640.840
1131.240;    5.556;  -12.530;  643.700
1131.781;    4.301;  -14.450;  619.680
1132.321;    3.564;   -9.790;  599.120
1132.861;    3.200;  -14.860;  564.200
1133.401;    3.140;  -14.290;  593.940
1133.941;    4.543;  -11.750;  626.280
1134.481;    3.041;   -9.920;  597.580
1135.020;    3.783;  -12.290;  609.160
1135.560;    4.560;  -11.650;  674.940
1136.100;    2.817;  -16.270;  501.160
1136.640;    3.368;  -10.890;  510.480
1137.179;    2.829;  -14.180;  537.960
1137.719;    3.362;  -16.250;  605.400
1138.258;    3.321;  -14.230;  587.360
1138.798;    3.558;   -9.090;  663.780
1139.337;    2.713;  -15.130;  482.840
1139.877;    3.340;  -13.680;  642.360
1140.416;    4.704;  -11.320;  878.060
1140.955;    1.692;  -10.860;  535.380
1141.494;    2.814;  -12.920;  669.280
1142.034;    2.134;  -13.930;  583.520
1142.573;    3.896;  -11.440;  646.280
1143.112;    2.415;  -12.000;  553.480
1143.651;    2.394;  -13.670;  536.480
1144.190;    3.650;  -12.730;  691.640
1144.729;    3.088;  -14.560;  607.420
1145.267;    2.565;  -11.830;  584.900
1145.806;    2.309;  -12.230;  637.040
1146.345;    2.137;  -14.130;  635.020
1146.884;    2.199;  -11.590;  622.500
1147.422;    0.921;  -12.550;  533.060
1147.961;    3.044;  -11.180;  708.460
1148.500;    2.937;  -11.510;  669.720
1149.038;    3.041;  -11.640;  632.500
1149.577;    1.949;  -10.130;  698.640
1150.115;    0.545;  -13.970;  452.280
1150.653;    1.519;  -14.520;  607.340
1151.192;    1.743;  -12.810;  552.920
1151.730;    1.795;   -9.100;  652.560
1152.268;    1.112;  -12.220;  589.520
1152.806;    0.901;  -14.140;  571.180
1153.344;    0.220;  -12.350;  577.640
1153.882;    0.846;   -8.980;  600.060
1154.421;   -0.258;  -15.190;  470.620
1154.958;    0.165;  -15.210;  595.240
1155.496;    1.728;  -12.850;  645.280
1156.034;    1.418;   -9.940;  721.880
1156.572;    1.623;  -13.570;  667.060
1157.110;    0.485;  -14.590;  473.940
1157.647;    1.347;  -13.030;  676.960
1158.185;   -0.017;  -12.140;  564.320
1158.723;   -0.934;  -14.390;  509.200
1159.260;    0.622;  -14.090;  701.700
1159.798;    1.019;  -11.920;  658.160
1160.335;    0.324;  -11.110;  631.820

