
Integration time [ms]:   3.276
Averaging Nr. [scans]: 1000
Smoothing Nr. [pixels]: 0
Data measured with spectrometer [name]: 7414430SP
Wave   ;Sample   ;Dark     ;Reference
[nm]   ;[counts] ;[counts] ;[counts] 

288.544;  148.969;    7.793;  793.890
289.143;  152.456;    7.462;  681.602
289.742;  152.913;    8.602;  828.814
290.341;  138.826;    1.321;  789.841
290.940;  128.128;   -0.709;  730.702
291.538;  128.265;    0.881;  881.108
292.137;  128.734;    0.122;  792.581
292.736;  133.651;   -1.929;  975.101
293.335;  129.545;   -8.229;  735.086
293.934;  129.622;   -5.279;  781.677
294.532;  128.536;   -1.369; 1031.958
295.131;  115.160;   -7.641;  834.394
295.730;  114.502;   -8.420;  809.588
296.328;  113.727;   -5.611;  783.442
296.927;  114.552;   -5.781;  779.652
297.525;  116.061;   -6.361;  781.236
298.124;  105.717;  -11.382;  654.009
298.722;  109.534;   -7.641;  761.933
299.321;  107.450;   -6.811;  708.597
299.919;  106.154;   -6.991;  751.918
300.518;  102.952;  -10.362;  689.338
301.116;  103.833;   -9.581;  691.381
301.715;  104.197;   -4.891;  730.222
302.313;  103.616;   -8.801;  704.943
302.911;   98.468;   -8.522;  733.830
303.509;  103.474;   -6.171;  925.627
304.108;  101.407;   -7.311;  760.383
304.706;  101.027;   -8.321;  801.664
305.304;   95.173;  -10.222;  796.707
305.902;  100.647;   -6.021;  784.484
306.500;   95.882;   -4.971;  728.200
307.098;   95.087;   -7.061;  746.560
307.696;   92.821;   -8.801;  780.432
308.294;   92.835;   -6.411;  731.359
308.892;   94.447;   -2.901;  759.769
309.490;   92.246;   -5.041;  712.161
310.088;   89.894;   -5.002;  788.444
310.686;   93.520;   -2.041;  821.749
311.284;   90.464;   -2.351;  766.040
311.882;   88.039;   -4.422;  731.225
312.480;   84.233;   -4.192;  697.167
313.078;   85.281;   -1.172;  808.331
313.675;   86.988;   -2.601;  691.600
314.273;   82.638;   -1.312;  797.837
314.871;   81.640;   -3.942;  589.829
315.468;   78.459;   -2.802;  652.090
316.066;   80.912;   -0.701;  694.427
316.664;   75.358;   -4.362;  656.351
317.261;   78.500;   -2.872;  910.128
317.859;   73.875;   -2.022;  768.735
318.456;   74.614;   -0.531;  830.096
319.054;   71.290;   -3.912;  787.828
319.651;   70.284;   -4.752;  759.928
320.249;   68.000;   -2.602;  810.188
320.846;   66.597;   -0.821;  714.286
321.443;   64.632;   -4.642;  832.135
322.041;   61.598;   -5.002;  812.315
322.638;   58.095;   -3.982;  701.456
323.235;   60.068;   -3.411;  665.683
323.833;   57.679;   -7.361;  740.354
324.430;   52.503;   -8.611;  615.900
325.027;   53.188;   -4.061;  876.855
325.624;   53.294;   -4.031;  644.532
326.221;   51.385;   -7.481;  689.717
326.818;   50.183;   -5.281;  818.332
327.415;   52.827;   -7.460;  748.828
328.012;   52.727;   -5.510;  690.585
328.609;   51.137;   -7.880;  731.389
329.206;   49.702;   -8.331;  778.621
329.803;   48.840;   -5.121;  737.841
330.400;   51.985;   -4.510;  704.260
330.997;   53.052;   -6.441;  817.147
331.594;   51.916;   -8.831;  788.185
332.191;   56.399;   -7.621;  728.722
332.787;   60.367;   -4.591;  844.463
333.384;   58.757;   -7.412;  763.093
333.981;   57.743;   -8.293;  815.687
334.578;   59.903;   -7.052;  708.378
335.174;   62.482;   -3.102;  731.469
335.771;   63.308;   -5.943;  836.456
336.367;   59.229;   -7.393;  710.631
336.964;   62.568;   -4.063;  793.266
337.561;   60.901;   -3.813;  731.112
338.157;   57.379;   -4.654;  911.916
338.754;   54.764;   -7.934;  796.589
339.350;   52.167;   -4.414;  722.493
339.946;   54.846;   -4.664;  773.135
340.543;   47.214;   -6.375;  846.136
341.139;   41.394;   -9.815;  720.836
341.735;   38.554;   -4.526;  772.593
342.332;   37.891;   -4.895;  691.472
342.928;   39.050;   -4.295;  795.394
343.524;   32.461;   -5.476;  761.684
344.120;   28.386;   -5.856;  738.562
344.716;   31.745;   -2.155;  723.717
345.313;   30.223;   -6.275;  795.342
345.909;   24.613;   -8.815;  627.336
346.505;   26.008;   -5.305;  740.247
347.101;   26.414;   -2.674;  827.864
347.697;   27.443;   -4.344;  785.398
348.293;   21.590;   -9.975;  627.244
348.889;   22.242;   -5.774;  745.914
349.485;   21.265;   -5.004;  688.205
350.081;   22.719;   -4.704;  772.592
350.676;   17.824;   -6.635;  691.606
351.272;   21.399;   -4.504;  809.530
351.868;   21.126;   -3.914;  780.497
352.464;   18.973;   -9.044;  723.932
353.059;   15.631;   -8.314;  646.017
353.655;   17.374;   -7.024;  777.063
354.251;   19.156;   -5.343;  759.845
354.846;   15.365;   -8.604;  740.646
355.442;   12.868;   -6.945;  753.071
356.038;   13.926;   -7.564;  751.708
356.633;   14.098;   -5.814;  728.594
357.229;   12.431;   -7.364;  724.757
357.824;   10.471;   -8.024;  703.600
358.420;    9.032;   -9.384;  679.726
359.015;    9.393;   -5.104;  695.357
359.610;   11.709;   -6.854;  763.920
360.206;    5.280;  -10.185;  603.240
360.801;    7.269;   -7.054;  646.503
361.396;    9.544;   -5.034;  725.975
361.992;    5.844;   -8.284;  668.220
362.587;    3.265;   -8.625;  670.160
363.182;    4.628;   -7.674;  689.631
363.777;    5.465;   -5.164;  738.242
364.372;    5.601;   -8.604;  737.314
364.967;    1.279;   -9.055;  680.744
365.563;    5.546;   -6.114;  815.567
366.158;    2.531;   -5.814;  685.161
366.753;    3.667;   -7.854;  649.263
367.348;    1.524;   -7.804;  746.056
367.942;    1.185;   -7.954;  697.298
368.537;    1.005;   -4.984;  754.245
369.132;    1.662;   -8.564;  703.428
369.727;   -3.775;   -8.855;  638.079
370.322;   -2.475;   -6.245;  580.186
370.917;   -2.770;   -6.425;  710.646
371.511;    0.495;   -6.294;  861.834
372.106;   -2.752;   -7.685;  776.964
372.701;   -6.523;   -7.335;  585.988
373.296;   -0.406;   -4.564;  863.135
373.890;   -5.655;  -10.235;  647.840
374.485;   -7.527;   -7.885;  691.199
375.079;   -4.054;   -7.324;  738.685
375.674;   -2.945;   -3.494;  812.970
376.268;   -6.473;   -8.525;  691.759
376.863;  -11.835;  -10.086;  580.327
377.457;   -6.445;   -7.025;  662.490
378.052;   -8.208;   -3.585;  764.884
378.646;   -8.672;   -7.595;  741.167
379.240;  -10.023;   -8.335;  721.176
379.835;   -8.771;   -5.785;  636.978
380.429;  -10.025;   -4.335;  562.557
381.023;   -9.789;   -6.805;  779.205
381.617;  -12.733;   -9.195;  680.106
382.212;   -9.552;   -6.905;  685.303
382.806;   -8.303;   -3.745;  760.690
383.400;  -12.278;   -7.745;  672.281
383.994;  -12.870;   -9.765;  664.870
384.588;   -9.997;   -6.564;  697.701
385.182;   -8.029;   -5.344;  726.624
385.776;   -9.745;   -8.514;  706.875
386.370;  -13.227;   -9.555;  681.968
386.964;  -12.133;   -8.715;  684.155
387.558;   -9.561;   -6.174;  598.360
388.152;  -13.347;   -8.725;  681.959
388.745;  -11.302;   -7.965;  814.707
389.339;   -9.758;   -5.924;  747.642
389.933;   -9.309;   -5.524;  695.370
390.527;   -9.923;   -7.114;  859.029
391.120;  -16.404;  -10.725;  595.318
391.714;  -13.914;   -8.035;  711.633
392.308;  -10.658;   -3.574;  780.253
392.901;  -13.626;   -7.245;  642.460
393.495;  -15.152;   -9.285;  595.414
394.089;  -13.380;   -5.895;  760.452
394.682;  -14.060;   -4.295;  697.188
395.275;  -14.269;   -9.875;  719.927
395.869;  -15.944;   -8.485;  667.314
396.462;  -15.307;   -7.455;  616.609
397.056;  -11.457;   -5.424;  776.621
397.649;  -15.150;   -6.605;  731.575
398.242;  -12.614;   -8.224;  712.645
398.836;  -12.845;   -7.474;  766.408
399.429;  -13.755;   -7.094;  631.041
400.022;  -16.720;   -9.475;  665.902
400.615;  -13.773;   -7.145;  805.609
401.208;  -12.565;   -7.174;  691.451
401.802;  -14.679;   -5.515;  699.329
402.395;  -15.341;   -9.875;  683.502
402.988;  -16.229;   -8.845;  696.627
403.581;  -13.865;   -8.874;  646.878
404.174;  -11.316;   -5.324;  686.568
404.767;  -14.410;   -9.575;  638.583
405.360;  -16.187;  -10.965;  621.445
405.953;  -11.426;   -8.764;  759.034
406.545;  -10.679;   -7.514;  725.342
407.138;  -15.473;  -10.025;  618.350
407.731;  -13.493;  -10.034;  613.303
408.324;   -9.888;   -9.374;  660.554
408.917;  -10.308;   -6.534;  681.864
409.509;  -13.063;   -8.004;  740.396
410.102;  -15.138;   -9.875;  643.948
410.695;   -8.902;   -8.604;  665.758
411.287;   -9.410;   -6.794;  599.821
411.880;  -11.191;   -9.334;  585.421
412.472;  -13.645;  -10.254;  613.092
413.065;  -11.287;   -6.714;  629.408
413.657;   -8.994;   -7.234;  576.678
414.250;   -8.589;  -10.544;  646.681
414.842;  -10.835;   -9.744;  676.353
415.434;   -8.547;   -6.994;  570.463
416.027;   -4.259;   -5.893;  652.196
416.619;   -5.870;   -7.264;  713.400
417.211;   -7.116;  -10.374;  599.352
417.804;   -3.817;   -7.993;  628.499
418.396;   -7.585;   -7.234;  607.643
418.988;   -4.541;   -9.443;  659.238
419.580;   -7.452;  -10.724;  568.276
420.172;   -6.135;  -10.323;  536.196
420.764;   -2.047;   -8.793;  672.482
421.356;   -2.633;  -11.143;  636.898
421.948;   -4.327;   -8.293;  677.661
422.540;    0.889;   -7.893;  680.027
423.132;    0.496;   -7.082;  600.641
423.724;   -2.670;   -8.653;  561.267
424.316;   -0.719;  -10.213;  621.345
424.908;    1.735;   -9.762;  591.517
425.500;    2.792;   -5.572;  647.978
426.092;    3.522;   -8.422;  648.268
426.683;    2.894;   -9.283;  684.836
427.275;    5.455;   -7.852;  641.471
427.867;    7.038;   -5.272;  668.948
428.458;    7.082;   -7.682;  732.344
429.050;    5.717;  -10.612;  680.749
429.642;    7.529;   -9.882;  743.124
430.233;    8.301;   -6.962;  569.356
430.825;    9.420;   -6.842;  724.809
431.416;    7.761;   -9.672;  698.241
432.008;   11.144;   -6.552;  651.723
432.599;   11.297;   -6.891;  656.073
433.190;    9.339;  -10.912;  637.670
433.782;    8.014;  -11.172;  590.395
434.373;   15.201;   -6.061;  884.765
434.964;   13.591;   -8.251;  602.920
435.556;   11.182;   -9.722;  634.537
436.147;   14.734;   -9.082;  758.490
436.738;   13.686;   -8.041;  701.099
437.329;   19.069;   -7.341;  721.723
437.920;   12.200;   -8.162;  666.688
438.511;   12.906;  -11.802;  564.526
439.103;   19.133;  -10.191;  623.998
439.694;   20.834;   -7.601;  681.583
440.285;   21.830;   -8.541;  764.432
440.876;   19.978;   -9.751;  845.738
441.466;   18.903;   -9.401;  575.162
442.057;   24.349;   -7.760;  665.814
442.648;   23.063;   -9.971;  746.255
443.239;   20.456;  -11.001;  620.477
443.830;   25.587;   -7.990;  704.958
444.421;   27.841;   -7.910;  655.474
445.011;   25.003;   -8.131;  693.619
445.602;   23.704;   -7.111;  743.126
446.193;   25.610;  -10.920;  488.117
446.783;   30.480;   -6.500;  640.397
447.374;   25.745;   -8.671;  692.759
447.964;   26.790;  -10.781;  713.770
448.555;   34.418;   -9.650;  822.742
449.145;   31.224;   -8.660;  662.853
449.736;   32.646;   -8.990;  803.179
450.326;   32.404;   -9.500;  713.626
450.917;   36.567;   -8.680;  675.324
451.507;   35.938;   -7.520;  600.661
452.097;   37.203;   -8.590;  746.267
452.688;   37.914;  -11.340;  742.160
453.278;   37.668;  -10.100;  566.840
453.868;   41.563;   -6.019;  793.550
454.458;   40.106;   -9.440;  651.141
455.048;   40.464;  -10.560;  711.783
455.639;   41.598;  -11.799;  567.096
456.229;   45.140;   -6.899;  710.694
456.819;   47.449;   -7.389;  751.158
457.409;   47.051;  -11.119;  773.993
457.999;   49.512;   -9.289;  737.505
458.589;   49.615;   -6.139;  686.606
459.179;   50.317;   -8.729;  717.658
459.769;   47.911;   -9.789;  627.099
460.358;   52.900;  -10.259;  797.262
460.948;   51.885;   -7.299;  689.503
461.538;   54.624;  -10.289;  660.677
462.128;   52.212;  -11.269;  664.934
462.717;   59.002;   -9.368;  710.326
463.307;   61.582;   -7.908;  705.846
463.897;   58.147;   -9.599;  656.942
464.486;   57.093;   -9.769;  837.128
465.076;   61.495;   -8.048;  733.776
465.666;   65.117;   -9.358;  652.900
466.255;   62.919;   -7.919;  785.651
466.845;   61.773;  -11.689;  666.749
467.434;   64.153;   -7.818;  725.873
468.023;   65.705;   -7.678;  658.357
468.613;   63.254;  -10.939;  713.946
469.202;   67.665;  -10.118;  646.507
469.791;   70.375;   -9.108;  737.811
470.381;   73.887;   -6.058;  742.813
470.970;   73.758;  -10.428;  711.099
471.559;   73.024;  -10.268;  733.291
472.148;   75.105;   -8.448;  675.737
472.738;   78.116;   -6.917;  765.466
473.327;   78.342;  -11.978;  637.529
473.916;   78.069;  -11.888;  737.446
474.505;   81.020;   -9.437;  751.703
475.094;   84.804;   -6.747;  806.570
475.683;   84.306;   -9.367;  797.699
476.272;   85.646;  -12.637;  730.632
476.861;   87.722;  -10.027;  706.754
477.449;   94.043;   -8.716;  728.487
478.038;   89.343;   -9.577;  692.513
478.627;   90.626;   -9.718;  714.852
479.216;   96.776;   -8.947;  769.441
479.805;   99.123;   -6.256;  783.375
480.393;   98.463;   -7.937; 1008.945
480.982;   98.716;   -7.717;  874.501
481.571;  103.582;   -9.266;  858.333
482.159;  104.979;   -7.636;  705.386
482.748;  104.823;   -9.667;  821.385
483.336;  109.710;  -10.376;  858.209
483.925;  109.809;   -7.147;  774.373
484.513;  116.767;   -7.996;  758.962
485.102;  113.871;  -10.027;  810.965
485.690;  122.318;  -10.446; 1011.050
486.278;  123.053;   -8.446;  979.329
486.867;  124.391;   -6.356;  809.662
487.455;  126.672;   -9.136;  898.229
488.043;  128.432;  -10.646;  748.361
488.631;  136.347;   -7.456; 1005.079
489.220;  140.981;   -6.636;  908.626
489.808;  141.084;  -11.036;  741.415
490.396;  148.868;  -10.246;  914.645
490.984;  153.886;   -8.556;  830.161
491.572;  164.009;   -5.886;  940.315
492.160;  171.496;   -9.486;  919.081
492.748;  183.813;  -10.976;  884.341
493.336;  207.324;   -8.776; 1019.693
493.924;  234.259;   -5.465;  958.077
494.512;  261.853;   -9.986; 1066.638
495.100;  300.170;  -10.636; 1103.280
495.687;  356.653;  -10.885; 1206.373
496.275;  420.569;   -8.126; 1150.796
496.863;  494.679;  -10.586; 1281.171
497.451;  599.780;  -11.926; 1386.805
498.038;  729.807;  -10.885; 1556.729
498.626;  837.746;   -6.315; 1741.407
499.214;  991.229;   -7.326; 2016.609
499.801; 1189.416;  -11.906; 2220.633
500.389; 1443.770;  -10.466; 2312.494
500.976; 1754.598;   -5.236; 2744.849
501.564; 2195.046;   -8.936; 3148.565
502.151; 2572.412;  -13.176; 3515.999
502.738; 3032.286;  -10.646; 3971.274
503.326; 3431.721;   -9.525; 4403.796
503.913; 3812.619;  -10.856; 5161.749
504.500; 4173.499;  -11.586; 5986.420
505.088; 4616.196;  -10.336; 6381.201
505.675; 5146.453;   -6.355; 6925.547
506.262; 5874.333;   -9.046; 7619.060
506.849; 6580.958;  -10.416; 8733.969
507.436; 7038.875;  -10.305; 9790.121
508.023; 7613.562;   -5.496; 9985.472
508.610; 7861.035;   -7.856;10434.618
509.197; 8493.765;  -10.097;11198.435
509.784; 9860.109;  -10.886;12391.194
510.371;10878.729;   -9.315;13603.713
510.958;11581.878;   -9.936;14426.586
511.545;12352.373;   -9.326;15243.775
512.132;13180.146;  -10.075;15945.876
512.719;13725.598;   -7.796;16340.369
513.305;14638.298;  -10.606;18011.766
513.892;15432.854;  -11.486;19754.971
514.479;16775.682;   -9.126;20967.805
515.066;18231.887;   -6.026;22299.793
515.652;19505.865;   -8.466;22908.660
516.239;20654.098;  -10.886;23798.875
516.825;21573.385;  -11.496;25567.275
517.412;22588.500;   -5.796;28154.959
517.998;23227.533;  -10.506;28344.111
518.585;23290.436;  -10.076;27134.219
519.171;23748.191;   -8.315;27268.576
519.758;25252.416;   -8.596;28964.129
520.344;27045.770;   -8.466;30664.494
520.930;26967.496;  -11.006;32550.605
521.516;28209.627;  -10.495;35422.895
522.103;30464.139;   -5.526;38280.004
522.689;30948.549;   -8.746;37835.117
523.275;30439.584;  -11.376;37288.613
523.861;31721.125;  -11.156;37281.395
524.447;33127.164;   -8.135;37846.949
525.033;32922.547;   -7.896;38321.949
525.619;33085.574;  -12.476;38579.285
526.205;34594.133;   -9.516;40622.875
526.791;36703.531;   -6.926;42258.836
527.377;36844.516;   -8.346;42966.902
527.963;38381.637;   -8.717;42018.949
528.549;36954.117;  -11.016;42476.828
529.135;35579.293;   -8.536;41854.852
529.721;34867.535;   -9.666;41237.711
530.306;34131.684;  -10.066;41259.445
530.892;33926.516;  -11.356;41506.047
531.478;35377.766;   -6.596;43559.613
532.063;38230.379;   -8.836;47695.563
532.649;38720.039;  -10.047;50808.324
533.235;39530.902;   -9.746;51787.500
533.820;40153.086;   -6.566;52145.035
534.406;41481.898;  -10.817;51133.488
534.991;41246.695;   -9.416;49996.805
535.576;39799.293;   -9.036;48882.852
536.162;40247.867;   -6.156;46942.285
536.747;41212.633;  -11.607;45711.746
537.333;44680.340;  -11.787;48510.180
537.918;47667.777;  -12.437;50439.891
538.503;46465.934;   -7.196;50863.711
539.088;43056.316;  -10.556;50906.922
539.673;42767.719;   -8.767;52621.965
540.259;43000.527;  -10.026;52368.094
540.844;40724.266;   -7.416;50879.109
541.429;41904.707;   -9.467;52077.777
542.014;44652.758;   -9.527;52716.695
542.599;43987.617;   -9.946;52363.281
543.184;41760.156;   -7.927;53187.137
543.769;43117.820;   -9.297;54697.605
544.354;42651.828;  -10.127;53913.914
544.938;41539.211;   -9.267;49680.164
545.523;43334.484;   -6.506;47386.277
546.108;45914.871;   -9.787;49151.949
546.693;47910.781;  -11.587;51384.637
547.278;47789.555;  -10.986;51853.254
547.862;44946.223;   -8.206;51173.750
548.447;40655.531;  -10.067;51691.395
549.031;40408.938;   -9.637;52456.703
549.616;45225.621;   -9.926;52714.516
550.201;44511.813;   -6.347;52414.598
550.785;45528.344;   -7.917;52355.059
551.370;44660.426;  -10.867;54589.453
551.954;44418.805;   -9.047;58267.348
552.538;45153.555;   -7.827;59062.176
553.123;43637.758;  -10.287;58115.285
553.707;41637.469;  -12.178;56556.285
554.291;43075.594;   -8.717;56201.668
554.876;45417.281;   -7.457;55335.762
555.460;45646.145;  -10.387;54155.703
556.044;46518.215;   -9.618;53721.484
556.628;45315.547;  -11.567;53731.016
557.212;44227.613;   -8.097;54312.531
557.796;42642.355;  -11.077;53797.773
558.380;42688.484;  -11.108;56145.984
558.964;43167.344;   -9.057;57277.930
559.548;44324.469;   -6.977;56459.641
560.132;42791.762;  -11.457;54434.543
560.716;41395.355;  -11.378;54800.617
561.300;42336.301;   -9.577;57606.945
561.884;43523.176;   -7.127;58972.445
562.467;41954.980;   -7.118;57327.570
563.051;41257.301;  -13.358;54962.434
563.635;42228.723;  -10.178;52594.473
564.219;42640.207;   -7.837;50610.410
564.802;43470.707;  -11.398;49551.180
565.386;43354.336;  -12.788;48370.953
565.969;42691.848;   -9.077;48178.871
566.553;42141.961;   -6.207;49957.305
567.136;42733.574;   -8.568;50369.594
567.720;39154.270;  -11.868;49492.004
568.303;37225.906;   -8.268;50616.352
568.887;37284.109;   -8.698;50727.148
569.470;37539.422;   -6.808;51698.379
570.053;36217.078;  -13.188;52122.078
570.637;34785.512;  -12.037;52536.438
571.220;34664.816;   -8.577;51186.098
571.803;35113.305;   -8.498;51032.762
572.386;37165.781;  -10.498;49609.887
572.969;39608.262;   -9.388;48285.926
573.552;37956.273;   -8.338;47624.285
574.135;36592.328;   -8.518;45498.641
574.718;34192.797;  -13.628;41970.434
575.301;33055.504;  -10.893;41447.137
575.884;31918.213;   -8.158;40923.836
576.467;32711.707;  -10.328;45267.723
577.050;33855.328;  -13.058;48175.543
577.633;34379.773;   -9.458;47729.328
578.216;33743.328;   -8.928;47579.793
578.799;33839.621;   -9.358;47820.996
579.381;33418.480;  -11.388;48115.551
579.964;32081.143;  -11.718;47333.766
580.547;33887.332;   -8.588;46668.969
581.129;35193.219;   -8.859;44466.141
581.712;36113.398;  -10.729;44164.922
582.294;36703.281;  -11.118;46477.855
582.877;36317.207;   -5.218;48244.254
583.459;33954.797;   -8.679;47437.895
584.042;32083.189;  -10.709;46943.219
584.624;32509.475;  -11.669;46792.227
585.206;32034.072;   -8.218;46557.250
585.789;31983.730;  -10.569;45793.773
586.371;34667.914;  -11.859;43836.391
586.953;35163.402;  -10.719;42972.492
587.536;36190.598;   -7.198;42487.211
588.118;35835.039;   -8.720;42086.414
588.700;31589.463;  -10.439;43389.930
589.282;29399.889;   -9.198;43646.039
589.864;28323.025;   -9.199;43438.109
590.446;28352.350;  -11.319;43151.926
591.028;29928.146;  -11.159;42781.867
591.610;31608.322;  -11.779;42839.098
592.192;30669.029;   -7.668;42820.402
592.774;29788.553;  -11.949;40724.277
593.356;28694.867;  -12.129;39874.789
593.937;27698.547;  -10.669;39980.648
594.519;29863.857;   -6.509;42069.633
595.101;31965.207;  -10.849;42976.031
595.683;32164.750;  -11.679;44084.441
596.264;33267.594;   -9.049;43478.797
596.846;32635.750;   -8.849;43803.672
597.427;32525.043;   -9.570;42986.934
598.009;34145.492;  -12.620;42832.219
598.591;34439.922;  -10.039;42580.086
599.172;33615.625;  -10.369;43061.805
599.753;33773.648;   -9.140;41691.469
600.335;35361.848;  -11.430;40692.520
600.916;33567.445;   -9.939;39982.422
601.498;31004.387;   -8.479;40318.617
602.079;29586.963;  -10.920;40670.609
602.660;29557.977;  -11.480;41450.898
603.241;31129.205;  -11.699;41137.738
603.823;29908.045;   -9.579;38868.797
604.404;29380.494;  -10.620;38182.785
604.985;30919.229;  -10.450;38078.047
605.566;30705.330;   -9.129;38056.633
606.147;30930.463;   -7.510;37020.418
606.728;32498.236;  -10.660;37883.359
607.309;31045.221;  -11.740;38748.273
607.890;30555.600;   -9.759;38850.230
608.471;30098.283;   -8.250;37457.918
609.051;29271.326;   -9.240;36066.457
609.632;28235.861;  -12.120;35991.074
610.213;29034.834;   -9.110;37402.641
610.794;29714.258;   -8.030;38383.363
611.374;29267.266;   -8.110;40562.387
611.955;29810.920;  -13.560;38533.727
612.536;31054.494;  -11.400;36951.789
613.116;30901.664;   -8.070;37197.891
613.697;31258.064;  -10.830;38411.125
614.277;29763.855;  -11.641;38673.938
614.858;30656.840;  -13.310;37075.863
615.438;29684.281;   -7.460;35092.906
616.019;26959.723;   -7.601;33666.301
616.599;27650.389;  -12.020;34189.023
617.179;29632.365;  -11.780;36952.047
617.760;30667.623;   -8.570;39582.574
618.340;31665.969;  -11.471;38943.977
618.920;32863.887;  -11.170;37594.156
619.500;32605.732;  -11.071;37866.938
620.080;31639.240;   -7.750;37869.043
620.660;32797.652;  -12.711;36868.617
621.241;34158.773;  -10.211;36352.309
621.821;34486.621;  -10.961;35459.520
622.401;33514.988;   -7.720;35207.414
622.980;32755.328;   -8.981;35980.422
623.560;31280.730;   -9.331;37351.328
624.140;30089.689;   -9.850;34388.582
624.720;24964.541;   -7.451;32368.764
625.300;21524.574;   -9.070;32638.629
625.880;24823.814;  -12.601;34599.035
626.459;28691.205;  -11.751;36831.738
627.039;31772.496;   -9.281;38299.098
627.619;31628.684;   -8.801;38289.574
628.198;30145.496;  -12.071;37220.695
628.778;29355.561;   -9.461;37632.563
629.357;29929.760;   -8.491;38003.012
629.937;29848.416;   -9.721;38402.039
630.516;29470.268;   -9.951;37868.801
631.096;29273.223;  -11.731;35760.410
631.675;31879.834;   -8.572;35225.219
632.254;36907.355;  -11.282;35130.289
632.834;36274.098;  -13.322;35794.570
633.413;34275.715;  -10.301;35788.922
633.992;31434.156;   -8.582;34532.863
634.571;32399.260;   -8.352;33590.113
635.151;35471.645;  -11.912;34943.863
635.730;33715.969;  -10.511;35352.523
636.309;30143.514;   -7.731;35366.605
636.888;27762.027;   -9.952;36165.637
637.467;28517.545;  -11.672;37515.902
638.046;30220.209;   -8.901;39288.695
638.625;33306.965;   -7.912;38279.699
639.204;32944.652;  -10.022;37741.598
639.782;31493.115;  -12.252;38364.551
640.361;27894.355;  -10.041;36740.621
640.940;25060.480;  -11.161;34950.082
641.519;25764.588;   -9.701;34137.398
642.097;28515.582;  -11.271;35654.258
642.676;31215.471;   -8.651;35637.957
643.255;31923.426;   -8.711;36567.074
643.833;31068.762;   -9.581;37809.434
644.412;31031.178;  -13.711;37337.293
644.990;30050.561;  -11.811;37018.531
645.569;30014.053;   -9.411;36518.469
646.147;28988.775;  -10.291;36186.430
646.726;28823.896;  -12.401;36267.688
647.304;30083.010;  -10.411;36647.625
647.882;31837.178;   -9.651;39286.742
648.461;33357.539;   -9.631;39157.703
649.039;31622.914;  -11.881;35412.883
649.617;30949.645;   -9.661;34744.918
650.195;30616.830;   -9.301;35403.098
650.773;29206.277;  -10.511;35053.797
651.352;26715.033;  -11.521;33756.816
651.930;24512.740;  -12.211;31868.773
652.508;23186.781;   -9.171;33121.551
653.086;27043.465;   -9.371;33564.793
653.663;29723.766;  -13.161;34054.668
654.241;28561.756;  -13.031;35693.309
654.819;30293.021;   -9.371;36422.906
655.397;30452.990;  -10.511;38213.484
655.975;30007.813;  -10.371;39507.625
656.553;29753.531;  -10.051;39498.223
657.130;28130.150;  -10.061;40395.480
657.708;27409.096;   -9.561;39242.020
658.286;27477.809;  -11.511;38920.020
658.863;28825.938;  -10.261;40202.898
659.441;31932.619;   -7.531;39677.938
660.018;31454.512;   -9.501;40413.355
660.596;30249.256;  -13.301;39931.414
661.173;32090.707;  -11.211;39604.531
661.750;32058.471;   -9.951;39700.070
662.328;30850.420;   -9.390;39292.809
662.905;30204.094;  -11.330;38235.648
663.482;26052.719;   -9.050;36212.305
664.060;24303.334;   -8.240;35944.945
664.637;27154.906;  -10.050;35170.785
665.214;28906.449;  -11.760;34197.523
665.791;30454.201;  -10.530;34549.520
666.368;29214.814;   -9.690;35118.578
666.945;29795.598;   -9.320;36019.418
667.522;31301.852;  -11.860;36048.438
668.099;31073.379;  -10.770;36243.914
668.676;29921.305;   -6.260;35958.875
669.253;28673.881;   -7.000;37384.730
669.830;29349.531;  -10.190;36779.629
670.407;29007.877;   -9.550;35231.289
670.984;28834.451;   -9.260;35544.270
671.560;29321.658;   -9.280;35466.867
672.137;28709.656;  -11.810;34280.863
672.714;29535.568;  -11.490;34632.863
673.290;29982.928;   -7.740;35135.422
673.867;30335.137;  -10.660;36114.480
674.443;30214.930;  -12.230;36152.859
675.020;28426.025;  -10.450;35327.238
675.596;29488.641;   -9.260;35795.176
676.173;29845.771;  -10.780;35430.355
676.749;29653.229;  -13.690;33549.516
677.326;29792.070;  -11.980;32210.012
677.902;29825.865;   -8.630;32068.871
678.478;29167.377;  -10.730;32583.891
679.054;28593.990;  -10.520;32088.928
679.631;28820.086;  -11.920;30978.848
680.207;30348.996;   -7.490;33160.887
680.783;31896.580;   -9.860;35570.363
681.359;31009.646;  -13.380;36125.184
681.935;30468.787;  -12.480;35240.922
682.511;29755.053;   -7.900;34429.961
683.087;29955.967;   -7.710;34463.680
683.663;29574.232;  -11.480;34648.898
684.239;28290.082;  -14.090;34546.457
684.815;27863.420;   -7.560;35586.375
685.390;28235.953;   -9.910;35821.895
685.966;28682.857;  -11.159;35085.871
686.542;31003.607;  -11.169;34198.230
687.118;33300.246;   -5.959;32847.707
687.693;33654.648;  -10.329;32794.027
688.269;33255.301;  -12.059;33072.367
688.844;31220.137;  -10.909;33141.664
689.420;28978.203;   -8.019;33965.742
689.995;26825.982;   -8.399;34655.523
690.571;25509.523;  -10.949;33576.742
691.146;25950.033;   -9.619;32657.219
691.722;25482.566;   -8.999;32526.979
692.297;25393.143;  -11.589;33014.617
692.872;27274.779;  -11.739;34012.254
693.448;26906.609;  -11.059;34237.434
694.023;26103.709;  -10.139;34142.672
694.598;27972.854;   -9.029;34132.031
695.173;28232.383;  -13.319;34205.250
695.748;27466.514;  -10.169;32882.488
696.323;27563.129;   -8.339;32864.906
696.898;27877.814;   -8.169;33170.004
697.473;27874.754;  -12.309;32432.984
698.048;27397.576;  -10.989;31649.303
698.623;27285.908;   -9.329;30778.141
699.198;29221.252;   -9.849;31140.119
699.773;30172.279;  -12.329;31764.299
700.348;28497.025;  -10.389;31780.816
700.922;28526.863;   -9.269;32046.375
701.497;29410.154;   -9.329;32603.574
702.072;29614.564;  -10.789;34799.871
702.646;28211.977;  -10.839;35793.172
703.221;26179.666;   -9.099;35201.590
703.795;28267.787;  -10.939;34764.527
704.370;28648.943;  -12.859;34307.367
704.944;29141.229;  -11.559;33509.887
705.519;30018.537;   -7.939;31388.584
706.093;31414.092;  -10.499;31340.104
706.668;31673.818;  -11.289;32630.281
707.242;30524.887;  -11.509;32728.779
707.816;28952.533;   -9.639;32947.238
708.390;27454.127;  -11.429;33277.855
708.965;27962.732;  -11.869;33834.336
709.539;28042.168;  -11.689;33709.273
710.113;28473.104;  -10.478;33044.313
710.687;27936.047;  -10.228;31953.992
711.261;26284.648;  -13.698;30505.949
711.835;26072.615;  -13.378;30262.369
712.409;26898.836;   -9.698;31254.447
712.983;28916.408;  -11.898;32754.986
713.557;29825.148;  -15.138;34018.824
714.131;29426.488;  -14.098;34579.625
714.704;28487.234;   -9.958;33890.262
715.278;26252.584;  -10.028;33531.102
715.852;25176.063;  -11.148;33601.660
716.425;25944.100;   -9.068;33515.117
716.999;26730.473;  -10.038;33185.555
717.573;27797.461;   -9.798;33905.996
718.146;28837.850;  -12.378;35199.293
718.720;28941.789;  -11.918;35060.551
719.293;28374.578;   -8.088;34973.230
719.867;31205.318;  -10.888;36394.449
720.440;30902.072;  -11.938;36663.008
721.013;29231.227;  -12.818;35102.426
721.587;27802.119;  -10.298;33985.266
722.160;26736.164;  -10.048;33524.965
722.733;25675.137;  -12.108;32987.043
723.306;25945.918;  -10.818;33066.301
723.880;28426.059;   -8.908;33399.500
724.453;30480.955;   -9.878;33468.297
725.026;29526.795;  -11.188;33816.637
725.599;26752.104;  -11.678;32797.996
726.172;27086.094;   -9.618;33187.434
726.745;28132.082;   -8.258;35136.613
727.318;29458.854;  -12.978;35751.730
727.891;30025.170;  -12.148;35890.430
728.463;29745.213;   -8.968;34822.090
729.036;28765.400;  -10.188;32895.086
729.609;29203.875;  -11.788;31823.225
730.182;26072.305;  -11.788;31445.283
730.754;23571.379;  -10.268;32373.223
731.327;23672.523;   -9.998;33676.820
731.900;23981.672;  -12.228;33417.000
732.472;25338.313;  -13.848;31978.498
733.045;27255.865;   -8.698;30368.777
733.617;27307.314;  -10.607;30574.215
734.190;26930.107;  -11.507;31280.975
734.762;23998.369;  -13.647;31674.412
735.334;22249.219;   -9.767;31247.291
735.907;22925.797;   -9.897;29876.211
736.479;23052.404;  -11.637;29808.488
737.051;22801.291;   -9.567;30233.547
737.623;23789.105;   -8.187;31469.086
738.195;24527.697;  -11.187;31784.225
738.768;26337.523;  -12.337;32120.523
739.340;26573.668;  -12.227;32094.342
739.912;25437.916;  -11.057;31312.680
740.484;24038.365;  -10.207;31946.238
741.056;22943.258;  -10.047;32984.059
741.628;24703.945;  -13.627;33897.715
742.199;26902.066;   -7.177;33213.016
742.771;25205.088;  -10.797;31369.113
743.343;22820.289;  -11.997;31865.473
743.915;21835.375;  -12.867;32388.631
744.487;21983.244;   -7.617;31079.568
745.058;22244.859;   -9.557;30570.107
745.630;22617.684;   -9.877;29970.127
746.201;23387.348;  -14.177;29186.766
746.773;23904.043;   -9.237;28805.723
747.344;23793.686;   -9.847;29591.223
747.916;22443.189;  -11.657;31412.201
748.487;22723.658;  -10.587;32194.898
749.059;23866.879;   -8.707;32533.719
749.630;24470.438;  -10.537;32158.518
750.201;23456.990;  -11.687;30855.395
750.773;21704.873;  -11.647;28622.555
751.344;21662.543;   -7.147;28405.732
751.915;22975.010;   -9.757;28461.551
752.486;22929.283;  -12.427;27842.850
753.057;20645.828;  -12.227;27845.008
753.628;19402.584;  -10.417;27728.107
754.199;20522.330;  -11.767;27381.086
754.770;21523.777;  -11.187;25882.203
755.341;21495.492;  -10.507;25886.184
755.912;21509.092;   -9.387;26050.861
756.483;21043.607;  -10.647;26798.779
757.054;19310.734;  -11.837;27048.238
757.625;18036.385;  -12.716;26294.838
758.195;17701.428;   -9.666;26142.076
758.766;17390.750;   -8.656;26392.234
759.337;18202.930;  -12.856;26334.594
759.907;19926.764;  -13.366;27579.652
760.478;20851.324;   -8.576;28352.770
761.048;20187.621;  -10.526;27325.088
761.619;19337.273;  -11.116;26460.428
762.189;19381.391;  -12.136;26029.826
762.760;20466.346;   -9.456;26430.145
763.330;21557.354;   -7.136;26670.902
763.900;20974.955;  -11.786;26603.021
764.471;18376.258;  -11.546;25542.740
765.041;17082.652;   -8.096;24358.459
765.611;17172.154;   -8.876;23991.297
766.181;17603.006;  -12.196;24470.236
766.751;18549.961;  -11.636;24845.975
767.321;18275.941;  -10.156;24533.633
767.891;16397.803;  -11.766;24916.492
768.461;15892.647;  -14.936;24776.771
769.031;16401.014;  -12.356;24757.988
769.601;17925.869;   -7.526;24181.088
770.171;17767.211;  -10.766;23670.387
770.741;17059.262;  -13.176;22960.045
771.311;17215.148;  -10.616;22917.523
771.880;17523.773;   -9.576;23562.941
772.450;17144.648;  -10.336;24216.500
773.020;17073.049;  -13.516;24140.398
773.589;16346.969;  -13.466;24414.857
774.159;15699.968;   -8.686;23858.717
774.729;15418.342;   -9.476;22942.135
775.298;15011.778;  -13.666;22324.033
775.867;14625.943;  -11.716;21140.313
776.437;14657.429;   -9.906;20838.092
777.006;14473.066;  -12.166;20599.510
777.576;14362.523;  -12.356;20508.809
778.145;14475.004;  -11.646;20732.947
778.714;14342.083;   -8.226;21062.465
779.283;13601.729;   -9.556;20949.664
779.853;13113.550;  -14.116;20508.623
780.422;13597.978;  -11.506;20649.082
780.991;13160.316;   -9.556;21527.520
781.560;12023.659;   -9.095;22632.658
782.129;11880.480;  -12.135;23048.277
782.698;11921.880;  -10.865;23438.555
783.267;11515.132;   -9.335;23267.734
783.836;11455.626;  -11.045;22415.133
784.404;12424.147;  -13.865;20443.152
784.973;12995.276;  -13.095;19699.150
785.542;12916.626;  -11.575;19763.828
786.111;12739.157;   -9.705;20341.408
786.679;12231.307;  -12.105;20207.967
787.248;11969.653;  -12.455;19516.465
787.817;11782.677;  -11.535;18900.363
788.385;11366.527;   -9.765;17879.121
788.954;10791.347;  -14.005;17658.301
789.522;10286.443;  -11.955;17788.879
790.090;10862.401;  -10.135;18118.277
790.659;11267.960;  -10.975;18338.736
791.227;10777.432;  -13.375;18508.615
791.795;11208.993;  -12.375;17898.254
792.364;11574.927;  -10.725;17295.133
792.932;11860.068;   -9.715;16822.051
793.500;11997.276;  -12.675;17040.148
794.068;12188.898;  -13.495;17179.787
794.636;12288.093;  -10.885;16664.246
795.204;11696.638;  -11.045;16524.545
795.772;11736.909;  -13.175;17274.564
796.340;11280.899;  -12.445;17891.002
796.908;11131.987;   -9.735;17648.561
797.476;11052.757;   -9.815;17064.080
798.044;10621.595;  -13.985;16672.777
798.612; 9799.451;  -13.115;17023.996
799.180; 9413.807;  -10.185;16561.615
799.747; 9359.639;   -9.055;15962.773
800.315; 9091.211;  -12.385;15296.992
800.883; 8754.216;  -15.035;14801.771
801.450; 8757.710;  -10.365;14534.430
802.018; 8808.270;   -9.855;14173.248
802.585; 8929.871;  -11.905;14029.547
803.153; 8964.354;  -11.585;13836.846
803.720; 8799.376;   -9.095;13567.324
804.287; 8380.992;   -9.135;13360.622
804.855; 7990.327;  -11.604;13681.981
805.422; 7865.147;  -11.794;13536.560
805.989; 7867.592;  -10.734;13355.958
806.556; 8025.153;  -10.444;13747.896
807.124; 8257.993;  -12.764;13987.376
807.691; 8226.813;  -12.964;14038.674
808.258; 8039.487;  -11.134;14120.152
808.825; 7746.982;   -9.854;13860.111
809.392; 7808.250;  -10.504;13268.790
809.959; 7320.498;  -13.054;12680.389
810.526; 6903.926;   -8.294;12427.308
811.093; 6976.611;   -8.394;12030.105
811.659; 7610.813;  -12.304;11653.664
812.226; 8114.608;  -13.944;11637.183
812.793; 7819.292;  -10.484;11611.521
813.360; 7201.029;  -10.144;11885.181
813.926; 6877.625;  -11.684;12770.539
814.493; 6629.283;  -13.644;12677.638
815.060; 6210.494;   -9.724;11974.336
815.626; 6224.902;   -9.854;11594.715
816.193; 6642.861;  -13.254;11579.474
816.759; 6682.108;  -13.204;11666.972
817.325; 6801.976;   -9.434;11325.530
817.892; 7225.416;  -10.134;11105.369
818.458; 7653.852;  -13.474;10843.928
819.024; 7266.997;  -11.854;10714.406
819.591; 6964.481;  -10.244;10469.165
820.157; 6741.788;  -10.704;10235.523
820.723; 6222.857;  -12.324;10847.563
821.289; 5923.567;   -9.444;11040.980
821.855; 5834.365;   -8.374;10357.100
822.421; 5829.447;  -10.234; 9978.918
822.987; 5866.223;  -13.294; 9754.177
823.553; 5573.163;  -10.884;10065.755
824.119; 5398.529;   -8.884;10036.294
824.685; 5489.500;   -6.784;10029.192
825.251; 5593.432;  -12.004;10199.230
825.816; 5563.191;  -11.474; 9820.189
826.382; 5340.695;   -9.174; 9297.248
826.948; 5554.709;   -9.214; 9381.347
827.513; 5942.173;  -10.774; 9450.726
828.079; 5749.538;  -11.924; 9472.444
828.645; 5174.255;  -10.543; 9292.643
829.210; 5099.469;  -10.533; 9065.341
829.776; 5097.816;  -10.753; 9132.620
830.341; 4998.080;  -10.173; 9092.878
830.906; 5208.702;  -10.743; 9078.557
831.472; 5578.749;  -11.113; 8534.535
832.037; 5313.261;  -10.603; 8677.874
832.602; 4747.733;  -13.323; 8628.692
833.167; 4476.177;  -10.823; 8879.031
833.733; 4418.481;  -10.113; 9189.790
834.298; 4573.885;  -13.583; 9052.608
834.863; 4656.509;  -12.703; 8895.087
835.428; 4640.362;  -10.523; 8824.266
835.993; 4497.720;   -6.963; 8845.385
836.558; 4330.410;  -10.763; 8888.563
837.123; 4466.986;   -9.903; 8966.582
837.688; 4712.398;   -9.913; 8617.860
838.253; 4972.307;  -10.283; 8590.699
838.817; 5192.083;  -12.963; 8443.797
839.382; 5110.971;  -14.243; 8799.356
839.947; 4802.817;  -10.733; 8810.595
840.511; 4505.548;   -9.383; 8796.394
841.076; 4119.944;  -12.563; 8347.231
841.641; 4174.202;  -12.953; 8224.330
842.205; 4260.825;   -7.043; 8223.349
842.770; 4355.732;   -8.163; 8622.107
843.334; 4511.517;  -12.503; 8410.386
843.898; 4423.151;  -11.693; 8337.465
844.463; 4424.434;  -10.203; 8506.283
845.027; 4200.627;   -9.533; 8280.962
845.591; 4034.441;  -13.443; 8231.141
846.156; 4034.605;  -13.143; 7969.179
846.720; 3934.083;   -9.433; 7768.278
847.284; 3813.300;  -11.033; 7630.957
847.848; 3675.775;  -10.403; 7472.395
848.412; 3578.308;  -11.553; 7437.394
848.976; 3624.928;   -8.393; 7674.592
849.540; 3555.782;   -8.713; 7836.011
850.104; 3677.894;  -12.463; 7913.669
850.668; 4043.637;  -12.973; 7694.508
851.232; 4134.752;  -10.793; 7756.887
851.796; 3964.490;  -10.662; 7926.545
852.359; 3666.805;  -13.082; 7827.844
852.923; 3484.760;  -12.192; 7641.163
853.487; 3286.605;  -11.912; 7342.501
854.050; 3232.685;  -10.892; 7042.820
854.614; 3373.180;  -13.992; 7151.338
855.177; 3504.149;  -11.732; 7105.077
855.741; 3525.994;   -8.962; 6989.675
856.304; 3391.482;   -9.442; 6596.634
856.868; 3334.822;  -14.192; 6356.272
857.431; 3420.122;  -12.702; 6468.571
857.995; 3520.088;   -9.942; 6373.210
858.558; 3514.290;   -9.112; 6324.448
859.121; 3235.654;  -12.932; 6408.327
859.684; 3112.408;  -13.442; 6347.886
860.247; 3222.981;  -10.632; 6321.264
860.810; 3217.834;  -11.272; 6301.903
861.374; 2951.818;   -9.832; 6607.881
861.937; 2686.583;  -11.762; 6408.200
862.500; 2674.614;   -9.722; 6572.639
863.062; 2858.878;  -10.512; 6387.297
863.625; 3033.131;  -11.232; 6190.836
864.188; 3185.408;  -14.112; 5807.254
864.751; 3236.512;  -11.302; 5682.413
865.314; 3111.058;  -10.112; 5547.492
865.876; 2892.438;  -12.182; 5500.150
866.439; 2874.519;  -10.722; 5415.909
867.002; 2818.687;   -9.252; 5501.567
867.564; 2615.364;   -9.572; 5413.946
868.127; 2398.863;  -13.142; 5160.325
868.689; 2300.253;  -12.902; 5133.183
869.252; 2197.218;   -9.732; 5252.382
869.814; 2100.700;   -9.432; 5297.141
870.377; 2106.270;  -11.552; 5390.919
870.939; 2166.274;   -9.052; 5599.898
871.501; 2220.437;  -10.982; 5248.336
872.063; 2223.407;  -12.292; 4854.235
872.626; 2185.149;  -14.912; 4817.074
873.188; 2217.916;  -13.112; 4987.732
873.750; 2183.741;  -13.442; 4868.651
874.312; 2081.185;   -9.402; 4779.330
874.874; 1992.557;  -11.062; 4866.348
875.436; 1901.304;  -13.931; 4718.887
875.998; 1893.556;   -9.561; 4660.005
876.560; 1918.230;  -11.321; 4462.964
877.122; 1861.743;  -12.221; 4145.042
877.683; 1772.982;  -12.191; 4056.481
878.245; 1706.561;  -12.101; 3950.740
878.807; 1750.699;   -8.971; 4058.958
879.369; 1774.739;  -12.071; 3954.677
879.930; 1673.519;  -14.621; 3941.495
880.492; 1609.275;  -10.311; 4067.014
881.053; 1571.796;  -10.901; 3859.633
881.615; 1470.694;  -14.411; 3776.071
882.176; 1375.284;  -13.761; 3734.750
882.738; 1328.386;   -9.181; 3678.489
883.299; 1305.043;  -11.791; 3405.407
883.860; 1309.353;  -13.121; 3351.106
884.422; 1310.483;  -11.211; 3394.044
884.983; 1265.195;  -10.091; 3166.443
885.544; 1189.232;   -8.461; 3189.802
886.105; 1107.253;  -12.361; 3160.360
886.666; 1042.267;  -14.141; 3093.059
887.227;  986.639;  -11.361; 2941.957
887.788;  924.519;  -11.401; 2974.836
888.349;  868.056;  -13.791; 2721.214
888.910;  866.360;  -13.191; 2696.493
889.471;  873.689;   -9.881; 2560.172
890.032;  855.174;   -9.881; 2558.190
890.593;  836.533;  -10.371; 2567.669
891.153;  809.269;  -13.301; 2460.307
891.714;  758.422;  -11.431; 2372.046
892.275;  718.021;  -11.291; 2309.505
892.835;  677.848;  -11.471; 2382.543
893.396;  626.565;  -11.541; 2295.502
893.956;  569.271;  -11.181; 2162.420
894.517;  532.266;  -11.741; 2125.439
895.077;  526.639;  -11.671; 2086.978
895.638;  527.097;  -11.311; 2126.316
896.198;  497.147;   -9.831; 1838.275
896.758;  454.334;   -8.421; 1892.813
897.319;  422.731;  -12.351; 1792.232
897.879;  405.823;  -13.511; 1762.751
898.439;  380.276;  -12.001; 1661.149
898.999;  356.226;  -10.180; 1781.468
899.559;  348.818;  -12.030; 1703.347
900.119;  343.799;  -15.710; 1537.525
900.679;  338.226;   -8.900; 1638.384
901.239;  324.827;   -8.340; 1527.902
901.799;  314.726;  -13.910; 1456.441
902.359;  307.508;  -13.460; 1357.140
902.919;  299.972;  -11.490; 1331.118
903.479;  287.397;  -12.110; 1317.257
904.038;  266.646;  -11.720; 1262.595
904.598;  250.756;  -13.610; 1152.034
905.158;  245.676;  -11.040; 1240.893
905.717;  238.486;  -10.900; 1233.691
906.277;  228.057;  -15.080; 1217.330
906.836;  216.910;  -13.380; 1222.408
907.396;  207.740;  -10.780; 1193.047
907.955;  201.074;   -8.500; 1182.526
908.515;  195.806;  -12.760; 1099.364
909.074;  189.422;  -11.900; 1092.863
909.633;  182.946;   -8.950; 1069.121
910.192;  179.062;   -8.770; 1196.460
910.752;  174.611;  -12.390; 1029.960
911.311;  169.765;  -13.680; 1009.780
911.870;  166.124;  -12.370;  971.460
912.429;  166.977;  -10.900; 1094.080
912.988;  167.347;  -11.690; 1081.060
913.547;  161.495;  -13.240;  940.380
914.106;  156.448;  -11.990;  999.420
914.665;  153.577;   -9.990;  984.020
915.224;  153.106;  -12.880; 1035.760
915.782;  152.754;  -12.350;  922.560
916.341;  151.804;   -9.110; 1049.840
916.900;  148.229;   -9.270;  925.260
917.458;  146.969;  -13.240;  884.220
918.017;  145.799;  -13.550;  942.600
918.576;  144.933;  -12.320;  904.440
919.134;  143.185;  -11.490;  837.980
919.693;  142.012;  -13.670;  893.060
920.251;  139.930;  -15.470;  876.500
920.809;  138.200;  -11.290;  839.580
921.368;  138.781;  -10.210;  885.360
921.926;  136.732;  -12.140;  842.940
922.484;  136.285;  -13.080;  903.360
923.042;  135.577;  -11.720;  880.340
923.601;  138.395;   -7.480;  998.680
924.159;  137.377;  -11.570;  935.560
924.717;  133.605;  -13.840;  841.080
925.275;  132.825;  -10.640;  903.240
925.833;  133.558;  -11.540;  779.320
926.391;  134.854;  -12.960;  938.380
926.949;  132.663;  -14.130;  857.680
927.506;  132.344;  -11.750;  903.500
928.064;  133.293;  -10.250;  877.580
928.622;  133.596;  -13.030;  880.100
929.180;  132.358;  -13.400;  814.180
929.737;  133.756;  -10.700;  808.540
930.295;  137.084;  -10.070;  928.480
930.853;  138.919;  -11.960;  849.100
931.410;  139.553;  -13.120;  821.120
931.968;  138.314;  -10.770;  940.660
932.525;  137.964;  -10.680;  909.380
933.082;  139.728;  -13.130;  811.440
933.640;  140.424;  -13.210;  925.900
934.197;  137.769;  -11.060;  886.360
934.754;  139.088;   -9.580;  897.780
935.312;  142.819;  -14.000;  863.340
935.869;  146.254;  -10.710; 1012.980
936.426;  146.211;   -9.860;  872.800
936.983;  147.517;   -9.710;  889.020
937.540;  148.033;  -13.990;  838.280
938.097;  145.684;  -14.040;  940.120
938.654;  145.982;  -10.310;  898.860
939.211;  148.531;  -10.560;  952.480
939.768;  152.873;  -13.900;  915.420
940.324;  155.886;  -14.760;  904.200
940.881;  156.362;  -10.370;  878.500
941.438;  157.501;   -8.260; 1021.200
941.995;  154.434;  -12.540;  992.560
942.551;  151.197;  -14.670;  875.620
943.108;  151.228;  -10.450;  937.920
943.664;  154.620;  -10.750;  869.340
944.221;  158.359;  -11.550; 1088.140
944.777;  155.524;  -14.770;  869.680
945.334;  155.434;  -12.820;  884.840
945.890;  157.285;  -10.130;  946.480
946.446;  158.324;  -13.470;  947.020
947.003;  159.667;  -12.120;  964.940
947.559;  161.642;   -9.980; 1063.040
948.115;  161.410;   -9.080; 1026.540
948.671;  161.478;  -10.830;  967.300
949.227;  157.777;  -12.440;  859.560
949.783;  153.942;  -12.910;  858.900
950.339;  156.556;  -10.270;  991.000
950.895;  157.166;  -13.630; 1023.840
951.451;  155.989;  -15.100;  925.280
952.007;  156.720;  -11.330;  998.540
952.563;  157.483;  -10.580;  937.780
953.118;  157.272;  -13.440;  904.940
953.674;  155.623;  -12.710;  935.780
954.230;  155.565;  -10.350;  949.640
954.785;  153.266;   -9.190;  936.640
955.341;  151.650;  -11.200;  998.160
955.897;  149.275;  -16.560;  834.660
956.452;  149.947;  -12.570;  953.840
957.008;  149.123;   -7.970; 1083.640
957.563;  147.369;  -11.940; 1009.540
958.118;  142.041;  -13.450;  877.700
958.674;  142.599;  -12.030;  946.780
959.229;  143.254;   -9.410; 1013.980
959.784;  143.158;  -12.000;  832.400
960.339;  141.587;  -14.780; 1001.280
960.894;  137.908;   -9.860;  963.760
961.449;  134.384;   -9.970;  859.960
962.004;  135.601;  -10.900; 1212.840
962.559;  129.443;  -13.150;  860.140
963.114;  126.954;  -13.740;  742.480
963.669;  126.114;   -9.820;  915.500
964.224;  126.297;  -13.890;  874.340
964.779;  124.610;  -12.600;  828.420
965.334;  125.256;  -10.950; 1017.860
965.888;  125.020;  -11.170;  875.360
966.443;  129.235;  -12.540;  972.380
966.998;  127.919;  -15.780;  819.460
967.552;  125.962;   -9.760;  908.380
968.107;  122.263;   -9.060;  868.300
968.661;  124.822;  -11.950;  922.440
969.216;  126.782;  -12.800;  856.280
969.770;  129.297;  -11.210;  917.200
970.324;  129.651;  -11.610;  923.140
970.879;  124.763;  -11.370;  947.180
971.433;  115.890;  -12.540;  952.720
971.987;  104.138;  -11.320;  895.340
972.541;   94.493;  -10.720;  917.100
973.095;   88.321;   -9.680; 1009.460
973.649;   82.747;  -11.440;  809.480
974.203;   81.927;  -11.210;  829.040
974.757;   83.746;  -10.240;  855.220
975.311;   87.205;  -13.720;  872.600
975.865;   87.928;  -13.770;  881.820
976.419;   87.815;  -11.690;  857.400
976.973;   89.211;   -9.510;  849.620
977.526;   92.601;  -12.620;  949.920
978.080;   91.428;  -12.010;  796.780
978.634;   93.130;  -10.170;  921.320
979.187;   91.244;   -9.020;  905.400
979.741;   90.395;   -9.820; 1018.380
980.294;   86.369;  -14.870;  789.160
980.848;   83.468;  -12.380;  717.220
981.401;   86.725;  -10.350;  816.540
981.955;   89.105;  -13.720;  844.300
982.508;   88.424;  -11.490;  746.340
983.061;   88.120;  -10.000;  915.260
983.615;   84.984;  -11.480;  798.800
984.168;   82.238;  -13.220;  770.080
984.721;   81.291;  -13.960;  880.760
985.274;   80.650;  -10.870;  867.500
985.827;   80.156;   -9.790;  834.220
986.380;   78.319;  -13.120;  721.340
986.933;   77.578;  -12.450;  864.800
987.486;   75.979;  -10.210;  861.920
988.039;   75.108;   -8.430;  863.100
988.591;   74.154;  -10.520;  893.260
989.144;   70.949;  -14.860;  737.260
989.697;   70.308;  -13.080;  758.740
990.250;   71.340;  -10.150;  858.100
990.802;   71.610;  -13.430;  755.860
991.355;   71.528;  -12.750;  974.880
991.907;   68.924;  -12.040;  864.320
992.460;   66.320;  -11.330;  753.760
993.012;   66.879;  -13.610;  749.540
993.565;   65.557;  -13.460;  711.360
994.117;   66.335;   -9.360;  950.780
994.669;   63.573;  -11.300;  701.320
995.221;   61.742;  -13.540;  791.920
995.774;   60.126;  -13.430;  787.580
996.326;   58.153;  -12.520;  740.220
996.878;   58.414;  -10.950;  838.420
997.430;   57.263;  -14.300;  699.860
997.982;   56.295;  -13.760;  750.140
998.534;   55.153;  -11.530;  739.060
999.086;   53.143;  -10.310;  738.220
999.638;   51.632;  -12.530;  661.380
1000.190;   49.494;  -11.840;  699.320
1000.741;   48.191;  -10.260;  742.700
1001.293;   47.987;   -8.860;  686.020
1001.845;   47.665;  -13.700;  676.640
1002.396;   48.079;  -12.100;  743.400
1002.948;   47.384;  -12.760;  737.400
1003.500;   46.285;  -10.380;  723.780
1004.051;   47.795;  -11.900;  907.580
1004.603;   45.245;  -12.250;  791.820
1005.154;   41.862;  -13.210;  608.980
1005.705;   41.016;  -10.950;  723.960
1006.257;   41.408;  -13.880;  707.220
1006.808;   40.409;  -12.840;  685.460
1007.359;   39.570;  -10.570;  763.240
1007.910;   38.780;   -9.620;  646.640
1008.461;   39.879;  -13.630;  732.940
1009.013;   38.363;  -17.200;  588.340
1009.564;   38.340;  -10.200;  793.520
1010.115;   36.383;  -12.570;  597.040
1010.665;   37.678;  -15.150;  602.160
1011.216;   36.833;  -14.480;  667.920
1011.767;   36.254;  -11.340;  697.920
1012.318;   36.418;   -9.780;  736.980
1012.869;   35.925;  -12.380;  679.000
1013.419;   35.262;  -15.560;  603.120
1013.970;   34.754;  -11.010;  666.640
1014.521;   33.953;  -11.610;  620.620
1015.071;   35.066;  -13.450;  670.380
1015.622;   33.477;  -13.870;  635.460
1016.172;   33.783;  -11.610;  596.820
1016.723;   33.136;  -12.120;  614.380
1017.273;   33.164;  -13.620;  604.160
1017.823;   33.184;  -14.140;  650.340
1018.374;   32.344;  -12.800;  611.760
1018.924;   32.456;  -12.340;  716.880
1019.474;   33.477;  -11.410;  718.880
1020.024;   32.197;  -14.770;  657.580
1020.574;   32.089;   -9.780;  726.160
1021.124;   32.344;   -8.560;  673.580
1021.674;   31.377;  -15.190;  559.120
1022.224;   33.165;  -13.530;  708.940
1022.774;   31.350;  -13.280;  668.820
1023.324;   31.576;  -10.690;  753.520
1023.874;   32.774;  -10.240;  875.760
1024.423;   30.641;  -12.540;  613.700
1024.973;   29.325;  -10.010;  610.760
1025.523;   28.951;  -10.550;  620.960
1026.072;   29.577;  -13.560;  606.420
1026.622;   29.287;  -15.120;  675.740
1027.172;   29.437;  -11.260;  715.660
1027.721;   28.580;  -11.410;  601.220
1028.270;   29.403;  -13.530;  663.400
1028.820;   29.015;  -13.680;  638.080
1029.369;   27.790;  -13.520;  612.700
1029.918;   28.716;  -10.980;  649.840
1030.468;   28.915;  -13.530;  564.780
1031.017;   28.445;  -13.170;  634.800
1031.566;   27.178;  -12.200;  608.900
1032.115;   27.512;   -9.960;  694.500
1032.664;   26.978;  -13.210;  596.480
1033.213;   28.350;  -12.500;  735.420
1033.762;   26.875;  -11.910;  635.620
1034.311;   26.571;   -9.640;  677.220
1034.860;   27.391;  -13.310;  691.000
1035.408;   27.018;  -11.830;  722.720
1035.957;   26.836;  -12.000;  719.540
1036.506;   25.272;  -11.690;  530.800
1037.055;   27.520;  -10.990;  844.320
1037.603;   26.406;  -15.120;  664.000
1038.152;   23.835;  -12.450;  534.760
1038.700;   24.815;  -10.560;  585.740
1039.249;   25.057;  -11.080;  681.220
1039.797;   25.204;  -12.540;  633.360
1040.345;   24.405;  -11.920;  705.420
1040.894;   24.229;  -11.410;  625.300
1041.442;   25.299;  -14.320;  632.200
1041.990;   23.996;  -16.240;  559.160
1042.538;   23.175;  -11.680;  536.180
1043.087;   22.888;  -10.760;  570.860
1043.635;   24.935;  -11.850;  670.500
1044.183;   24.136;  -15.480;  586.400
1044.731;   22.984;  -11.770;  576.000
1045.279;   22.691;  -13.090;  674.920
1045.827;   25.198;  -12.440;  892.400
1046.374;   22.994;  -13.840;  515.420
1046.922;   21.000;  -13.220;  590.580
1047.470;   23.350;  -10.230;  691.300
1048.018;   23.736;  -14.590;  647.960
1048.565;   23.658;  -12.050;  708.600
1049.113;   21.513;  -11.650;  557.000
1049.660;   21.525;  -10.510;  629.660
1050.208;   22.698;  -13.310;  675.640
1050.755;   21.354;  -15.900;  606.580
1051.303;   21.656;  -11.430;  686.820
1051.850;   21.364;   -8.480;  635.120
1052.397;   20.277;  -15.010;  473.960
1052.945;   20.529;  -13.960;  617.760
1053.492;   21.620;  -13.150;  741.840
1054.039;   21.368;   -9.630;  720.180
1054.586;   20.719;  -13.680;  557.240
1055.133;   20.884;  -14.570;  693.140
1055.680;   20.754;  -13.820;  646.620
1056.227;   19.180;  -11.730;  542.780
1056.774;   22.293;  -12.480;  794.980
1057.321;   19.939;  -13.930;  523.260
1057.868;   19.163;  -11.690;  651.320
1058.415;   19.473;   -9.520;  651.980
1058.961;   21.012;  -13.160;  678.940
1059.508;   19.875;  -12.920;  643.820
1060.055;   18.229;  -11.920;  581.780
1060.601;   19.105;  -11.500;  624.300
1061.148;   19.222;  -14.330;  616.820
1061.694;   18.156;  -16.870;  592.580
1062.241;   18.381;  -10.330;  596.320
1062.787;   18.518;  -10.620;  663.140
1063.334;   20.414;  -10.110;  808.560
1063.880;   18.597;  -13.400;  668.360
1064.426;   17.842;  -10.680;  706.820
1064.972;   18.066;   -9.920;  601.340
1065.518;   16.587;  -10.980;  566.640
1066.065;   18.178;  -14.890;  624.460
1066.611;   17.081;  -12.870;  598.800
1067.157;   17.897;  -12.950;  641.860
1067.703;   17.909;  -13.540;  668.480
1068.249;   17.458;  -13.540;  605.220
1068.794;   16.122;  -12.600;  626.880
1069.340;   15.972;  -10.620;  578.960
1069.886;   16.830;  -12.830;  590.700
1070.432;   15.997;  -14.870;  541.720
1070.977;   15.074;  -11.980;  601.080
1071.523;   16.157;   -8.200;  573.060
1072.068;   16.367;  -12.330;  582.000
1072.614;   16.122;  -16.370;  527.760
1073.160;   16.368;  -11.100;  687.040
1073.705;   15.132;  -10.480;  572.520
1074.250;   15.681;  -14.520;  559.900
1074.796;   16.555;  -11.460;  655.160
1075.341;   15.549;  -11.950;  664.100
1075.886;   15.731;  -11.460;  594.240
1076.431;   15.449;  -13.770;  649.880
1076.976;   15.591;  -12.680;  639.220
1077.521;   14.047;  -13.170;  583.080
1078.067;   13.957;  -10.860;  579.400
1078.612;   15.856;  -13.920;  661.620
1079.156;   15.353;  -13.880;  601.540
1079.701;   14.320;  -13.120;  693.260
1080.246;   15.368;   -9.940;  696.300
1080.791;   14.970;  -14.740;  625.020
1081.336;   15.120;  -13.750;  659.320
1081.880;   13.277;  -13.400;  649.680
1082.425;   13.276;  -12.220;  573.480
1082.970;   15.545;  -11.610;  717.040
1083.514;   13.986;  -13.580;  597.000
1084.059;   13.413;  -12.810;  586.720
1084.603;   13.183;  -12.320;  565.840
1085.147;   13.122;  -13.190;  645.220
1085.692;   14.706;  -12.480;  716.800
1086.236;   12.314;  -13.020;  503.140
1086.780;   13.800;   -9.190;  751.440
1087.325;   14.064;  -12.480;  654.620
1087.869;   13.407;  -12.450;  610.700
1088.413;   13.339;  -12.240;  705.040
1088.957;   11.381;   -9.020;  543.400
1089.501;   14.383;  -10.320;  766.640
1090.045;   12.619;  -12.720;  726.480
1090.589;   10.514;  -13.690;  569.920
1091.133;   11.813;  -10.020;  673.340
1091.676;   11.824;  -12.330;  591.940
1092.220;   11.833;  -14.970;  600.920
1092.764;   11.852;  -12.430;  706.960
1093.307;   12.219;   -9.800;  673.780
1093.851;   10.702;  -14.970;  556.540
1094.395;   11.529;  -15.310;  683.140
1094.938;   10.716;  -10.370;  632.520
1095.482;   11.074;  -11.050;  559.800
1096.025;   12.304;  -11.840;  710.880
1096.568;   12.433;  -12.840;  779.280
1097.112;    9.121;  -14.700;  508.180
1097.655;   11.382;   -8.720;  603.000
1098.198;   10.084;  -13.610;  600.180
1098.741;   10.217;  -13.350;  612.860
1099.285;   10.455;  -11.230;  657.300
1099.828;    9.026;  -11.840;  439.400
1100.371;   10.448;  -10.840;  608.160
1100.914;    9.788;  -14.190;  682.660
1101.457;    9.983;  -11.240;  679.900
1101.999;    8.449;  -11.270;  584.680
1102.542;    9.804;  -11.480;  641.440
1103.085;    9.649;  -11.750;  658.500
1103.628;   10.344;  -11.400;  762.060
1104.170;    8.956;  -10.490;  588.280
1104.713;    9.972;  -10.600;  646.700
1105.256;    9.198;  -14.360;  557.440
1105.798;    7.772;  -13.210;  499.980
1106.341;    9.268;  -10.270;  728.900
1106.883;    9.158;  -12.200;  521.340
1107.425;    9.097;  -13.110;  668.180
1107.968;    8.604;  -12.840;  612.380
1108.510;    8.170;   -6.480;  684.960
1109.052;    8.396;  -13.940;  612.620
1109.594;    8.143;  -13.690;  554.440
1110.136;    8.130;  -11.880;  643.220
1110.679;    7.451;   -9.500;  633.080
1111.221;    8.058;  -14.160;  604.460
1111.763;    7.837;  -13.980;  559.220
1112.304;    6.278;  -13.880;  547.140
1112.846;    8.072;  -12.210;  666.240
1113.388;   10.772;  -11.390;  942.180
1113.930;    7.328;  -14.540;  694.200
1114.472;    6.547;  -12.640;  606.540
1115.013;    6.021;  -11.620;  551.280
1115.555;    6.710;  -13.640;  587.100
1116.097;    6.045;  -15.380;  579.480
1116.638;    6.878;  -12.640;  684.600
1117.180;    6.691;   -9.850;  667.740
1117.721;    6.645;  -13.690;  568.580
1118.262;    7.931;  -12.680;  677.960
1118.804;    6.917;  -12.530;  637.340
1119.345;    5.714;  -11.690;  578.400
1119.886;    7.897;  -13.380;  704.040
1120.427;    6.251;  -14.070;  589.020
1120.969;    4.978;  -13.500;  597.920
1121.510;    6.130;  -11.480;  563.060
1122.051;    6.079;  -12.830;  723.580
1122.592;    5.870;  -14.290;  655.420
1123.133;    4.288;  -12.400;  547.940
1123.673;    5.856;  -10.130;  706.480
1124.214;    5.498;  -12.930;  612.460
1124.755;    6.813;  -14.380;  639.460
1125.296;    5.150;  -14.000;  627.320
1125.836;    6.003;  -10.070;  691.500
1126.377;    5.448;  -12.640;  599.660
1126.918;    5.812;  -12.960;  614.980
1127.458;    4.651;  -13.350;  622.220
1127.999;    4.863;  -10.750;  656.980
1128.539;    5.980;  -12.350;  694.240
1129.079;    5.178;  -14.860;  632.720
1129.620;    3.751;  -13.840;  558.100
1130.160;    3.684;  -12.330;  539.480
1130.700;    4.891;  -14.530;  640.840
1131.240;    5.858;  -12.530;  643.700
1131.781;    3.961;  -14.450;  619.680
1132.321;    4.077;   -9.790;  599.120
1132.861;    3.993;  -14.860;  564.200
1133.401;    3.186;  -14.290;  593.940
1133.941;    3.901;  -11.750;  626.280
1134.481;    3.819;   -9.920;  597.580
1135.020;    3.361;  -12.290;  609.160
1135.560;    4.578;  -11.650;  674.940
1136.100;    3.417;  -16.270;  501.160
1136.640;    2.194;  -10.890;  510.480
1137.179;    3.119;  -14.180;  537.960
1137.719;    4.114;  -16.250;  605.400
1138.258;    3.300;  -14.230;  587.360
1138.798;    3.497;   -9.090;  663.780
1139.337;    2.355;  -15.130;  482.840
1139.877;    3.844;  -13.680;  642.360
1140.416;    5.045;  -11.320;  878.060
1140.955;    1.962;  -10.860;  535.380
1141.494;    2.917;  -12.920;  669.280
1142.034;    2.275;  -13.930;  583.520
1142.573;    2.386;  -11.440;  646.280
1143.112;    1.666;  -12.000;  553.480
1143.651;    2.710;  -13.670;  536.480
1144.190;    3.573;  -12.730;  691.640
1144.729;    1.776;  -14.560;  607.420
1145.267;    1.924;  -11.830;  584.900
1145.806;    3.151;  -12.230;  637.040
1146.345;    1.733;  -14.130;  635.020
1146.884;    1.792;  -11.590;  622.500
1147.422;    0.542;  -12.550;  533.060
1147.961;    3.805;  -11.180;  708.460
1148.500;    3.170;  -11.510;  669.720
1149.038;    2.348;  -11.640;  632.500
1149.577;    1.938;  -10.130;  698.640
1150.115;    0.081;  -13.970;  452.280
1150.653;    2.505;  -14.520;  607.340
1151.192;    1.494;  -12.810;  552.920
1151.730;    1.295;   -9.100;  652.560
1152.268;    1.505;  -12.220;  589.520
1152.806;    1.658;  -14.140;  571.180
1153.344;   -0.260;  -12.350;  577.640
1153.882;    0.329;   -8.980;  600.060
1154.421;    0.313;  -15.190;  470.620
1154.958;    0.852;  -15.210;  595.240
1155.496;    0.732;  -12.850;  645.280
1156.034;    0.886;   -9.940;  721.880
1156.572;    2.333;  -13.570;  667.060
1157.110;    0.711;  -14.590;  473.940
1157.647;    1.149;  -13.030;  676.960
1158.185;   -0.656;  -12.140;  564.320
1158.723;   -0.801;  -14.390;  509.200
1159.260;    0.352;  -14.090;  701.700
1159.798;    0.517;  -11.920;  658.160
1160.335;   -0.413;  -11.110;  631.820

