
Integration time [ms]:   3.276
Averaging Nr. [scans]: 1000
Smoothing Nr. [pixels]: 0
Data measured with spectrometer [name]: 7414430SP
Wave   ;Sample   ;Dark     ;Reference
[nm]   ;[counts] ;[counts] ;[counts] 

288.544;  150.997;    7.793;  793.890
289.143;  154.478;    7.462;  681.602
289.742;  154.455;    8.602;  828.814
290.341;  140.755;    1.321;  789.841
290.940;  129.665;   -0.709;  730.702
291.538;  130.033;    0.881;  881.108
292.137;  130.424;    0.122;  792.581
292.736;  135.587;   -1.929;  975.101
293.335;  131.034;   -8.229;  735.086
293.934;  131.402;   -5.279;  781.677
294.532;  129.245;   -1.369; 1031.958
295.131;  115.782;   -7.641;  834.394
295.730;  116.164;   -8.420;  809.588
296.328;  115.438;   -5.611;  783.442
296.927;  115.515;   -5.781;  779.652
297.525;  117.193;   -6.361;  781.236
298.124;  107.271;  -11.382;  654.009
298.722;  110.927;   -7.641;  761.933
299.321;  108.572;   -6.811;  708.597
299.919;  107.302;   -6.991;  751.918
300.518;  104.312;  -10.362;  689.338
301.116;  105.212;   -9.581;  691.381
301.715;  105.147;   -4.891;  730.222
302.313;  104.745;   -8.801;  704.943
302.911;   99.616;   -8.522;  733.830
303.509;  105.038;   -6.171;  925.627
304.108;  102.396;   -7.311;  760.383
304.706;  102.701;   -8.321;  801.664
305.304;   96.176;  -10.222;  796.707
305.902;  101.809;   -6.021;  784.484
306.500;   97.822;   -4.971;  728.200
307.098;   96.271;   -7.061;  746.560
307.696;   94.562;   -8.801;  780.432
308.294;   94.183;   -6.411;  731.359
308.892;   96.649;   -2.901;  759.769
309.490;   93.407;   -5.041;  712.161
310.088;   91.858;   -5.002;  788.444
310.686;   95.532;   -2.041;  821.749
311.284;   90.967;   -2.351;  766.040
311.882;   89.050;   -4.422;  731.225
312.480;   85.465;   -4.192;  697.167
313.078;   87.084;   -1.172;  808.331
313.675;   88.161;   -2.601;  691.600
314.273;   83.745;   -1.312;  797.837
314.871;   82.546;   -3.942;  589.829
315.468;   80.511;   -2.802;  652.090
316.066;   82.549;   -0.701;  694.427
316.664;   76.443;   -4.362;  656.351
317.261;   80.485;   -2.872;  910.128
317.859;   75.372;   -2.022;  768.735
318.456;   75.959;   -0.531;  830.096
319.054;   72.461;   -3.912;  787.828
319.651;   70.961;   -4.752;  759.928
320.249;   69.908;   -2.602;  810.188
320.846;   67.774;   -0.821;  714.286
321.443;   66.195;   -4.642;  832.135
322.041;   63.039;   -5.002;  812.315
322.638;   59.918;   -3.982;  701.456
323.235;   61.308;   -3.411;  665.683
323.833;   59.489;   -7.361;  740.354
324.430;   54.465;   -8.611;  615.900
325.027;   54.832;   -4.061;  876.855
325.624;   54.851;   -4.031;  644.532
326.221;   51.700;   -7.481;  689.717
326.818;   51.762;   -5.281;  818.332
327.415;   54.575;   -7.460;  748.828
328.012;   54.382;   -5.510;  690.585
328.609;   52.641;   -7.880;  731.389
329.206;   51.281;   -8.331;  778.621
329.803;   51.040;   -5.121;  737.841
330.400;   53.372;   -4.510;  704.260
330.997;   55.394;   -6.441;  817.147
331.594;   54.005;   -8.831;  788.185
332.191;   59.217;   -7.621;  728.722
332.787;   61.513;   -4.591;  844.463
333.384;   59.727;   -7.412;  763.093
333.981;   59.261;   -8.293;  815.687
334.578;   61.820;   -7.052;  708.378
335.174;   64.908;   -3.102;  731.469
335.771;   64.190;   -5.943;  836.456
336.367;   60.762;   -7.393;  710.631
336.964;   65.190;   -4.063;  793.266
337.561;   62.056;   -3.813;  731.112
338.157;   58.371;   -4.654;  911.916
338.754;   56.556;   -7.934;  796.589
339.350;   54.288;   -4.414;  722.493
339.946;   55.783;   -4.664;  773.135
340.543;   48.520;   -6.375;  846.136
341.139;   42.531;   -9.815;  720.836
341.735;   40.655;   -4.526;  772.593
342.332;   39.243;   -4.895;  691.472
342.928;   39.454;   -4.295;  795.394
343.524;   34.280;   -5.476;  761.684
344.120;   30.268;   -5.856;  738.562
344.716;   33.479;   -2.155;  723.717
345.313;   31.512;   -6.275;  795.342
345.909;   26.537;   -8.815;  627.336
346.505;   27.884;   -5.305;  740.247
347.101;   28.432;   -2.674;  827.864
347.697;   29.404;   -4.344;  785.398
348.293;   23.701;   -9.975;  627.244
348.889;   23.555;   -5.774;  745.914
349.485;   23.246;   -5.004;  688.205
350.081;   25.337;   -4.704;  772.592
350.676;   20.004;   -6.635;  691.606
351.272;   23.206;   -4.504;  809.530
351.868;   23.314;   -3.914;  780.497
352.464;   20.981;   -9.044;  723.932
353.059;   17.740;   -8.314;  646.017
353.655;   20.679;   -7.024;  777.063
354.251;   22.241;   -5.343;  759.845
354.846;   16.299;   -8.604;  740.646
355.442;   14.311;   -6.945;  753.071
356.038;   16.026;   -7.564;  751.708
356.633;   15.571;   -5.814;  728.594
357.229;   13.996;   -7.364;  724.757
357.824;   12.604;   -8.024;  703.600
358.420;   11.066;   -9.384;  679.726
359.015;   12.207;   -5.104;  695.357
359.610;   12.929;   -6.854;  763.920
360.206;    7.348;  -10.185;  603.240
360.801;    9.386;   -7.054;  646.503
361.396;   11.749;   -5.034;  725.975
361.992;    7.138;   -8.284;  668.220
362.587;    4.614;   -8.625;  670.160
363.182;    6.605;   -7.674;  689.631
363.777;    7.330;   -5.164;  738.242
364.372;    8.137;   -8.604;  737.314
364.967;    3.819;   -9.055;  680.744
365.563;    7.585;   -6.114;  815.567
366.158;    5.315;   -5.814;  685.161
366.753;    5.441;   -7.854;  649.263
367.348;    3.993;   -7.804;  746.056
367.942;    4.424;   -7.954;  697.298
368.537;    2.397;   -4.984;  754.245
369.132;    3.806;   -8.564;  703.428
369.727;   -1.262;   -8.855;  638.079
370.322;    0.009;   -6.245;  580.186
370.917;   -0.488;   -6.425;  710.646
371.511;    2.546;   -6.294;  861.834
372.106;   -0.135;   -7.685;  776.964
372.701;   -3.740;   -7.335;  585.988
373.296;    2.339;   -4.564;  863.135
373.890;   -2.352;  -10.235;  647.840
374.485;   -4.881;   -7.885;  691.199
375.079;   -1.253;   -7.324;  738.685
375.674;   -0.336;   -3.494;  812.970
376.268;   -4.099;   -8.525;  691.759
376.863;   -9.891;  -10.086;  580.327
377.457;   -3.082;   -7.025;  662.490
378.052;   -4.962;   -3.585;  764.884
378.646;   -6.202;   -7.595;  741.167
379.240;   -6.422;   -8.335;  721.176
379.835;   -5.664;   -5.785;  636.978
380.429;   -7.725;   -4.335;  562.557
381.023;   -7.776;   -6.805;  779.205
381.617;   -9.952;   -9.195;  680.106
382.212;   -6.145;   -6.905;  685.303
382.806;   -6.285;   -3.745;  760.690
383.400;   -9.639;   -7.745;  672.281
383.994;  -11.073;   -9.765;  664.870
384.588;   -6.912;   -6.564;  697.701
385.182;   -6.134;   -5.344;  726.624
385.776;   -6.875;   -8.514;  706.875
386.370;   -9.965;   -9.555;  681.968
386.964;   -9.222;   -8.715;  684.155
387.558;   -6.915;   -6.174;  598.360
388.152;  -10.305;   -8.725;  681.959
388.745;   -9.149;   -7.965;  814.707
389.339;   -7.180;   -5.924;  747.642
389.933;   -6.725;   -5.524;  695.370
390.527;   -7.513;   -7.114;  859.029
391.120;  -13.512;  -10.725;  595.318
391.714;  -10.938;   -8.035;  711.633
392.308;   -7.776;   -3.574;  780.253
392.901;  -10.430;   -7.245;  642.460
393.495;  -12.671;   -9.285;  595.414
394.089;  -11.002;   -5.895;  760.452
394.682;  -11.564;   -4.295;  697.188
395.275;  -11.663;   -9.875;  719.927
395.869;  -12.610;   -8.485;  667.314
396.462;  -12.175;   -7.455;  616.609
397.056;   -7.889;   -5.424;  776.621
397.649;  -11.204;   -6.605;  731.575
398.242;   -8.544;   -8.224;  712.645
398.836;   -8.904;   -7.474;  766.408
399.429;  -10.771;   -7.094;  631.041
400.022;  -12.769;   -9.475;  665.902
400.615;  -10.788;   -7.145;  805.609
401.208;   -9.545;   -7.174;  691.451
401.802;  -11.417;   -5.515;  699.329
402.395;  -12.377;   -9.875;  683.502
402.988;  -13.653;   -8.845;  696.627
403.581;  -10.323;   -8.874;  646.878
404.174;   -8.396;   -5.324;  686.568
404.767;  -10.635;   -9.575;  638.583
405.360;  -13.105;  -10.965;  621.445
405.953;   -7.656;   -8.764;  759.034
406.545;   -7.705;   -7.514;  725.342
407.138;  -11.851;  -10.025;  618.350
407.731;   -9.904;  -10.034;  613.303
408.324;   -6.410;   -9.374;  660.554
408.917;   -7.140;   -6.534;  681.864
409.509;   -8.648;   -8.004;  740.396
410.102;  -10.192;   -9.875;  643.948
410.695;   -5.050;   -8.604;  665.758
411.287;   -6.484;   -6.794;  599.821
411.880;   -7.025;   -9.334;  585.421
412.472;   -9.792;  -10.254;  613.092
413.065;   -7.406;   -6.714;  629.408
413.657;   -5.760;   -7.234;  576.678
414.250;   -5.130;  -10.544;  646.681
414.842;   -6.495;   -9.744;  676.353
415.434;   -5.223;   -6.994;  570.463
416.027;   -0.234;   -5.893;  652.196
416.619;   -2.185;   -7.264;  713.400
417.211;   -3.099;  -10.374;  599.352
417.804;    0.404;   -7.993;  628.499
418.396;   -3.766;   -7.234;  607.643
418.988;   -1.087;   -9.443;  659.238
419.580;   -4.405;  -10.724;  568.276
420.172;   -2.241;  -10.323;  536.196
420.764;    1.282;   -8.793;  672.482
421.356;    1.023;  -11.143;  636.898
421.948;    0.089;   -8.293;  677.661
422.540;    4.891;   -7.893;  680.027
423.132;    4.825;   -7.082;  600.641
423.724;    1.044;   -8.653;  561.267
424.316;    3.193;  -10.213;  621.345
424.908;    6.434;   -9.762;  591.517
425.500;    6.845;   -5.572;  647.978
426.092;    7.949;   -8.422;  648.268
426.683;    6.926;   -9.283;  684.836
427.275;    9.463;   -7.852;  641.471
427.867;   10.400;   -5.272;  668.948
428.458;   11.624;   -7.682;  732.344
429.050;    9.648;  -10.612;  680.749
429.642;   12.389;   -9.882;  743.124
430.233;   12.910;   -6.962;  569.356
430.825;   14.867;   -6.842;  724.809
431.416;   11.525;   -9.672;  698.241
432.008;   15.740;   -6.552;  651.723
432.599;   15.746;   -6.891;  656.073
433.190;   13.293;  -10.912;  637.670
433.782;   12.523;  -11.172;  590.395
434.373;   19.521;   -6.061;  884.765
434.964;   18.014;   -8.251;  602.920
435.556;   16.417;   -9.722;  634.537
436.147;   19.447;   -9.082;  758.490
436.738;   19.007;   -8.041;  701.099
437.329;   24.059;   -7.341;  721.723
437.920;   17.846;   -8.162;  666.688
438.511;   17.424;  -11.802;  564.526
439.103;   24.097;  -10.191;  623.998
439.694;   25.490;   -7.601;  681.583
440.285;   27.198;   -8.541;  764.432
440.876;   25.183;   -9.751;  845.738
441.466;   24.076;   -9.401;  575.162
442.057;   29.045;   -7.760;  665.814
442.648;   29.318;   -9.971;  746.255
443.239;   27.271;  -11.001;  620.477
443.830;   31.206;   -7.990;  704.958
444.421;   33.534;   -7.910;  655.474
445.011;   30.646;   -8.131;  693.619
445.602;   29.050;   -7.111;  743.126
446.193;   31.302;  -10.920;  488.117
446.783;   35.636;   -6.500;  640.397
447.374;   32.431;   -8.671;  692.759
447.964;   32.433;  -10.781;  713.770
448.555;   40.420;   -9.650;  822.742
449.145;   36.967;   -8.660;  662.853
449.736;   38.407;   -8.990;  803.179
450.326;   38.642;   -9.500;  713.626
450.917;   42.473;   -8.680;  675.324
451.507;   41.897;   -7.520;  600.661
452.097;   43.174;   -8.590;  746.267
452.688;   43.731;  -11.340;  742.160
453.278;   43.523;  -10.100;  566.840
453.868;   48.189;   -6.019;  793.550
454.458;   46.028;   -9.440;  651.141
455.048;   46.858;  -10.560;  711.783
455.639;   47.574;  -11.799;  567.096
456.229;   51.029;   -6.899;  710.694
456.819;   53.478;   -7.389;  751.158
457.409;   53.979;  -11.119;  773.993
457.999;   56.311;   -9.289;  737.505
458.589;   55.666;   -6.139;  686.606
459.179;   56.385;   -8.729;  717.658
459.769;   54.900;   -9.789;  627.099
460.358;   59.507;  -10.259;  797.262
460.948;   59.852;   -7.299;  689.503
461.538;   60.971;  -10.289;  660.677
462.128;   59.381;  -11.269;  664.934
462.717;   65.179;   -9.368;  710.326
463.307;   68.805;   -7.908;  705.846
463.897;   64.744;   -9.599;  656.942
464.486;   63.458;   -9.769;  837.128
465.076;   68.351;   -8.048;  733.776
465.666;   72.003;   -9.358;  652.900
466.255;   70.248;   -7.919;  785.651
466.845;   69.083;  -11.689;  666.749
467.434;   71.736;   -7.818;  725.873
468.023;   73.060;   -7.678;  658.357
468.613;   71.036;  -10.939;  713.946
469.202;   75.815;  -10.118;  646.507
469.791;   79.500;   -9.108;  737.811
470.381;   82.160;   -6.058;  742.813
470.970;   81.610;  -10.428;  711.099
471.559;   81.557;  -10.268;  733.291
472.148;   84.279;   -8.448;  675.737
472.738;   86.321;   -6.917;  765.466
473.327;   86.104;  -11.978;  637.529
473.916;   86.295;  -11.888;  737.446
474.505;   90.560;   -9.437;  751.703
475.094;   93.312;   -6.747;  806.570
475.683;   93.064;   -9.367;  797.699
476.272;   93.890;  -12.637;  730.632
476.861;   96.910;  -10.027;  706.754
477.449;  102.847;   -8.716;  728.487
478.038;   97.740;   -9.577;  692.513
478.627;   99.443;   -9.718;  714.852
479.216;  106.071;   -8.947;  769.441
479.805;  108.989;   -6.256;  783.375
480.393;  108.950;   -7.937; 1008.945
480.982;  108.264;   -7.717;  874.501
481.571;  114.002;   -9.266;  858.333
482.159;  114.537;   -7.636;  705.386
482.748;  114.738;   -9.667;  821.385
483.336;  118.969;  -10.376;  858.209
483.925;  120.592;   -7.147;  774.373
484.513;  127.674;   -7.996;  758.962
485.102;  124.021;  -10.027;  810.965
485.690;  131.967;  -10.446; 1011.050
486.278;  134.214;   -8.446;  979.329
486.867;  135.869;   -6.356;  809.662
487.455;  137.908;   -9.136;  898.229
488.043;  139.670;  -10.646;  748.361
488.631;  147.987;   -7.456; 1005.079
489.220;  152.108;   -6.636;  908.626
489.808;  152.641;  -11.036;  741.415
490.396;  161.850;  -10.246;  914.645
490.984;  167.060;   -8.556;  830.161
491.572;  177.243;   -5.886;  940.315
492.160;  185.114;   -9.486;  919.081
492.748;  197.251;  -10.976;  884.341
493.336;  221.256;   -8.776; 1019.693
493.924;  249.905;   -5.465;  958.077
494.512;  279.592;   -9.986; 1066.638
495.100;  319.554;  -10.636; 1103.280
495.687;  377.995;  -10.885; 1206.373
496.275;  447.567;   -8.126; 1150.796
496.863;  524.101;  -10.586; 1281.171
497.451;  633.362;  -11.926; 1386.805
498.038;  777.523;  -10.885; 1556.729
498.626;  893.131;   -6.315; 1741.407
499.214; 1052.045;   -7.326; 2016.609
499.801; 1268.090;  -11.906; 2220.633
500.389; 1530.173;  -10.466; 2312.494
500.976; 1854.455;   -5.236; 2744.849
501.564; 2317.441;   -8.936; 3148.565
502.151; 2708.355;  -13.176; 3515.999
502.738; 3173.400;  -10.646; 3971.274
503.326; 3588.161;   -9.525; 4403.796
503.913; 4010.981;  -10.856; 5161.749
504.500; 4408.604;  -11.586; 5986.420
505.088; 4798.001;  -10.336; 6381.201
505.675; 5393.686;   -6.355; 6925.547
506.262; 6168.863;   -9.046; 7619.060
506.849; 6965.108;  -10.416; 8733.969
507.436; 7544.292;  -10.305; 9790.121
508.023; 8179.839;   -5.496; 9985.472
508.610; 8391.691;   -7.856;10434.618
509.197; 9041.259;  -10.097;11198.435
509.784;10555.980;  -10.886;12391.194
510.371;11720.461;   -9.315;13603.713
510.958;12456.447;   -9.936;14426.586
511.545;13262.646;   -9.326;15243.775
512.132;14274.618;  -10.075;15945.876
512.719;14923.628;   -7.796;16340.369
513.305;16017.260;  -10.606;18011.766
513.892;16755.936;  -11.486;19754.971
514.479;18030.707;   -9.126;20967.805
515.066;19601.949;   -6.026;22299.793
515.652;21245.613;   -8.466;22908.660
516.239;22538.225;  -10.886;23798.875
516.825;23601.783;  -11.496;25567.275
517.412;24631.975;   -5.796;28154.959
517.998;25380.197;  -10.506;28344.111
518.585;25284.922;  -10.076;27134.219
519.171;25893.715;   -8.315;27268.576
519.758;27900.846;   -8.596;28964.129
520.344;30114.418;   -8.466;30664.494
520.930;29876.209;  -11.006;32550.605
521.516;30986.855;  -10.495;35422.895
522.103;33128.223;   -5.526;38280.004
522.689;33823.820;   -8.746;37835.117
523.275;33428.117;  -11.376;37288.613
523.861;34986.133;  -11.156;37281.395
524.447;36611.652;   -8.135;37846.949
525.033;36303.750;   -7.896;38321.949
525.619;36722.211;  -12.476;38579.285
526.205;38524.766;   -9.516;40622.875
526.791;41266.180;   -6.926;42258.836
527.377;41037.129;   -8.346;42966.902
527.963;42339.707;   -8.717;42018.949
528.549;41447.965;  -11.016;42476.828
529.135;39888.668;   -8.536;41854.852
529.721;38738.988;   -9.666;41237.711
530.306;37940.070;  -10.066;41259.445
530.892;37947.691;  -11.356;41506.047
531.478;39398.895;   -6.596;43559.613
532.063;42888.379;   -8.836;47695.563
532.649;43813.977;  -10.047;50808.324
533.235;44268.656;   -9.746;51787.500
533.820;44448.457;   -6.566;52145.035
534.406;45916.914;  -10.817;51133.488
534.991;46129.773;   -9.416;49996.805
535.576;44448.094;   -9.036;48882.852
536.162;44981.488;   -6.156;46942.285
536.747;46277.938;  -11.607;45711.746
537.333;49333.316;  -11.787;48510.180
537.918;52816.426;  -12.437;50439.891
538.503;52177.848;   -7.196;50863.711
539.088;48445.902;  -10.556;50906.922
539.673;48389.348;   -8.767;52621.965
540.259;49064.145;  -10.026;52368.094
540.844;46006.789;   -7.416;50879.109
541.429;47317.324;   -9.467;52077.777
542.014;49905.324;   -9.527;52716.695
542.599;49407.645;   -9.946;52363.281
543.184;46289.422;   -7.927;53187.137
543.769;47004.594;   -9.297;54697.605
544.354;46998.074;  -10.127;53913.914
544.938;45658.102;   -9.267;49680.164
545.523;47254.277;   -6.506;47386.277
546.108;50055.621;   -9.787;49151.949
546.693;52258.094;  -11.587;51384.637
547.278;52569.660;  -10.986;51853.254
547.862;49250.074;   -8.206;51173.750
548.447;44668.707;  -10.067;51691.395
549.031;44040.148;   -9.637;52456.703
549.616;48666.398;   -9.926;52714.516
550.201;48229.820;   -6.347;52414.598
550.785;49305.469;   -7.917;52355.059
551.370;48658.703;  -10.867;54589.453
551.954;48430.668;   -9.047;58267.348
552.538;49370.734;   -7.827;59062.176
553.123;48058.137;  -10.287;58115.285
553.707;45895.469;  -12.178;56556.285
554.291;47320.770;   -8.717;56201.668
554.876;50528.559;   -7.457;55335.762
555.460;50741.551;  -10.387;54155.703
556.044;50702.156;   -9.618;53721.484
556.628;48103.055;  -11.567;53731.016
557.212;46788.023;   -8.097;54312.531
557.796;45819.594;  -11.077;53797.773
558.380;45857.270;  -11.108;56145.984
558.964;45568.578;   -9.057;57277.930
559.548;46742.547;   -6.977;56459.641
560.132;45186.836;  -11.457;54434.543
560.716;43652.410;  -11.378;54800.617
561.300;44814.145;   -9.577;57606.945
561.884;45832.137;   -7.127;58972.445
562.467;43608.660;   -7.118;57327.570
563.051;42739.809;  -13.358;54962.434
563.635;44339.156;  -10.178;52594.473
564.219;44833.195;   -7.837;50610.410
564.802;45181.547;  -11.398;49551.180
565.386;44908.578;  -12.788;48370.953
565.969;44473.984;   -9.077;48178.871
566.553;43548.352;   -6.207;49957.305
567.136;44454.570;   -8.568;50369.594
567.720;40988.898;  -11.868;49492.004
568.303;39037.043;   -8.268;50616.352
568.887;39252.563;   -8.698;50727.148
569.470;39915.129;   -6.808;51698.379
570.053;38949.996;  -13.188;52122.078
570.637;36576.184;  -12.037;52536.438
571.220;36114.164;   -8.577;51186.098
571.803;37075.316;   -8.498;51032.762
572.386;39369.719;  -10.498;49609.887
572.969;41694.152;   -9.388;48285.926
573.552;40095.352;   -8.338;47624.285
574.135;38729.191;   -8.518;45498.641
574.718;36038.480;  -13.628;41970.434
575.301;35180.422;  -10.893;41447.137
575.884;34322.367;   -8.158;40923.836
576.467;35628.086;  -10.328;45267.723
577.050;37210.039;  -13.058;48175.543
577.633;38261.711;   -9.458;47729.328
578.216;37459.445;   -8.928;47579.793
578.799;36599.160;   -9.358;47820.996
579.381;35423.594;  -11.388;48115.551
579.964;33350.266;  -11.718;47333.766
580.547;35843.848;   -8.588;46668.969
581.129;36801.836;   -8.859;44466.141
581.712;37351.336;  -10.729;44164.922
582.294;37711.563;  -11.118;46477.855
582.877;37750.898;   -5.218;48244.254
583.459;35788.004;   -8.679;47437.895
584.042;33730.340;  -10.709;46943.219
584.624;33766.789;  -11.669;46792.227
585.206;33447.926;   -8.218;46557.250
585.789;33882.668;  -10.569;45793.773
586.371;36254.715;  -11.859;43836.391
586.953;37017.645;  -10.719;42972.492
587.536;37842.203;   -7.198;42487.211
588.118;38075.008;   -8.720;42086.414
588.700;34069.191;  -10.439;43389.930
589.282;33056.953;   -9.198;43646.039
589.864;34216.152;   -9.199;43438.109
590.446;35553.840;  -11.319;43151.926
591.028;35451.949;  -11.159;42781.867
591.610;34076.883;  -11.779;42839.098
592.192;31325.098;   -7.668;42820.402
592.774;30125.637;  -11.949;40724.277
593.356;29121.648;  -12.129;39874.789
593.937;27969.605;  -10.669;39980.648
594.519;30284.541;   -6.509;42069.633
595.101;32559.242;  -10.849;42976.031
595.683;32645.590;  -11.679;44084.441
596.264;33576.789;   -9.049;43478.797
596.846;33235.059;   -8.849;43803.672
597.427;32963.367;   -9.570;42986.934
598.009;34207.934;  -12.620;42832.219
598.591;34356.320;  -10.039;42580.086
599.172;33781.512;  -10.369;43061.805
599.753;33950.605;   -9.140;41691.469
600.335;35406.629;  -11.430;40692.520
600.916;33762.070;   -9.939;39982.422
601.498;31559.646;   -8.479;40318.617
602.079;30023.182;  -10.920;40670.609
602.660;29808.781;  -11.480;41450.898
603.241;31571.672;  -11.699;41137.738
603.823;30375.402;   -9.579;38868.797
604.404;29578.158;  -10.620;38182.785
604.985;31158.910;  -10.450;38078.047
605.566;31058.238;   -9.129;38056.633
606.147;31019.297;   -7.510;37020.418
606.728;32626.563;  -10.660;37883.359
607.309;31259.436;  -11.740;38748.273
607.890;31127.232;   -9.759;38850.230
608.471;30751.975;   -8.250;37457.918
609.051;30007.406;   -9.240;36066.457
609.632;28720.754;  -12.120;35991.074
610.213;29096.568;   -9.110;37402.641
610.794;29790.166;   -8.030;38383.363
611.374;29627.361;   -8.110;40562.387
611.955;30394.441;  -13.560;38533.727
612.536;31674.008;  -11.400;36951.789
613.116;31298.756;   -8.070;37197.891
613.697;31695.852;  -10.830;38411.125
614.277;29903.914;  -11.641;38673.938
614.858;30631.115;  -13.310;37075.863
615.438;30285.457;   -7.460;35092.906
616.019;28140.590;   -7.601;33666.301
616.599;28194.010;  -12.020;34189.023
617.179;29792.623;  -11.780;36952.047
617.760;30961.146;   -8.570;39582.574
618.340;31674.852;  -11.471;38943.977
618.920;32619.398;  -11.170;37594.156
619.500;32571.672;  -11.071;37866.938
620.080;31674.197;   -7.750;37869.043
620.660;32799.617;  -12.711;36868.617
621.241;34522.723;  -10.211;36352.309
621.821;35007.605;  -10.961;35459.520
622.401;33793.563;   -7.720;35207.414
622.980;32759.643;   -8.981;35980.422
623.560;31317.172;   -9.331;37351.328
624.140;30021.131;   -9.850;34388.582
624.720;25049.016;   -7.451;32368.764
625.300;21641.533;   -9.070;32638.629
625.880;25132.045;  -12.601;34599.035
626.459;29311.137;  -11.751;36831.738
627.039;32246.992;   -9.281;38299.098
627.619;32060.906;   -8.801;38289.574
628.198;30676.219;  -12.071;37220.695
628.778;29744.582;   -9.461;37632.563
629.357;30279.650;   -8.491;38003.012
629.937;30566.584;   -9.721;38402.039
630.516;30122.355;   -9.951;37868.801
631.096;29829.561;  -11.731;35760.410
631.675;31976.275;   -8.572;35225.219
632.254;37209.813;  -11.282;35130.289
632.834;36841.527;  -13.322;35794.570
633.413;35020.949;  -10.301;35788.922
633.992;32285.408;   -8.582;34532.863
634.571;32769.363;   -8.352;33590.113
635.151;35354.695;  -11.912;34943.863
635.730;34076.332;  -10.511;35352.523
636.309;30953.732;   -7.731;35366.605
636.888;28535.783;   -9.952;36165.637
637.467;29043.932;  -11.672;37515.902
638.046;30385.002;   -8.901;39288.695
638.625;33135.922;   -7.912;38279.699
639.204;32823.578;  -10.022;37741.598
639.782;31649.428;  -12.252;38364.551
640.361;28073.975;  -10.041;36740.621
640.940;25310.453;  -11.161;34950.082
641.519;26035.463;   -9.701;34137.398
642.097;28988.059;  -11.271;35654.258
642.676;31646.039;   -8.651;35637.957
643.255;32777.621;   -8.711;36567.074
643.833;31891.342;   -9.581;37809.434
644.412;32156.410;  -13.711;37337.293
644.990;31376.625;  -11.811;37018.531
645.569;31147.082;   -9.411;36518.469
646.147;30347.896;  -10.291;36186.430
646.726;30370.131;  -12.401;36267.688
647.304;31274.029;  -10.411;36647.625
647.882;32576.980;   -9.651;39286.742
648.461;34154.176;   -9.631;39157.703
649.039;32741.961;  -11.881;35412.883
649.617;31778.840;   -9.661;34744.918
650.195;30887.434;   -9.301;35403.098
650.773;29518.395;  -10.511;35053.797
651.352;27353.629;  -11.521;33756.816
651.930;25215.672;  -12.211;31868.773
652.508;23861.951;   -9.171;33121.551
653.086;27707.479;   -9.371;33564.793
653.663;30571.803;  -13.161;34054.668
654.241;29118.598;  -13.031;35693.309
654.819;30443.961;   -9.371;36422.906
655.397;30349.834;  -10.511;38213.484
655.975;30013.641;  -10.371;39507.625
656.553;29651.027;  -10.051;39498.223
657.130;28007.148;  -10.061;40395.480
657.708;27420.377;   -9.561;39242.020
658.286;27659.744;  -11.511;38920.020
658.863;28912.166;  -10.261;40202.898
659.441;32158.547;   -7.531;39677.938
660.018;32149.586;   -9.501;40413.355
660.596;30912.246;  -13.301;39931.414
661.173;32353.850;  -11.211;39604.531
661.750;32614.883;   -9.951;39700.070
662.328;31440.164;   -9.390;39292.809
662.905;30616.037;  -11.330;38235.648
663.482;26477.895;   -9.050;36212.305
664.060;24707.234;   -8.240;35944.945
664.637;27701.494;  -10.050;35170.785
665.214;29064.354;  -11.760;34197.523
665.791;30526.635;  -10.530;34549.520
666.368;29665.465;   -9.690;35118.578
666.945;30147.408;   -9.320;36019.418
667.522;31540.090;  -11.860;36048.438
668.099;31476.268;  -10.770;36243.914
668.676;30272.014;   -6.260;35958.875
669.253;28961.490;   -7.000;37384.730
669.830;29154.953;  -10.190;36779.629
670.407;29077.143;   -9.550;35231.289
670.984;29021.322;   -9.260;35544.270
671.560;29720.369;   -9.280;35466.867
672.137;29027.164;  -11.810;34280.863
672.714;30006.803;  -11.490;34632.863
673.290;30935.193;   -7.740;35135.422
673.867;31045.357;  -10.660;36114.480
674.443;30731.557;  -12.230;36152.859
675.020;28770.746;  -10.450;35327.238
675.596;29657.449;   -9.260;35795.176
676.173;30164.133;  -10.780;35430.355
676.749;29840.803;  -13.690;33549.516
677.326;29805.646;  -11.980;32210.012
677.902;29722.676;   -8.630;32068.871
678.478;29260.234;  -10.730;32583.891
679.054;28576.324;  -10.520;32088.928
679.631;28714.201;  -11.920;30978.848
680.207;29968.627;   -7.490;33160.887
680.783;31497.133;   -9.860;35570.363
681.359;30766.537;  -13.380;36125.184
681.935;30628.486;  -12.480;35240.922
682.511;30418.639;   -7.900;34429.961
683.087;30839.914;   -7.710;34463.680
683.663;30118.652;  -11.480;34648.898
684.239;28537.908;  -14.090;34546.457
684.815;27775.141;   -7.560;35586.375
685.390;27779.365;   -9.910;35821.895
685.966;28143.133;  -11.159;35085.871
686.542;30629.113;  -11.169;34198.230
687.118;33169.395;   -5.959;32847.707
687.693;33900.535;  -10.329;32794.027
688.269;33567.320;  -12.059;33072.367
688.844;31616.961;  -10.909;33141.664
689.420;29400.471;   -8.019;33965.742
689.995;27476.676;   -8.399;34655.523
690.571;25921.438;  -10.949;33576.742
691.146;26070.748;   -9.619;32657.219
691.722;26113.670;   -8.999;32526.979
692.297;25846.445;  -11.589;33014.617
692.872;27327.873;  -11.739;34012.254
693.448;27092.486;  -11.059;34237.434
694.023;26184.563;  -10.139;34142.672
694.598;28052.686;   -9.029;34132.031
695.173;28638.846;  -13.319;34205.250
695.748;27466.955;  -10.169;32882.488
696.323;27235.256;   -8.339;32864.906
696.898;27584.273;   -8.169;33170.004
697.473;27916.307;  -12.309;32432.984
698.048;27460.668;  -10.989;31649.303
698.623;27277.602;   -9.329;30778.141
699.198;28801.789;   -9.849;31140.119
699.773;30099.711;  -12.329;31764.299
700.348;28752.457;  -10.389;31780.816
700.922;28515.918;   -9.269;32046.375
701.497;29490.754;   -9.329;32603.574
702.072;29937.635;  -10.789;34799.871
702.646;28441.182;  -10.839;35793.172
703.221;26182.211;   -9.099;35201.590
703.795;28093.838;  -10.939;34764.527
704.370;28682.502;  -12.859;34307.367
704.944;28915.822;  -11.559;33509.887
705.519;29506.553;   -7.939;31388.584
706.093;30756.578;  -10.499;31340.104
706.668;31079.342;  -11.289;32630.281
707.242;29999.373;  -11.509;32728.779
707.816;28754.076;   -9.639;32947.238
708.390;27123.678;  -11.429;33277.855
708.965;27598.461;  -11.869;33834.336
709.539;27900.830;  -11.689;33709.273
710.113;28027.881;  -10.478;33044.313
710.687;27411.316;  -10.228;31953.992
711.261;25771.813;  -13.698;30505.949
711.835;25489.137;  -13.378;30262.369
712.409;26012.783;   -9.698;31254.447
712.983;28114.982;  -11.898;32754.986
713.557;29373.225;  -15.138;34018.824
714.131;29222.109;  -14.098;34579.625
714.704;28333.572;   -9.958;33890.262
715.278;25802.504;  -10.028;33531.102
715.852;24559.898;  -11.148;33601.660
716.425;25684.359;   -9.068;33515.117
716.999;26657.404;  -10.038;33185.555
717.573;27461.672;   -9.798;33905.996
718.146;28481.564;  -12.378;35199.293
718.720;28564.361;  -11.918;35060.551
719.293;28303.721;   -8.088;34973.230
719.867;31235.201;  -10.888;36394.449
720.440;31093.027;  -11.938;36663.008
721.013;29362.197;  -12.818;35102.426
721.587;27794.016;  -10.298;33985.266
722.160;26636.742;  -10.048;33524.965
722.733;25626.969;  -12.108;32987.043
723.306;25819.508;  -10.818;33066.301
723.880;28067.387;   -8.908;33399.500
724.453;30303.248;   -9.878;33468.297
725.026;29587.260;  -11.188;33816.637
725.599;26749.453;  -11.678;32797.996
726.172;26662.199;   -9.618;33187.434
726.745;27651.402;   -8.258;35136.613
727.318;28969.129;  -12.978;35751.730
727.891;29732.604;  -12.148;35890.430
728.463;29225.607;   -8.968;34822.090
729.036;27843.611;  -10.188;32895.086
729.609;28267.186;  -11.788;31823.225
730.182;25443.990;  -11.788;31445.283
730.754;23149.367;  -10.268;32373.223
731.327;23566.684;   -9.998;33676.820
731.900;24006.426;  -12.228;33417.000
732.472;24802.289;  -13.848;31978.498
733.045;26227.639;   -8.698;30368.777
733.617;26325.881;  -10.607;30574.215
734.190;26583.031;  -11.507;31280.975
734.762;24310.207;  -13.647;31674.412
735.334;22567.551;   -9.767;31247.291
735.907;23062.238;   -9.897;29876.211
736.479;23233.211;  -11.637;29808.488
737.051;22686.322;   -9.567;30233.547
737.623;23208.230;   -8.187;31469.086
738.195;23647.020;  -11.187;31784.225
738.768;25683.043;  -12.337;32120.523
739.340;26430.932;  -12.227;32094.342
739.912;25402.287;  -11.057;31312.680
740.484;24010.441;  -10.207;31946.238
741.056;22606.367;  -10.047;32984.059
741.628;23795.256;  -13.627;33897.715
742.199;25912.441;   -7.177;33213.016
742.771;24654.104;  -10.797;31369.113
743.343;22449.787;  -11.997;31865.473
743.915;21498.863;  -12.867;32388.631
744.487;21639.816;   -7.617;31079.568
745.058;21817.590;   -9.557;30570.107
745.630;22434.297;   -9.877;29970.127
746.201;23626.496;  -14.177;29186.766
746.773;24187.957;   -9.237;28805.723
747.344;23857.650;   -9.847;29591.223
747.916;22114.146;  -11.657;31412.201
748.487;22290.629;  -10.587;32194.898
749.059;23687.561;   -8.707;32533.719
749.630;24436.943;  -10.537;32158.518
750.201;23617.656;  -11.687;30855.395
750.773;21859.094;  -11.647;28622.555
751.344;21464.814;   -7.147;28405.732
751.915;22362.281;   -9.757;28461.551
752.486;22490.090;  -12.427;27842.850
753.057;20479.402;  -12.227;27845.008
753.628;19216.943;  -10.417;27728.107
754.199;20123.656;  -11.767;27381.086
754.770;21205.869;  -11.187;25882.203
755.341;21438.463;  -10.507;25886.184
755.912;21545.633;   -9.387;26050.861
756.483;20974.438;  -10.647;26798.779
757.054;19275.102;  -11.837;27048.238
757.625;17950.883;  -12.716;26294.838
758.195;17773.191;   -9.666;26142.076
758.766;17395.627;   -8.656;26392.234
759.337;17914.141;  -12.856;26334.594
759.907;19438.631;  -13.366;27579.652
760.478;20398.361;   -8.576;28352.770
761.048;19823.258;  -10.526;27325.088
761.619;18925.348;  -11.116;26460.428
762.189;19001.545;  -12.136;26029.826
762.760;20045.662;   -9.456;26430.145
763.330;21217.563;   -7.136;26670.902
763.900;20800.090;  -11.786;26603.021
764.471;18381.506;  -11.546;25542.740
765.041;17022.295;   -8.096;24358.459
765.611;16823.691;   -8.876;23991.297
766.181;17056.186;  -12.196;24470.236
766.751;18182.406;  -11.636;24845.975
767.321;18065.465;  -10.156;24533.633
767.891;16050.201;  -11.766;24916.492
768.461;15381.148;  -14.936;24776.771
769.031;15772.013;  -12.356;24757.988
769.601;17385.561;   -7.526;24181.088
770.171;17509.145;  -10.766;23670.387
770.741;16693.289;  -13.176;22960.045
771.311;16783.352;  -10.616;22917.523
771.880;17376.168;   -9.576;23562.941
772.450;17317.736;  -10.336;24216.500
773.020;17309.525;  -13.516;24140.398
773.589;16476.004;  -13.466;24414.857
774.159;15673.341;   -8.686;23858.717
774.729;15197.739;   -9.476;22942.135
775.298;14810.754;  -13.666;22324.033
775.867;14421.351;  -11.716;21140.313
776.437;14554.196;   -9.906;20838.092
777.006;14297.435;  -12.166;20599.510
777.576;13983.172;  -12.356;20508.809
778.145;14031.874;  -11.646;20732.947
778.714;14135.827;   -8.226;21062.465
779.283;13636.948;   -9.556;20949.664
779.853;13192.723;  -14.116;20508.623
780.422;13606.398;  -11.506;20649.082
780.991;13125.696;   -9.556;21527.520
781.560;11803.936;   -9.095;22632.658
782.129;11557.565;  -12.135;23048.277
782.698;11564.823;  -10.865;23438.555
783.267;11291.608;   -9.335;23267.734
783.836;11266.818;  -11.045;22415.133
784.404;12169.269;  -13.865;20443.152
784.973;12819.322;  -13.095;19699.150
785.542;12926.246;  -11.575;19763.828
786.111;12730.242;   -9.705;20341.408
786.679;12225.010;  -12.105;20207.967
787.248;11937.523;  -12.455;19516.465
787.817;11737.512;  -11.535;18900.363
788.385;11445.580;   -9.765;17879.121
788.954;10938.771;  -14.005;17658.301
789.522;10267.981;  -11.955;17788.879
790.090;10614.894;  -10.135;18118.277
790.659;11193.794;  -10.975;18338.736
791.227;10897.804;  -13.375;18508.615
791.795;11344.662;  -12.375;17898.254
792.364;11658.004;  -10.725;17295.133
792.932;11898.292;   -9.715;16822.051
793.500;12083.466;  -12.675;17040.148
794.068;12232.906;  -13.495;17179.787
794.636;12363.090;  -10.885;16664.246
795.204;11740.721;  -11.045;16524.545
795.772;11719.407;  -13.175;17274.564
796.340;11301.196;  -12.445;17891.002
796.908;11108.241;   -9.735;17648.561
797.476;10985.429;   -9.815;17064.080
798.044;10564.943;  -13.985;16672.777
798.612; 9795.923;  -13.115;17023.996
799.180; 9447.336;  -10.185;16561.615
799.747; 9346.715;   -9.055;15962.773
800.315; 9039.892;  -12.385;15296.992
800.883; 8823.903;  -15.035;14801.771
801.450; 8988.291;  -10.365;14534.430
802.018; 9072.320;   -9.855;14173.248
802.585; 9077.358;  -11.905;14029.547
803.153; 9059.021;  -11.585;13836.846
803.720; 8897.319;   -9.095;13567.324
804.287; 8450.234;   -9.135;13360.622
804.855; 7985.927;  -11.604;13681.981
805.422; 7843.979;  -11.794;13536.560
805.989; 7943.475;  -10.734;13355.958
806.556; 8159.866;  -10.444;13747.896
807.124; 8409.349;  -12.764;13987.376
807.691; 8334.632;  -12.964;14038.674
808.258; 8166.391;  -11.134;14120.152
808.825; 7880.924;   -9.854;13860.111
809.392; 7953.631;  -10.504;13268.790
809.959; 7472.765;  -13.054;12680.389
810.526; 7029.140;   -8.294;12427.308
811.093; 7027.783;   -8.394;12030.105
811.659; 7632.838;  -12.304;11653.664
812.226; 8179.469;  -13.944;11637.183
812.793; 7894.354;  -10.484;11611.521
813.360; 7240.010;  -10.144;11885.181
813.926; 6923.408;  -11.684;12770.539
814.493; 6756.709;  -13.644;12677.638
815.060; 6444.112;   -9.724;11974.336
815.626; 6412.158;   -9.854;11594.715
816.193; 6738.805;  -13.254;11579.474
816.759; 6753.389;  -13.204;11666.972
817.325; 6788.725;   -9.434;11325.530
817.892; 7134.981;  -10.134;11105.369
818.458; 7560.544;  -13.474;10843.928
819.024; 7235.759;  -11.854;10714.406
819.591; 6913.717;  -10.244;10469.165
820.157; 6726.445;  -10.704;10235.523
820.723; 6245.809;  -12.324;10847.563
821.289; 5910.743;   -9.444;11040.980
821.855; 5806.011;   -8.374;10357.100
822.421; 5751.296;  -10.234; 9978.918
822.987; 5743.965;  -13.294; 9754.177
823.553; 5400.768;  -10.884;10065.755
824.119; 5194.557;   -8.884;10036.294
824.685; 5310.742;   -6.784;10029.192
825.251; 5442.905;  -12.004;10199.230
825.816; 5389.374;  -11.474; 9820.189
826.382; 5121.200;   -9.174; 9297.248
826.948; 5261.029;   -9.214; 9381.347
827.513; 5622.019;  -10.774; 9450.726
828.079; 5475.938;  -11.924; 9472.444
828.645; 4909.125;  -10.543; 9292.643
829.210; 4772.182;  -10.533; 9065.341
829.776; 4759.695;  -10.753; 9132.620
830.341; 4635.806;  -10.173; 9092.878
830.906; 4769.764;  -10.743; 9078.557
831.472; 5076.560;  -11.113; 8534.535
832.037; 4872.340;  -10.603; 8677.874
832.602; 4394.012;  -13.323; 8628.692
833.167; 4175.702;  -10.823; 8879.031
833.733; 4142.539;  -10.113; 9189.790
834.298; 4275.565;  -13.583; 9052.608
834.863; 4389.492;  -12.703; 8895.087
835.428; 4378.650;  -10.523; 8824.266
835.993; 4218.672;   -6.963; 8845.385
836.558; 4069.676;  -10.763; 8888.563
837.123; 4169.841;   -9.903; 8966.582
837.688; 4411.688;   -9.913; 8617.860
838.253; 4657.517;  -10.283; 8590.699
838.817; 4839.799;  -12.963; 8443.797
839.382; 4753.490;  -14.243; 8799.356
839.947; 4455.753;  -10.733; 8810.595
840.511; 4172.619;   -9.383; 8796.394
841.076; 3812.072;  -12.563; 8347.231
841.641; 3857.183;  -12.953; 8224.330
842.205; 3969.734;   -7.043; 8223.349
842.770; 4014.249;   -8.163; 8622.107
843.334; 4143.636;  -12.503; 8410.386
843.898; 4106.578;  -11.693; 8337.465
844.463; 4105.444;  -10.203; 8506.283
845.027; 3895.628;   -9.533; 8280.962
845.591; 3712.666;  -13.443; 8231.141
846.156; 3708.529;  -13.143; 7969.179
846.720; 3623.273;   -9.433; 7768.278
847.284; 3513.991;  -11.033; 7630.957
847.848; 3385.169;  -10.403; 7472.395
848.412; 3293.975;  -11.553; 7437.394
848.976; 3336.061;   -8.393; 7674.592
849.540; 3247.255;   -8.713; 7836.011
850.104; 3290.325;  -12.463; 7913.669
850.668; 3634.621;  -12.973; 7694.508
851.232; 3793.806;  -10.793; 7756.887
851.796; 3665.415;  -10.662; 7926.545
852.359; 3359.425;  -13.082; 7827.844
852.923; 3179.068;  -12.192; 7641.163
853.487; 3038.495;  -11.912; 7342.501
854.050; 3013.231;  -10.892; 7042.820
854.614; 3134.597;  -13.992; 7151.338
855.177; 3243.414;  -11.732; 7105.077
855.741; 3281.727;   -8.962; 6989.675
856.304; 3185.603;   -9.442; 6596.634
856.868; 3155.146;  -14.192; 6356.272
857.431; 3281.221;  -12.702; 6468.571
857.995; 3407.725;   -9.942; 6373.210
858.558; 3437.514;   -9.112; 6324.448
859.121; 3172.994;  -12.932; 6408.327
859.684; 3004.526;  -13.442; 6347.886
860.247; 3108.717;  -10.632; 6321.264
860.810; 3138.292;  -11.272; 6301.903
861.374; 2893.469;   -9.832; 6607.881
861.937; 2634.258;  -11.762; 6408.200
862.500; 2627.742;   -9.722; 6572.639
863.062; 2771.561;  -10.512; 6387.297
863.625; 2908.484;  -11.232; 6190.836
864.188; 3065.586;  -14.112; 5807.254
864.751; 3157.515;  -11.302; 5682.413
865.314; 3086.407;  -10.112; 5547.492
865.876; 2863.418;  -12.182; 5500.150
866.439; 2822.173;  -10.722; 5415.909
867.002; 2779.133;   -9.252; 5501.567
867.564; 2604.780;   -9.572; 5413.946
868.127; 2404.167;  -13.142; 5160.325
868.689; 2286.880;  -12.902; 5133.183
869.252; 2180.444;   -9.732; 5252.382
869.814; 2073.577;   -9.432; 5297.141
870.377; 2066.552;  -11.552; 5390.919
870.939; 2118.532;   -9.052; 5599.898
871.501; 2192.148;  -10.982; 5248.336
872.063; 2221.189;  -12.292; 4854.235
872.626; 2174.732;  -14.912; 4817.074
873.188; 2172.370;  -13.112; 4987.732
873.750; 2136.179;  -13.442; 4868.651
874.312; 2054.934;   -9.402; 4779.330
874.874; 1977.551;  -11.062; 4866.348
875.436; 1893.708;  -13.931; 4718.887
875.998; 1876.095;   -9.561; 4660.005
876.560; 1891.339;  -11.321; 4462.964
877.122; 1835.114;  -12.221; 4145.042
877.683; 1742.660;  -12.191; 4056.481
878.245; 1669.320;  -12.101; 3950.740
878.807; 1707.179;   -8.971; 4058.958
879.369; 1732.526;  -12.071; 3954.677
879.930; 1639.432;  -14.621; 3941.495
880.492; 1573.492;  -10.311; 4067.014
881.053; 1547.556;  -10.901; 3859.633
881.615; 1456.094;  -14.411; 3776.071
882.176; 1365.308;  -13.761; 3734.750
882.738; 1312.903;   -9.181; 3678.489
883.299; 1286.946;  -11.791; 3405.407
883.860; 1271.244;  -13.121; 3351.106
884.422; 1259.007;  -11.211; 3394.044
884.983; 1214.521;  -10.091; 3166.443
885.544; 1144.733;   -8.461; 3189.802
886.105; 1073.243;  -12.361; 3160.360
886.666; 1010.208;  -14.141; 3093.059
887.227;  953.104;  -11.361; 2941.957
887.788;  896.482;  -11.401; 2974.836
888.349;  831.907;  -13.791; 2721.214
888.910;  828.079;  -13.191; 2696.493
889.471;  837.606;   -9.881; 2560.172
890.032;  823.884;   -9.881; 2558.190
890.593;  798.188;  -10.371; 2567.669
891.153;  771.495;  -13.301; 2460.307
891.714;  721.775;  -11.431; 2372.046
892.275;  684.251;  -11.291; 2309.505
892.835;  652.907;  -11.471; 2382.543
893.396;  603.179;  -11.541; 2295.502
893.956;  546.163;  -11.181; 2162.420
894.517;  505.330;  -11.741; 2125.439
895.077;  497.164;  -11.671; 2086.978
895.638;  499.054;  -11.311; 2126.316
896.198;  473.313;   -9.831; 1838.275
896.758;  432.407;   -8.421; 1892.813
897.319;  403.471;  -12.351; 1792.232
897.879;  387.303;  -13.511; 1762.751
898.439;  363.547;  -12.001; 1661.149
898.999;  338.889;  -10.180; 1781.468
899.559;  329.475;  -12.030; 1703.347
900.119;  324.140;  -15.710; 1537.525
900.679;  319.589;   -8.900; 1638.384
901.239;  307.274;   -8.340; 1527.902
901.799;  298.925;  -13.910; 1456.441
902.359;  292.621;  -13.460; 1357.140
902.919;  286.159;  -11.490; 1331.118
903.479;  274.094;  -12.110; 1317.257
904.038;  255.771;  -11.720; 1262.595
904.598;  240.625;  -13.610; 1152.034
905.158;  236.621;  -11.040; 1240.893
905.717;  229.924;  -10.900; 1233.691
906.277;  220.311;  -15.080; 1217.330
906.836;  209.363;  -13.380; 1222.408
907.396;  201.742;  -10.780; 1193.047
907.955;  194.582;   -8.500; 1182.526
908.515;  189.821;  -12.760; 1099.364
909.074;  182.789;  -11.900; 1092.863
909.633;  177.056;   -8.950; 1069.121
910.192;  173.050;   -8.770; 1196.460
910.752;  167.827;  -12.390; 1029.960
911.311;  164.349;  -13.680; 1009.780
911.870;  161.321;  -12.370;  971.460
912.429;  161.916;  -10.900; 1094.080
912.988;  161.599;  -11.690; 1081.060
913.547;  157.230;  -13.240;  940.380
914.106;  152.837;  -11.990;  999.420
914.665;  149.046;   -9.990;  984.020
915.224;  148.627;  -12.880; 1035.760
915.782;  148.742;  -12.350;  922.560
916.341;  148.363;   -9.110; 1049.840
916.900;  144.129;   -9.270;  925.260
917.458;  143.130;  -13.240;  884.220
918.017;  141.342;  -13.550;  942.600
918.576;  140.871;  -12.320;  904.440
919.134;  139.951;  -11.490;  837.980
919.693;  138.165;  -13.670;  893.060
920.251;  136.735;  -15.470;  876.500
920.809;  135.106;  -11.290;  839.580
921.368;  134.933;  -10.210;  885.360
921.926;  133.965;  -12.140;  842.940
922.484;  133.466;  -13.080;  903.360
923.042;  132.264;  -11.720;  880.340
923.601;  135.556;   -7.480;  998.680
924.159;  134.413;  -11.570;  935.560
924.717;  131.383;  -13.840;  841.080
925.275;  129.634;  -10.640;  903.240
925.833;  128.825;  -11.540;  779.320
926.391;  130.599;  -12.960;  938.380
926.949;  128.407;  -14.130;  857.680
927.506;  129.523;  -11.750;  903.500
928.064;  129.647;  -10.250;  877.580
928.622;  129.131;  -13.030;  880.100
929.180;  128.116;  -13.400;  814.180
929.737;  128.914;  -10.700;  808.540
930.295;  132.873;  -10.070;  928.480
930.853;  134.550;  -11.960;  849.100
931.410;  134.637;  -13.120;  821.120
931.968;  134.367;  -10.770;  940.660
932.525;  134.078;  -10.680;  909.380
933.082;  134.529;  -13.130;  811.440
933.640;  136.052;  -13.210;  925.900
934.197;  133.658;  -11.060;  886.360
934.754;  135.228;   -9.580;  897.780
935.312;  138.739;  -14.000;  863.340
935.869;  141.879;  -10.710; 1012.980
936.426;  141.861;   -9.860;  872.800
936.983;  143.149;   -9.710;  889.020
937.540;  143.518;  -13.990;  838.280
938.097;  141.094;  -14.040;  940.120
938.654;  142.060;  -10.310;  898.860
939.211;  143.829;  -10.560;  952.480
939.768;  147.198;  -13.900;  915.420
940.324;  151.326;  -14.760;  904.200
940.881;  150.832;  -10.370;  878.500
941.438;  152.965;   -8.260; 1021.200
941.995;  149.487;  -12.540;  992.560
942.551;  146.714;  -14.670;  875.620
943.108;  146.232;  -10.450;  937.920
943.664;  147.697;  -10.750;  869.340
944.221;  151.620;  -11.550; 1088.140
944.777;  149.436;  -14.770;  869.680
945.334;  149.342;  -12.820;  884.840
945.890;  151.045;  -10.130;  946.480
946.446;  150.438;  -13.470;  947.020
947.003;  152.191;  -12.120;  964.940
947.559;  155.773;   -9.980; 1063.040
948.115;  156.097;   -9.080; 1026.540
948.671;  153.721;  -10.830;  967.300
949.227;  151.060;  -12.440;  859.560
949.783;  148.357;  -12.910;  858.900
950.339;  150.669;  -10.270;  991.000
950.895;  150.731;  -13.630; 1023.840
951.451;  149.809;  -15.100;  925.280
952.007;  148.990;  -11.330;  998.540
952.563;  148.768;  -10.580;  937.780
953.118;  147.563;  -13.440;  904.940
953.674;  146.857;  -12.710;  935.780
954.230;  146.313;  -10.350;  949.640
954.785;  144.952;   -9.190;  936.640
955.341;  144.145;  -11.200;  998.160
955.897;  142.524;  -16.560;  834.660
956.452;  143.038;  -12.570;  953.840
957.008;  143.090;   -7.970; 1083.640
957.563;  141.283;  -11.940; 1009.540
958.118;  135.789;  -13.450;  877.700
958.674;  135.488;  -12.030;  946.780
959.229;  136.633;   -9.410; 1013.980
959.784;  135.500;  -12.000;  832.400
960.339;  133.557;  -14.780; 1001.280
960.894;  130.730;   -9.860;  963.760
961.449;  127.355;   -9.970;  859.960
962.004;  127.690;  -10.900; 1212.840
962.559;  121.074;  -13.150;  860.140
963.114;  119.003;  -13.740;  742.480
963.669;  117.992;   -9.820;  915.500
964.224;  117.305;  -13.890;  874.340
964.779;  116.049;  -12.600;  828.420
965.334;  116.950;  -10.950; 1017.860
965.888;  116.687;  -11.170;  875.360
966.443;  119.397;  -12.540;  972.380
966.998;  118.845;  -15.780;  819.460
967.552;  118.250;   -9.760;  908.380
968.107;  114.345;   -9.060;  868.300
968.661;  116.428;  -11.950;  922.440
969.216;  115.063;  -12.800;  856.280
969.770;  115.365;  -11.210;  917.200
970.324;  114.281;  -11.610;  923.140
970.879;  111.646;  -11.370;  947.180
971.433;  108.236;  -12.540;  952.720
971.987;  103.313;  -11.320;  895.340
972.541;   99.879;  -10.720;  917.100
973.095;  100.377;   -9.680; 1009.460
973.649;   98.949;  -11.440;  809.480
974.203;   97.475;  -11.210;  829.040
974.757;   97.332;  -10.240;  855.220
975.311;   98.608;  -13.720;  872.600
975.865;   97.176;  -13.770;  881.820
976.419;   95.601;  -11.690;  857.400
976.973;   94.914;   -9.510;  849.620
977.526;   97.196;  -12.620;  949.920
978.080;   95.706;  -12.010;  796.780
978.634;   97.118;  -10.170;  921.320
979.187;   94.455;   -9.020;  905.400
979.741;   93.277;   -9.820; 1018.380
980.294;   88.378;  -14.870;  789.160
980.848;   85.873;  -12.380;  717.220
981.401;   87.695;  -10.350;  816.540
981.955;   90.322;  -13.720;  844.300
982.508;   89.175;  -11.490;  746.340
983.061;   89.693;  -10.000;  915.260
983.615;   86.009;  -11.480;  798.800
984.168;   82.858;  -13.220;  770.080
984.721;   82.269;  -13.960;  880.760
985.274;   81.479;  -10.870;  867.500
985.827;   79.682;   -9.790;  834.220
986.380;   78.332;  -13.120;  721.340
986.933;   77.799;  -12.450;  864.800
987.486;   75.879;  -10.210;  861.920
988.039;   74.943;   -8.430;  863.100
988.591;   73.081;  -10.520;  893.260
989.144;   71.212;  -14.860;  737.260
989.697;   69.484;  -13.080;  758.740
990.250;   70.423;  -10.150;  858.100
990.802;   68.764;  -13.430;  755.860
991.355;   71.221;  -12.750;  974.880
991.907;   68.030;  -12.040;  864.320
992.460;   64.838;  -11.330;  753.760
993.012;   65.500;  -13.610;  749.540
993.565;   63.444;  -13.460;  711.360
994.117;   65.314;   -9.360;  950.780
994.669;   62.478;  -11.300;  701.320
995.221;   60.524;  -13.540;  791.920
995.774;   58.917;  -13.430;  787.580
996.326;   56.703;  -12.520;  740.220
996.878;   56.802;  -10.950;  838.420
997.430;   55.308;  -14.300;  699.860
997.982;   54.644;  -13.760;  750.140
998.534;   53.743;  -11.530;  739.060
999.086;   52.118;  -10.310;  738.220
999.638;   51.259;  -12.530;  661.380
1000.190;   50.625;  -11.840;  699.320
1000.741;   50.792;  -10.260;  742.700
1001.293;   49.385;   -8.860;  686.020
1001.845;   49.037;  -13.700;  676.640
1002.396;   49.002;  -12.100;  743.400
1002.948;   48.004;  -12.760;  737.400
1003.500;   46.339;  -10.380;  723.780
1004.051;   47.510;  -11.900;  907.580
1004.603;   45.504;  -12.250;  791.820
1005.154;   41.791;  -13.210;  608.980
1005.705;   40.865;  -10.950;  723.960
1006.257;   40.820;  -13.880;  707.220
1006.808;   40.244;  -12.840;  685.460
1007.359;   39.556;  -10.570;  763.240
1007.910;   38.155;   -9.620;  646.640
1008.461;   38.587;  -13.630;  732.940
1009.013;   38.106;  -17.200;  588.340
1009.564;   38.113;  -10.200;  793.520
1010.115;   36.337;  -12.570;  597.040
1010.665;   35.733;  -15.150;  602.160
1011.216;   36.428;  -14.480;  667.920
1011.767;   34.853;  -11.340;  697.920
1012.318;   35.324;   -9.780;  736.980
1012.869;   34.628;  -12.380;  679.000
1013.419;   34.554;  -15.560;  603.120
1013.970;   34.416;  -11.010;  666.640
1014.521;   33.100;  -11.610;  620.620
1015.071;   34.631;  -13.450;  670.380
1015.622;   33.800;  -13.870;  635.460
1016.172;   32.794;  -11.610;  596.820
1016.723;   32.584;  -12.120;  614.380
1017.273;   32.840;  -13.620;  604.160
1017.823;   33.027;  -14.140;  650.340
1018.374;   31.824;  -12.800;  611.760
1018.924;   31.275;  -12.340;  716.880
1019.474;   32.703;  -11.410;  718.880
1020.024;   31.487;  -14.770;  657.580
1020.574;   31.865;   -9.780;  726.160
1021.124;   31.468;   -8.560;  673.580
1021.674;   30.484;  -15.190;  559.120
1022.224;   32.500;  -13.530;  708.940
1022.774;   31.191;  -13.280;  668.820
1023.324;   31.381;  -10.690;  753.520
1023.874;   32.894;  -10.240;  875.760
1024.423;   30.161;  -12.540;  613.700
1024.973;   29.522;  -10.010;  610.760
1025.523;   29.417;  -10.550;  620.960
1026.072;   28.072;  -13.560;  606.420
1026.622;   28.926;  -15.120;  675.740
1027.172;   29.815;  -11.260;  715.660
1027.721;   28.296;  -11.410;  601.220
1028.270;   28.228;  -13.530;  663.400
1028.820;   28.849;  -13.680;  638.080
1029.369;   27.506;  -13.520;  612.700
1029.918;   27.909;  -10.980;  649.840
1030.468;   27.320;  -13.530;  564.780
1031.017;   27.803;  -13.170;  634.800
1031.566;   26.566;  -12.200;  608.900
1032.115;   27.645;   -9.960;  694.500
1032.664;   25.952;  -13.210;  596.480
1033.213;   27.435;  -12.500;  735.420
1033.762;   26.769;  -11.910;  635.620
1034.311;   26.009;   -9.640;  677.220
1034.860;   26.861;  -13.310;  691.000
1035.408;   27.159;  -11.830;  722.720
1035.957;   26.496;  -12.000;  719.540
1036.506;   24.188;  -11.690;  530.800
1037.055;   27.177;  -10.990;  844.320
1037.603;   25.561;  -15.120;  664.000
1038.152;   24.113;  -12.450;  534.760
1038.700;   24.852;  -10.560;  585.740
1039.249;   24.388;  -11.080;  681.220
1039.797;   24.972;  -12.540;  633.360
1040.345;   24.180;  -11.920;  705.420
1040.894;   24.488;  -11.410;  625.300
1041.442;   24.896;  -14.320;  632.200
1041.990;   23.091;  -16.240;  559.160
1042.538;   22.575;  -11.680;  536.180
1043.087;   22.829;  -10.760;  570.860
1043.635;   23.901;  -11.850;  670.500
1044.183;   23.203;  -15.480;  586.400
1044.731;   22.703;  -11.770;  576.000
1045.279;   21.829;  -13.090;  674.920
1045.827;   24.944;  -12.440;  892.400
1046.374;   21.853;  -13.840;  515.420
1046.922;   21.188;  -13.220;  590.580
1047.470;   23.168;  -10.230;  691.300
1048.018;   22.459;  -14.590;  647.960
1048.565;   22.743;  -12.050;  708.600
1049.113;   20.844;  -11.650;  557.000
1049.660;   20.991;  -10.510;  629.660
1050.208;   21.557;  -13.310;  675.640
1050.755;   20.295;  -15.900;  606.580
1051.303;   21.669;  -11.430;  686.820
1051.850;   20.357;   -8.480;  635.120
1052.397;   19.206;  -15.010;  473.960
1052.945;   20.292;  -13.960;  617.760
1053.492;   21.320;  -13.150;  741.840
1054.039;   21.275;   -9.630;  720.180
1054.586;   19.699;  -13.680;  557.240
1055.133;   21.017;  -14.570;  693.140
1055.680;   20.138;  -13.820;  646.620
1056.227;   19.436;  -11.730;  542.780
1056.774;   20.866;  -12.480;  794.980
1057.321;   19.006;  -13.930;  523.260
1057.868;   18.727;  -11.690;  651.320
1058.415;   19.160;   -9.520;  651.980
1058.961;   19.855;  -13.160;  678.940
1059.508;   19.684;  -12.920;  643.820
1060.055;   18.876;  -11.920;  581.780
1060.601;   18.997;  -11.500;  624.300
1061.148;   18.230;  -14.330;  616.820
1061.694;   17.914;  -16.870;  592.580
1062.241;   17.768;  -10.330;  596.320
1062.787;   18.091;  -10.620;  663.140
1063.334;   20.158;  -10.110;  808.560
1063.880;   18.100;  -13.400;  668.360
1064.426;   18.055;  -10.680;  706.820
1064.972;   16.697;   -9.920;  601.340
1065.518;   16.485;  -10.980;  566.640
1066.065;   17.847;  -14.890;  624.460
1066.611;   16.877;  -12.870;  598.800
1067.157;   17.163;  -12.950;  641.860
1067.703;   17.815;  -13.540;  668.480
1068.249;   17.447;  -13.540;  605.220
1068.794;   16.831;  -12.600;  626.880
1069.340;   15.524;  -10.620;  578.960
1069.886;   17.049;  -12.830;  590.700
1070.432;   15.566;  -14.870;  541.720
1070.977;   15.661;  -11.980;  601.080
1071.523;   16.111;   -8.200;  573.060
1072.068;   16.276;  -12.330;  582.000
1072.614;   15.644;  -16.370;  527.760
1073.160;   16.478;  -11.100;  687.040
1073.705;   15.312;  -10.480;  572.520
1074.250;   15.277;  -14.520;  559.900
1074.796;   16.125;  -11.460;  655.160
1075.341;   16.498;  -11.950;  664.100
1075.886;   14.914;  -11.460;  594.240
1076.431;   15.252;  -13.770;  649.880
1076.976;   14.855;  -12.680;  639.220
1077.521;   13.863;  -13.170;  583.080
1078.067;   13.736;  -10.860;  579.400
1078.612;   14.454;  -13.920;  661.620
1079.156;   14.282;  -13.880;  601.540
1079.701;   14.998;  -13.120;  693.260
1080.246;   14.862;   -9.940;  696.300
1080.791;   14.044;  -14.740;  625.020
1081.336;   14.041;  -13.750;  659.320
1081.880;   13.874;  -13.400;  649.680
1082.425;   12.737;  -12.220;  573.480
1082.970;   14.903;  -11.610;  717.040
1083.514;   12.708;  -13.580;  597.000
1084.059;   12.242;  -12.810;  586.720
1084.603;   11.945;  -12.320;  565.840
1085.147;   12.813;  -13.190;  645.220
1085.692;   14.282;  -12.480;  716.800
1086.236;   12.091;  -13.020;  503.140
1086.780;   13.789;   -9.190;  751.440
1087.325;   13.686;  -12.480;  654.620
1087.869;   12.739;  -12.450;  610.700
1088.413;   12.887;  -12.240;  705.040
1088.957;   11.509;   -9.020;  543.400
1089.501;   13.001;  -10.320;  766.640
1090.045;   12.618;  -12.720;  726.480
1090.589;   10.663;  -13.690;  569.920
1091.133;   11.625;  -10.020;  673.340
1091.676;   11.848;  -12.330;  591.940
1092.220;   11.660;  -14.970;  600.920
1092.764;   12.314;  -12.430;  706.960
1093.307;   11.599;   -9.800;  673.780
1093.851;   10.018;  -14.970;  556.540
1094.395;   11.119;  -15.310;  683.140
1094.938;   10.638;  -10.370;  632.520
1095.482;   10.910;  -11.050;  559.800
1096.025;   11.451;  -11.840;  710.880
1096.568;   11.956;  -12.840;  779.280
1097.112;    8.823;  -14.700;  508.180
1097.655;   11.060;   -8.720;  603.000
1098.198;   10.080;  -13.610;  600.180
1098.741;    9.930;  -13.350;  612.860
1099.285;   10.518;  -11.230;  657.300
1099.828;    8.872;  -11.840;  439.400
1100.371;    9.676;  -10.840;  608.160
1100.914;    9.867;  -14.190;  682.660
1101.457;   10.202;  -11.240;  679.900
1101.999;    7.543;  -11.270;  584.680
1102.542;   10.418;  -11.480;  641.440
1103.085;    9.050;  -11.750;  658.500
1103.628;    9.758;  -11.400;  762.060
1104.170;    8.861;  -10.490;  588.280
1104.713;    9.117;  -10.600;  646.700
1105.256;    9.211;  -14.360;  557.440
1105.798;    7.330;  -13.210;  499.980
1106.341;    9.191;  -10.270;  728.900
1106.883;    8.435;  -12.200;  521.340
1107.425;    9.262;  -13.110;  668.180
1107.968;    8.058;  -12.840;  612.380
1108.510;    8.712;   -6.480;  684.960
1109.052;    6.715;  -13.940;  612.620
1109.594;    7.473;  -13.690;  554.440
1110.136;    8.914;  -11.880;  643.220
1110.679;    7.281;   -9.500;  633.080
1111.221;    8.032;  -14.160;  604.460
1111.763;    7.352;  -13.980;  559.220
1112.304;    7.398;  -13.880;  547.140
1112.846;    7.717;  -12.210;  666.240
1113.388;   10.378;  -11.390;  942.180
1113.930;    7.359;  -14.540;  694.200
1114.472;    7.323;  -12.640;  606.540
1115.013;    6.090;  -11.620;  551.280
1115.555;    6.101;  -13.640;  587.100
1116.097;    5.717;  -15.380;  579.480
1116.638;    6.897;  -12.640;  684.600
1117.180;    7.347;   -9.850;  667.740
1117.721;    6.829;  -13.690;  568.580
1118.262;    7.564;  -12.680;  677.960
1118.804;    7.102;  -12.530;  637.340
1119.345;    5.500;  -11.690;  578.400
1119.886;    7.351;  -13.380;  704.040
1120.427;    5.675;  -14.070;  589.020
1120.969;    5.311;  -13.500;  597.920
1121.510;    5.291;  -11.480;  563.060
1122.051;    6.142;  -12.830;  723.580
1122.592;    5.018;  -14.290;  655.420
1123.133;    4.575;  -12.400;  547.940
1123.673;    6.676;  -10.130;  706.480
1124.214;    4.987;  -12.930;  612.460
1124.755;    6.457;  -14.380;  639.460
1125.296;    5.728;  -14.000;  627.320
1125.836;    5.203;  -10.070;  691.500
1126.377;    4.766;  -12.640;  599.660
1126.918;    5.374;  -12.960;  614.980
1127.458;    4.158;  -13.350;  622.220
1127.999;    5.170;  -10.750;  656.980
1128.539;    5.087;  -12.350;  694.240
1129.079;    4.160;  -14.860;  632.720
1129.620;    4.166;  -13.840;  558.100
1130.160;    3.975;  -12.330;  539.480
1130.700;    4.541;  -14.530;  640.840
1131.240;    5.581;  -12.530;  643.700
1131.781;    4.239;  -14.450;  619.680
1132.321;    3.705;   -9.790;  599.120
1132.861;    2.797;  -14.860;  564.200
1133.401;    2.924;  -14.290;  593.940
1133.941;    3.763;  -11.750;  626.280
1134.481;    3.049;   -9.920;  597.580
1135.020;    3.408;  -12.290;  609.160
1135.560;    3.538;  -11.650;  674.940
1136.100;    3.029;  -16.270;  501.160
1136.640;    2.434;  -10.890;  510.480
1137.179;    3.020;  -14.180;  537.960
1137.719;    3.318;  -16.250;  605.400
1138.258;    2.723;  -14.230;  587.360
1138.798;    3.264;   -9.090;  663.780
1139.337;    2.175;  -15.130;  482.840
1139.877;    2.696;  -13.680;  642.360
1140.416;    4.495;  -11.320;  878.060
1140.955;    2.258;  -10.860;  535.380
1141.494;    2.428;  -12.920;  669.280
1142.034;    2.210;  -13.930;  583.520
1142.573;    3.151;  -11.440;  646.280
1143.112;    1.729;  -12.000;  553.480
1143.651;    2.222;  -13.670;  536.480
1144.190;    2.918;  -12.730;  691.640
1144.729;    2.192;  -14.560;  607.420
1145.267;    2.743;  -11.830;  584.900
1145.806;    2.484;  -12.230;  637.040
1146.345;    1.260;  -14.130;  635.020
1146.884;    1.722;  -11.590;  622.500
1147.422;    1.397;  -12.550;  533.060
1147.961;    3.136;  -11.180;  708.460
1148.500;    2.556;  -11.510;  669.720
1149.038;    2.460;  -11.640;  632.500
1149.577;    2.299;  -10.130;  698.640
1150.115;   -0.101;  -13.970;  452.280
1150.653;    1.182;  -14.520;  607.340
1151.192;    1.375;  -12.810;  552.920
1151.730;    0.641;   -9.100;  652.560
1152.268;    0.593;  -12.220;  589.520
1152.806;    1.363;  -14.140;  571.180
1153.344;    0.078;  -12.350;  577.640
1153.882;    1.063;   -8.980;  600.060
1154.421;   -0.153;  -15.190;  470.620
1154.958;    0.461;  -15.210;  595.240
1155.496;    0.978;  -12.850;  645.280
1156.034;    0.779;   -9.940;  721.880
1156.572;    1.453;  -13.570;  667.060
1157.110;   -0.581;  -14.590;  473.940
1157.647;    0.962;  -13.030;  676.960
1158.185;   -0.176;  -12.140;  564.320
1158.723;   -0.267;  -14.390;  509.200
1159.260;    0.795;  -14.090;  701.700
1159.798;    0.702;  -11.920;  658.160
1160.335;   -0.766;  -11.110;  631.820

