
Integration time [ms]:   3.276
Averaging Nr. [scans]: 1000
Smoothing Nr. [pixels]: 0
Data measured with spectrometer [name]: 7414430SP
Wave   ;Sample   ;Dark     ;Reference
[nm]   ;[counts] ;[counts] ;[counts] 

288.544;  150.009;    7.793;  793.890
289.143;  154.466;    7.462;  681.602
289.742;  155.536;    8.602;  828.814
290.341;  139.932;    1.321;  789.841
290.940;  128.387;   -0.709;  730.702
291.538;  129.208;    0.881;  881.108
292.137;  130.445;    0.122;  792.581
292.736;  133.942;   -1.929;  975.101
293.335;  130.516;   -8.229;  735.086
293.934;  131.650;   -5.279;  781.677
294.532;  129.340;   -1.369; 1031.958
295.131;  115.465;   -7.641;  834.394
295.730;  115.309;   -8.420;  809.588
296.328;  115.258;   -5.611;  783.442
296.927;  115.945;   -5.781;  779.652
297.525;  116.098;   -6.361;  781.236
298.124;  106.602;  -11.382;  654.009
298.722;  110.174;   -7.641;  761.933
299.321;  108.835;   -6.811;  708.597
299.919;  106.337;   -6.991;  751.918
300.518;  103.200;  -10.362;  689.338
301.116;  105.396;   -9.581;  691.381
301.715;  105.307;   -4.891;  730.222
302.313;  103.706;   -8.801;  704.943
302.911;   99.308;   -8.522;  733.830
303.509;  105.004;   -6.171;  925.627
304.108;  102.937;   -7.311;  760.383
304.706;  102.042;   -8.321;  801.664
305.304;   95.311;  -10.222;  796.707
305.902;  101.909;   -6.021;  784.484
306.500;   97.213;   -4.971;  728.200
307.098;   95.636;   -7.061;  746.560
307.696;   92.979;   -8.801;  780.432
308.294;   94.516;   -6.411;  731.359
308.892;   96.353;   -2.901;  759.769
309.490;   91.844;   -5.041;  712.161
310.088;   90.283;   -5.002;  788.444
310.686;   95.087;   -2.041;  821.749
311.284;   90.320;   -2.351;  766.040
311.882;   88.066;   -4.422;  731.225
312.480;   84.183;   -4.192;  697.167
313.078;   87.305;   -1.172;  808.331
313.675;   87.882;   -2.601;  691.600
314.273;   82.641;   -1.312;  797.837
314.871;   82.001;   -3.942;  589.829
315.468;   79.397;   -2.802;  652.090
316.066;   83.336;   -0.701;  694.427
316.664;   75.326;   -4.362;  656.351
317.261;   79.114;   -2.872;  910.128
317.859;   75.145;   -2.022;  768.735
318.456;   76.131;   -0.531;  830.096
319.054;   71.215;   -3.912;  787.828
319.651;   70.294;   -4.752;  759.928
320.249;   69.649;   -2.602;  810.188
320.846;   67.299;   -0.821;  714.286
321.443;   64.972;   -4.642;  832.135
322.041;   60.632;   -5.002;  812.315
322.638;   58.706;   -3.982;  701.456
323.235;   60.678;   -3.411;  665.683
323.833;   57.534;   -7.361;  740.354
324.430;   53.248;   -8.611;  615.900
325.027;   54.054;   -4.061;  876.855
325.624;   53.200;   -4.031;  644.532
326.221;   50.407;   -7.481;  689.717
326.818;   50.526;   -5.281;  818.332
327.415;   53.732;   -7.460;  748.828
328.012;   53.680;   -5.510;  690.585
328.609;   52.241;   -7.880;  731.389
329.206;   49.535;   -8.331;  778.621
329.803;   49.640;   -5.121;  737.841
330.400;   53.037;   -4.510;  704.260
330.997;   53.851;   -6.441;  817.147
331.594;   52.015;   -8.831;  788.185
332.191;   58.162;   -7.621;  728.722
332.787;   60.281;   -4.591;  844.463
333.384;   59.001;   -7.412;  763.093
333.981;   57.190;   -8.293;  815.687
334.578;   60.876;   -7.052;  708.378
335.174;   63.764;   -3.102;  731.469
335.771;   62.410;   -5.943;  836.456
336.367;   59.652;   -7.393;  710.631
336.964;   63.961;   -4.063;  793.266
337.561;   61.989;   -3.813;  731.112
338.157;   57.000;   -4.654;  911.916
338.754;   54.794;   -7.934;  796.589
339.350;   53.308;   -4.414;  722.493
339.946;   54.575;   -4.664;  773.135
340.543;   46.891;   -6.375;  846.136
341.139;   40.606;   -9.815;  720.836
341.735;   39.194;   -4.526;  772.593
342.332;   38.768;   -4.895;  691.472
342.928;   38.286;   -4.295;  795.394
343.524;   32.392;   -5.476;  761.684
344.120;   29.034;   -5.856;  738.562
344.716;   31.888;   -2.155;  723.717
345.313;   29.768;   -6.275;  795.342
345.909;   24.178;   -8.815;  627.336
346.505;   26.654;   -5.305;  740.247
347.101;   27.162;   -2.674;  827.864
347.697;   26.954;   -4.344;  785.398
348.293;   21.755;   -9.975;  627.244
348.889;   23.374;   -5.774;  745.914
349.485;   21.192;   -5.004;  688.205
350.081;   22.436;   -4.704;  772.592
350.676;   17.456;   -6.635;  691.606
351.272;   22.379;   -4.504;  809.530
351.868;   22.539;   -3.914;  780.497
352.464;   18.419;   -9.044;  723.932
353.059;   15.022;   -8.314;  646.017
353.655;   18.709;   -7.024;  777.063
354.251;   19.854;   -5.343;  759.845
354.846;   13.593;   -8.604;  740.646
355.442;   11.350;   -6.945;  753.071
356.038;   14.047;   -7.564;  751.708
356.633;   14.681;   -5.814;  728.594
357.229;   12.108;   -7.364;  724.757
357.824;    9.669;   -8.024;  703.600
358.420;    9.656;   -9.384;  679.726
359.015;   10.392;   -5.104;  695.357
359.610;   10.998;   -6.854;  763.920
360.206;    4.542;  -10.185;  603.240
360.801;    7.857;   -7.054;  646.503
361.396;   10.132;   -5.034;  725.975
361.992;    5.513;   -8.284;  668.220
362.587;    1.845;   -8.625;  670.160
363.182;    4.960;   -7.674;  689.631
363.777;    5.315;   -5.164;  738.242
364.372;    5.076;   -8.604;  737.314
364.967;    1.314;   -9.055;  680.744
365.563;    5.672;   -6.114;  815.567
366.158;    2.871;   -5.814;  685.161
366.753;    3.318;   -7.854;  649.263
367.348;    1.495;   -7.804;  746.056
367.942;    1.508;   -7.954;  697.298
368.537;    0.545;   -4.984;  754.245
369.132;    1.384;   -8.564;  703.428
369.727;   -3.828;   -8.855;  638.079
370.322;   -2.178;   -6.245;  580.186
370.917;   -1.858;   -6.425;  710.646
371.511;   -0.150;   -6.294;  861.834
372.106;   -3.422;   -7.685;  776.964
372.701;   -5.423;   -7.335;  585.988
373.296;   -0.821;   -4.564;  863.135
373.890;   -4.930;  -10.235;  647.840
374.485;   -7.785;   -7.885;  691.199
375.079;   -3.314;   -7.324;  738.685
375.674;   -2.234;   -3.494;  812.970
376.268;   -6.410;   -8.525;  691.759
376.863;  -13.048;  -10.086;  580.327
377.457;   -6.010;   -7.025;  662.490
378.052;   -7.558;   -3.585;  764.884
378.646;   -8.671;   -7.595;  741.167
379.240;   -9.796;   -8.335;  721.176
379.835;   -8.099;   -5.785;  636.978
380.429;   -9.883;   -4.335;  562.557
381.023;   -9.822;   -6.805;  779.205
381.617;  -12.372;   -9.195;  680.106
382.212;   -9.025;   -6.905;  685.303
382.806;   -9.189;   -3.745;  760.690
383.400;  -12.354;   -7.745;  672.281
383.994;  -13.595;   -9.765;  664.870
384.588;   -9.542;   -6.564;  697.701
385.182;   -8.088;   -5.344;  726.624
385.776;   -9.944;   -8.514;  706.875
386.370;  -13.141;   -9.555;  681.968
386.964;  -11.631;   -8.715;  684.155
387.558;  -10.197;   -6.174;  598.360
388.152;  -13.566;   -8.725;  681.959
388.745;  -12.211;   -7.965;  814.707
389.339;  -10.675;   -5.924;  747.642
389.933;   -8.666;   -5.524;  695.370
390.527;  -10.855;   -7.114;  859.029
391.120;  -16.904;  -10.725;  595.318
391.714;  -14.055;   -8.035;  711.633
392.308;  -10.560;   -3.574;  780.253
392.901;  -14.482;   -7.245;  642.460
393.495;  -16.273;   -9.285;  595.414
394.089;  -13.994;   -5.895;  760.452
394.682;  -14.928;   -4.295;  697.188
395.275;  -15.049;   -9.875;  719.927
395.869;  -16.402;   -8.485;  667.314
396.462;  -15.194;   -7.455;  616.609
397.056;  -10.229;   -5.424;  776.621
397.649;  -15.285;   -6.605;  731.575
398.242;  -13.539;   -8.224;  712.645
398.836;  -11.594;   -7.474;  766.408
399.429;  -13.393;   -7.094;  631.041
400.022;  -16.850;   -9.475;  665.902
400.615;  -14.675;   -7.145;  805.609
401.208;  -12.349;   -7.174;  691.451
401.802;  -14.238;   -5.515;  699.329
402.395;  -15.987;   -9.875;  683.502
402.988;  -17.189;   -8.845;  696.627
403.581;  -13.314;   -8.874;  646.878
404.174;  -10.546;   -5.324;  686.568
404.767;  -14.532;   -9.575;  638.583
405.360;  -16.662;  -10.965;  621.445
405.953;  -11.366;   -8.764;  759.034
406.545;   -9.852;   -7.514;  725.342
407.138;  -14.940;  -10.025;  618.350
407.731;  -14.339;  -10.034;  613.303
408.324;   -9.130;   -9.374;  660.554
408.917;  -10.012;   -6.534;  681.864
409.509;  -12.806;   -8.004;  740.396
410.102;  -14.830;   -9.875;  643.948
410.695;   -8.231;   -8.604;  665.758
411.287;   -9.271;   -6.794;  599.821
411.880;  -11.043;   -9.334;  585.421
412.472;  -14.107;  -10.254;  613.092
413.065;  -10.573;   -6.714;  629.408
413.657;   -8.256;   -7.234;  576.678
414.250;   -8.672;  -10.544;  646.681
414.842;  -10.171;   -9.744;  676.353
415.434;   -8.035;   -6.994;  570.463
416.027;   -4.789;   -5.893;  652.196
416.619;   -5.789;   -7.264;  713.400
417.211;   -6.806;  -10.374;  599.352
417.804;   -3.127;   -7.993;  628.499
418.396;   -6.869;   -7.234;  607.643
418.988;   -4.978;   -9.443;  659.238
419.580;   -8.413;  -10.724;  568.276
420.172;   -6.339;  -10.323;  536.196
420.764;   -1.677;   -8.793;  672.482
421.356;   -3.542;  -11.143;  636.898
421.948;   -4.272;   -8.293;  677.661
422.540;    1.696;   -7.893;  680.027
423.132;   -0.019;   -7.082;  600.641
423.724;   -2.841;   -8.653;  561.267
424.316;   -2.012;  -10.213;  621.345
424.908;    2.674;   -9.762;  591.517
425.500;    3.292;   -5.572;  647.978
426.092;    3.802;   -8.422;  648.268
426.683;    1.946;   -9.283;  684.836
427.275;    5.301;   -7.852;  641.471
427.867;    7.059;   -5.272;  668.948
428.458;    7.965;   -7.682;  732.344
429.050;    5.600;  -10.612;  680.749
429.642;    8.224;   -9.882;  743.124
430.233;    8.649;   -6.962;  569.356
430.825;    9.669;   -6.842;  724.809
431.416;    6.956;   -9.672;  698.241
432.008;   11.179;   -6.552;  651.723
432.599;   11.871;   -6.891;  656.073
433.190;    7.810;  -10.912;  637.670
433.782;    7.331;  -11.172;  590.395
434.373;   15.297;   -6.061;  884.765
434.964;   13.658;   -8.251;  602.920
435.556;   11.368;   -9.722;  634.537
436.147;   13.898;   -9.082;  758.490
436.738;   14.762;   -8.041;  701.099
437.329;   19.558;   -7.341;  721.723
437.920;   12.359;   -8.162;  666.688
438.511;   11.669;  -11.802;  564.526
439.103;   19.066;  -10.191;  623.998
439.694;   20.580;   -7.601;  681.583
440.285;   21.283;   -8.541;  764.432
440.876;   19.244;   -9.751;  845.738
441.466;   19.160;   -9.401;  575.162
442.057;   23.960;   -7.760;  665.814
442.648;   23.197;   -9.971;  746.255
443.239;   20.997;  -11.001;  620.477
443.830;   27.013;   -7.990;  704.958
444.421;   28.249;   -7.910;  655.474
445.011;   24.573;   -8.131;  693.619
445.602;   24.126;   -7.111;  743.126
446.193;   26.341;  -10.920;  488.117
446.783;   31.074;   -6.500;  640.397
447.374;   25.654;   -8.671;  692.759
447.964;   26.302;  -10.781;  713.770
448.555;   34.944;   -9.650;  822.742
449.145;   31.400;   -8.660;  662.853
449.736;   32.366;   -8.990;  803.179
450.326;   31.843;   -9.500;  713.626
450.917;   37.663;   -8.680;  675.324
451.507;   37.151;   -7.520;  600.661
452.097;   37.048;   -8.590;  746.267
452.688;   37.522;  -11.340;  742.160
453.278;   37.098;  -10.100;  566.840
453.868;   42.086;   -6.019;  793.550
454.458;   39.781;   -9.440;  651.141
455.048;   40.068;  -10.560;  711.783
455.639;   42.463;  -11.799;  567.096
456.229;   45.459;   -6.899;  710.694
456.819;   47.576;   -7.389;  751.158
457.409;   47.525;  -11.119;  773.993
457.999;   49.940;   -9.289;  737.505
458.589;   50.529;   -6.139;  686.606
459.179;   50.746;   -8.729;  717.658
459.769;   48.325;   -9.789;  627.099
460.358;   53.492;  -10.259;  797.262
460.948;   52.989;   -7.299;  689.503
461.538;   54.762;  -10.289;  660.677
462.128;   52.808;  -11.269;  664.934
462.717;   59.504;   -9.368;  710.326
463.307;   62.017;   -7.908;  705.846
463.897;   57.864;   -9.599;  656.942
464.486;   56.346;   -9.769;  837.128
465.076;   62.151;   -8.048;  733.776
465.666;   65.477;   -9.358;  652.900
466.255;   62.790;   -7.919;  785.651
466.845;   62.176;  -11.689;  666.749
467.434;   65.373;   -7.818;  725.873
468.023;   66.479;   -7.678;  658.357
468.613;   63.564;  -10.939;  713.946
469.202;   67.893;  -10.118;  646.507
469.791;   72.235;   -9.108;  737.811
470.381;   73.257;   -6.058;  742.813
470.970;   74.201;  -10.428;  711.099
471.559;   72.940;  -10.268;  733.291
472.148;   76.027;   -8.448;  675.737
472.738;   79.046;   -6.917;  765.466
473.327;   77.847;  -11.978;  637.529
473.916;   78.286;  -11.888;  737.446
474.505;   83.382;   -9.437;  751.703
475.094;   86.019;   -6.747;  806.570
475.683;   85.182;   -9.367;  797.699
476.272;   85.047;  -12.637;  730.632
476.861;   87.929;  -10.027;  706.754
477.449;   95.505;   -8.716;  728.487
478.038;   88.829;   -9.577;  692.513
478.627;   90.538;   -9.718;  714.852
479.216;   97.342;   -8.947;  769.441
479.805;   99.548;   -6.256;  783.375
480.393;   99.398;   -7.937; 1008.945
480.982;   98.172;   -7.717;  874.501
481.571;  104.691;   -9.266;  858.333
482.159;  104.996;   -7.636;  705.386
482.748;  104.969;   -9.667;  821.385
483.336;  109.569;  -10.376;  858.209
483.925;  110.698;   -7.147;  774.373
484.513;  117.438;   -7.996;  758.962
485.102;  113.371;  -10.027;  810.965
485.690;  121.772;  -10.446; 1011.050
486.278;  124.269;   -8.446;  979.329
486.867;  125.167;   -6.356;  809.662
487.455;  126.183;   -9.136;  898.229
488.043;  127.370;  -10.646;  748.361
488.631;  136.766;   -7.456; 1005.079
489.220;  140.664;   -6.636;  908.626
489.808;  140.922;  -11.036;  741.415
490.396;  148.156;  -10.246;  914.645
490.984;  154.019;   -8.556;  830.161
491.572;  163.717;   -5.886;  940.315
492.160;  168.793;   -9.486;  919.081
492.748;  179.721;  -10.976;  884.341
493.336;  200.954;   -8.776; 1019.693
493.924;  227.534;   -5.465;  958.077
494.512;  253.875;   -9.986; 1066.638
495.100;  287.798;  -10.636; 1103.280
495.687;  341.801;  -10.885; 1206.373
496.275;  403.877;   -8.126; 1150.796
496.863;  469.242;  -10.586; 1281.171
497.451;  564.909;  -11.926; 1386.805
498.038;  695.556;  -10.885; 1556.729
498.626;  799.902;   -6.315; 1741.407
499.214;  943.122;   -7.326; 2016.609
499.801; 1137.677;  -11.906; 2220.633
500.389; 1362.822;  -10.466; 2312.494
500.976; 1660.466;   -5.236; 2744.849
501.564; 2074.604;   -8.936; 3148.565
502.151; 2424.666;  -13.176; 3515.999
502.738; 2836.458;  -10.646; 3971.274
503.326; 3208.175;   -9.525; 4403.796
503.913; 3603.635;  -10.856; 5161.749
504.500; 3975.077;  -11.586; 5986.420
505.088; 4329.945;  -10.336; 6381.201
505.675; 4847.031;   -6.355; 6925.547
506.262; 5514.035;   -9.046; 7619.060
506.849; 6224.797;  -10.416; 8733.969
507.436; 6766.125;  -10.305; 9790.121
508.023; 7318.061;   -5.496; 9985.472
508.610; 7516.755;   -7.856;10434.618
509.197; 8105.971;  -10.097;11198.435
509.784; 9405.449;  -10.886;12391.194
510.371;10531.507;   -9.315;13603.713
510.958;11247.683;   -9.936;14426.586
511.545;11937.842;   -9.326;15243.775
512.132;12769.308;  -10.075;15945.876
512.719;13392.246;   -7.796;16340.369
513.305;14555.683;  -10.606;18011.766
513.892;15242.896;  -11.486;19754.971
514.479;16351.746;   -9.126;20967.805
515.066;17666.605;   -6.026;22299.793
515.652;19123.143;   -8.466;22908.660
516.239;20430.533;  -10.886;23798.875
516.825;21372.518;  -11.496;25567.275
517.412;22517.979;   -5.796;28154.959
517.998;23222.037;  -10.506;28344.111
518.585;23112.064;  -10.076;27134.219
519.171;23604.293;   -8.315;27268.576
519.758;25547.730;   -8.596;28964.129
520.344;27427.584;   -8.466;30664.494
520.930;27070.023;  -11.006;32550.605
521.516;28349.699;  -10.495;35422.895
522.103;30319.498;   -5.526;38280.004
522.689;31040.186;   -8.746;37835.117
523.275;30361.441;  -11.376;37288.613
523.861;31708.938;  -11.156;37281.395
524.447;33491.469;   -8.135;37846.949
525.033;33346.875;   -7.896;38321.949
525.619;33543.301;  -12.476;38579.285
526.205;34917.961;   -9.516;40622.875
526.791;37633.605;   -6.926;42258.836
527.377;37503.223;   -8.346;42966.902
527.963;38594.961;   -8.717;42018.949
528.549;37795.113;  -11.016;42476.828
529.135;36643.875;   -8.536;41854.852
529.721;35705.012;   -9.666;41237.711
530.306;35321.000;  -10.066;41259.445
530.892;35132.852;  -11.356;41506.047
531.478;35879.672;   -6.596;43559.613
532.063;38973.672;   -8.836;47695.563
532.649;39927.289;  -10.047;50808.324
533.235;40682.645;   -9.746;51787.500
533.820;41376.859;   -6.566;52145.035
534.406;42596.484;  -10.817;51133.488
534.991;42456.500;   -9.416;49996.805
535.576;40929.797;   -9.036;48882.852
536.162;41609.738;   -6.156;46942.285
536.747;42884.164;  -11.607;45711.746
537.333;45889.938;  -11.787;48510.180
537.918;48312.758;  -12.437;50439.891
538.503;47503.926;   -7.196;50863.711
539.088;44659.492;  -10.556;50906.922
539.673;45093.492;   -8.767;52621.965
540.259;45402.273;  -10.026;52368.094
540.844;42674.684;   -7.416;50879.109
541.429;44111.363;   -9.467;52077.777
542.014;46274.738;   -9.527;52716.695
542.599;45537.957;   -9.946;52363.281
543.184;42600.527;   -7.927;53187.137
543.769;43855.379;   -9.297;54697.605
544.354;44133.230;  -10.127;53913.914
544.938;42705.121;   -9.267;49680.164
545.523;44284.656;   -6.506;47386.277
546.108;46861.301;   -9.787;49151.949
546.693;48832.758;  -11.587;51384.637
547.278;49170.875;  -10.986;51853.254
547.862;46091.246;   -8.206;51173.750
548.447;41633.148;  -10.067;51691.395
549.031;40885.719;   -9.637;52456.703
549.616;45548.762;   -9.926;52714.516
550.201;45248.035;   -6.347;52414.598
550.785;46523.238;   -7.917;52355.059
551.370;45824.973;  -10.867;54589.453
551.954;45678.727;   -9.047;58267.348
552.538;46381.645;   -7.827;59062.176
553.123;44725.254;  -10.287;58115.285
553.707;42672.176;  -12.178;56556.285
554.291;44071.879;   -8.717;56201.668
554.876;46807.008;   -7.457;55335.762
555.460;46947.648;  -10.387;54155.703
556.044;47221.555;   -9.618;53721.484
556.628;45176.184;  -11.567;53731.016
557.212;44152.848;   -8.097;54312.531
557.796;43100.402;  -11.077;53797.773
558.380;43109.613;  -11.108;56145.984
558.964;43179.223;   -9.057;57277.930
559.548;43848.285;   -6.977;56459.641
560.132;42104.629;  -11.457;54434.543
560.716;40980.754;  -11.378;54800.617
561.300;42371.965;   -9.577;57606.945
561.884;43392.598;   -7.127;58972.445
562.467;41546.391;   -7.118;57327.570
563.051;40523.215;  -13.358;54962.434
563.635;41672.070;  -10.178;52594.473
564.219;42612.770;   -7.837;50610.410
564.802;43322.262;  -11.398;49551.180
565.386;42946.836;  -12.788;48370.953
565.969;42448.590;   -9.077;48178.871
566.553;41510.109;   -6.207;49957.305
567.136;42252.004;   -8.568;50369.594
567.720;38868.758;  -11.868;49492.004
568.303;36838.387;   -8.268;50616.352
568.887;36706.715;   -8.698;50727.148
569.470;37344.059;   -6.808;51698.379
570.053;36574.109;  -13.188;52122.078
570.637;34168.652;  -12.037;52536.438
571.220;33716.031;   -8.577;51186.098
571.803;34547.262;   -8.498;51032.762
572.386;37063.078;  -10.498;49609.887
572.969;39570.883;   -9.388;48285.926
573.552;37695.137;   -8.338;47624.285
574.135;36256.977;   -8.518;45498.641
574.718;33715.180;  -13.628;41970.434
575.301;32879.012;  -10.893;41447.137
575.884;32042.846;   -8.158;40923.836
576.467;33097.059;  -10.328;45267.723
577.050;34786.547;  -13.058;48175.543
577.633;35920.695;   -9.458;47729.328
578.216;34927.809;   -8.928;47579.793
578.799;33791.246;   -9.358;47820.996
579.381;32337.086;  -11.388;48115.551
579.964;30353.605;  -11.718;47333.766
580.547;32326.777;   -8.588;46668.969
581.129;33499.797;   -8.859;44466.141
581.712;34476.117;  -10.729;44164.922
582.294;35063.387;  -11.118;46477.855
582.877;35274.824;   -5.218;48244.254
583.459;33415.473;   -8.679;47437.895
584.042;31227.633;  -10.709;46943.219
584.624;31145.928;  -11.669;46792.227
585.206;30744.182;   -8.218;46557.250
585.789;30954.410;  -10.569;45793.773
586.371;32517.688;  -11.859;43836.391
586.953;31662.736;  -10.719;42972.492
587.536;30305.260;   -7.198;42487.211
588.118;28735.629;   -8.720;42086.414
588.700;26639.506;  -10.439;43389.930
589.282;28642.512;   -9.198;43646.039
589.864;31946.352;   -9.199;43438.109
590.446;34084.914;  -11.319;43151.926
591.028;33972.594;  -11.159;42781.867
591.610;32777.941;  -11.779;42839.098
592.192;30413.078;   -7.668;42820.402
592.774;29227.195;  -11.949;40724.277
593.356;28305.373;  -12.129;39874.789
593.937;27428.818;  -10.669;39980.648
594.519;29791.568;   -6.509;42069.633
595.101;31755.102;  -10.849;42976.031
595.683;31711.889;  -11.679;44084.441
596.264;32547.447;   -9.049;43478.797
596.846;32051.762;   -8.849;43803.672
597.427;31708.428;   -9.570;42986.934
598.009;32852.848;  -12.620;42832.219
598.591;33289.758;  -10.039;42580.086
599.172;32922.707;  -10.369;43061.805
599.753;33070.895;   -9.140;41691.469
600.335;34212.645;  -11.430;40692.520
600.916;32499.037;   -9.939;39982.422
601.498;30586.795;   -8.479;40318.617
602.079;29104.217;  -10.920;40670.609
602.660;28981.896;  -11.480;41450.898
603.241;30619.209;  -11.699;41137.738
603.823;29151.145;   -9.579;38868.797
604.404;28782.162;  -10.620;38182.785
604.985;30416.975;  -10.450;38078.047
605.566;30186.621;   -9.129;38056.633
606.147;30216.660;   -7.510;37020.418
606.728;31831.176;  -10.660;37883.359
607.309;30550.180;  -11.740;38748.273
607.890;30223.395;   -9.759;38850.230
608.471;29750.182;   -8.250;37457.918
609.051;29091.998;   -9.240;36066.457
609.632;27839.139;  -12.120;35991.074
610.213;28218.902;   -9.110;37402.641
610.794;29130.758;   -8.030;38383.363
611.374;29092.164;   -8.110;40562.387
611.955;29704.369;  -13.560;38533.727
612.536;30989.967;  -11.400;36951.789
613.116;30839.451;   -8.070;37197.891
613.697;30973.500;  -10.830;38411.125
614.277;29325.094;  -11.641;38673.938
614.858;30177.883;  -13.310;37075.863
615.438;29737.822;   -7.460;35092.906
616.019;27369.461;   -7.601;33666.301
616.599;27542.783;  -12.020;34189.023
617.179;29059.590;  -11.780;36952.047
617.760;30072.650;   -8.570;39582.574
618.340;30915.299;  -11.471;38943.977
618.920;31788.717;  -11.170;37594.156
619.500;31880.133;  -11.071;37866.938
620.080;31235.734;   -7.750;37869.043
620.660;32460.559;  -12.711;36868.617
621.241;34309.313;  -10.211;36352.309
621.821;34535.051;  -10.961;35459.520
622.401;33195.742;   -7.720;35207.414
622.980;32129.863;   -8.981;35980.422
623.560;30738.840;   -9.331;37351.328
624.140;29675.232;   -9.850;34388.582
624.720;24788.125;   -7.451;32368.764
625.300;21308.063;   -9.070;32638.629
625.880;24660.297;  -12.601;34599.035
626.459;28794.568;  -11.751;36831.738
627.039;31666.939;   -9.281;38299.098
627.619;31527.002;   -8.801;38289.574
628.198;29823.750;  -12.071;37220.695
628.778;28843.939;   -9.461;37632.563
629.357;29663.016;   -8.491;38003.012
629.937;29902.711;   -9.721;38402.039
630.516;29398.146;   -9.951;37868.801
631.096;28995.271;  -11.731;35760.410
631.675;31575.063;   -8.572;35225.219
632.254;36719.148;  -11.282;35130.289
632.834;36170.809;  -13.322;35794.570
633.413;34475.359;  -10.301;35788.922
633.992;31799.842;   -8.582;34532.863
634.571;32336.521;   -8.352;33590.113
635.151;34709.332;  -11.912;34943.863
635.730;33275.520;  -10.511;35352.523
636.309;30156.699;   -7.731;35366.605
636.888;27849.715;   -9.952;36165.637
637.467;28508.182;  -11.672;37515.902
638.046;29954.275;   -8.901;39288.695
638.625;32869.371;   -7.912;38279.699
639.204;32778.875;  -10.022;37741.598
639.782;31755.434;  -12.252;38364.551
640.361;27747.738;  -10.041;36740.621
640.940;25080.594;  -11.161;34950.082
641.519;25670.482;   -9.701;34137.398
642.097;28604.883;  -11.271;35654.258
642.676;31534.158;   -8.651;35637.957
643.255;32489.244;   -8.711;36567.074
643.833;31663.164;   -9.581;37809.434
644.412;31820.863;  -13.711;37337.293
644.990;30881.736;  -11.811;37018.531
645.569;30931.209;   -9.411;36518.469
646.147;30488.699;  -10.291;36186.430
646.726;30250.482;  -12.401;36267.688
647.304;31009.256;  -10.411;36647.625
647.882;32488.596;   -9.651;39286.742
648.461;34230.586;   -9.631;39157.703
649.039;32575.459;  -11.881;35412.883
649.617;31542.930;   -9.661;34744.918
650.195;30879.811;   -9.301;35403.098
650.773;29446.742;  -10.511;35053.797
651.352;27305.311;  -11.521;33756.816
651.930;25107.414;  -12.211;31868.773
652.508;23343.303;   -9.171;33121.551
653.086;27197.574;   -9.371;33564.793
653.663;30060.387;  -13.161;34054.668
654.241;28952.650;  -13.031;35693.309
654.819;30517.320;   -9.371;36422.906
655.397;30287.125;  -10.511;38213.484
655.975;29767.406;  -10.371;39507.625
656.553;29305.039;  -10.051;39498.223
657.130;27966.221;  -10.061;40395.480
657.708;27592.135;   -9.561;39242.020
658.286;27743.088;  -11.511;38920.020
658.863;28694.434;  -10.261;40202.898
659.441;31905.098;   -7.531;39677.938
660.018;31853.248;   -9.501;40413.355
660.596;30502.762;  -13.301;39931.414
661.173;32184.287;  -11.211;39604.531
661.750;32726.365;   -9.951;39700.070
662.328;31939.719;   -9.390;39292.809
662.905;30887.969;  -11.330;38235.648
663.482;26206.109;   -9.050;36212.305
664.060;24303.656;   -8.240;35944.945
664.637;27289.523;  -10.050;35170.785
665.214;28787.482;  -11.760;34197.523
665.791;30286.682;  -10.530;34549.520
666.368;29430.076;   -9.690;35118.578
666.945;30031.311;   -9.320;36019.418
667.522;31440.906;  -11.860;36048.438
668.099;31284.564;  -10.770;36243.914
668.676;29972.270;   -6.260;35958.875
669.253;28628.398;   -7.000;37384.730
669.830;28952.598;  -10.190;36779.629
670.407;28930.146;   -9.550;35231.289
670.984;29066.693;   -9.260;35544.270
671.560;29713.463;   -9.280;35466.867
672.137;28812.166;  -11.810;34280.863
672.714;29903.127;  -11.490;34632.863
673.290;31070.002;   -7.740;35135.422
673.867;31084.643;  -10.660;36114.480
674.443;30714.658;  -12.230;36152.859
675.020;28697.574;  -10.450;35327.238
675.596;29898.475;   -9.260;35795.176
676.173;30680.676;  -10.780;35430.355
676.749;30239.699;  -13.690;33549.516
677.326;29901.363;  -11.980;32210.012
677.902;29767.443;   -8.630;32068.871
678.478;29101.230;  -10.730;32583.891
679.054;28334.828;  -10.520;32088.928
679.631;28788.359;  -11.920;30978.848
680.207;30172.428;   -7.490;33160.887
680.783;31628.223;   -9.860;35570.363
681.359;30757.346;  -13.380;36125.184
681.935;30558.813;  -12.480;35240.922
682.511;30279.814;   -7.900;34429.961
683.087;30610.449;   -7.710;34463.680
683.663;29985.643;  -11.480;34648.898
684.239;28463.852;  -14.090;34546.457
684.815;27733.549;   -7.560;35586.375
685.390;27805.203;   -9.910;35821.895
685.966;28339.439;  -11.159;35085.871
686.542;31058.307;  -11.169;34198.230
687.118;33379.621;   -5.959;32847.707
687.693;33589.250;  -10.329;32794.027
688.269;33283.957;  -12.059;33072.367
688.844;31453.654;  -10.909;33141.664
689.420;29475.619;   -8.019;33965.742
689.995;27640.814;   -8.399;34655.523
690.571;26413.055;  -10.949;33576.742
691.146;26525.539;   -9.619;32657.219
691.722;26249.324;   -8.999;32526.979
692.297;26145.705;  -11.589;33014.617
692.872;27537.344;  -11.739;34012.254
693.448;27176.652;  -11.059;34237.434
694.023;26174.125;  -10.139;34142.672
694.598;28311.389;   -9.029;34132.031
695.173;29007.746;  -13.319;34205.250
695.748;28057.678;  -10.169;32882.488
696.323;27791.174;   -8.339;32864.906
696.898;27911.238;   -8.169;33170.004
697.473;27983.645;  -12.309;32432.984
698.048;27208.838;  -10.989;31649.303
698.623;26987.303;   -9.329;30778.141
699.198;28604.957;   -9.849;31140.119
699.773;29938.207;  -12.329;31764.299
700.348;28804.658;  -10.389;31780.816
700.922;28689.512;   -9.269;32046.375
701.497;29438.426;   -9.329;32603.574
702.072;29431.383;  -10.789;34799.871
702.646;28187.971;  -10.839;35793.172
703.221;26426.160;   -9.099;35201.590
703.795;28332.949;  -10.939;34764.527
704.370;28685.572;  -12.859;34307.367
704.944;28823.553;  -11.559;33509.887
705.519;29509.672;   -7.939;31388.584
706.093;30845.629;  -10.499;31340.104
706.668;31189.615;  -11.289;32630.281
707.242;30170.416;  -11.509;32728.779
707.816;28960.564;   -9.639;32947.238
708.390;27446.924;  -11.429;33277.855
708.965;27991.252;  -11.869;33834.336
709.539;28251.734;  -11.689;33709.273
710.113;28290.945;  -10.478;33044.313
710.687;27551.469;  -10.228;31953.992
711.261;25967.648;  -13.698;30505.949
711.835;25977.957;  -13.378;30262.369
712.409;26557.098;   -9.698;31254.447
712.983;28461.074;  -11.898;32754.986
713.557;29682.801;  -15.138;34018.824
714.131;29500.584;  -14.098;34579.625
714.704;28444.398;   -9.958;33890.262
715.278;25941.219;  -10.028;33531.102
715.852;24881.311;  -11.148;33601.660
716.425;26072.359;   -9.068;33515.117
716.999;27164.316;  -10.038;33185.555
717.573;28010.607;   -9.798;33905.996
718.146;28961.756;  -12.378;35199.293
718.720;28961.605;  -11.918;35060.551
719.293;28851.318;   -8.088;34973.230
719.867;31759.957;  -10.888;36394.449
720.440;31336.027;  -11.938;36663.008
721.013;29421.928;  -12.818;35102.426
721.587;27882.648;  -10.298;33985.266
722.160;26781.885;  -10.048;33524.965
722.733;25922.539;  -12.108;32987.043
723.306;26342.771;  -10.818;33066.301
723.880;28326.627;   -8.908;33399.500
724.453;30223.619;   -9.878;33468.297
725.026;29377.199;  -11.188;33816.637
725.599;26818.178;  -11.678;32797.996
726.172;27050.660;   -9.618;33187.434
726.745;28151.695;   -8.258;35136.613
727.318;29510.051;  -12.978;35751.730
727.891;30034.225;  -12.148;35890.430
728.463;29442.400;   -8.968;34822.090
729.036;28096.926;  -10.188;32895.086
729.609;28603.543;  -11.788;31823.225
730.182;25801.570;  -11.788;31445.283
730.754;23470.176;  -10.268;32373.223
731.327;23893.086;   -9.998;33676.820
731.900;24427.844;  -12.228;33417.000
732.472;25289.316;  -13.848;31978.498
733.045;26769.072;   -8.698;30368.777
733.617;26698.141;  -10.607;30574.215
734.190;26801.512;  -11.507;31280.975
734.762;24322.729;  -13.647;31674.412
735.334;22489.846;   -9.767;31247.291
735.907;22952.229;   -9.897;29876.211
736.479;23098.500;  -11.637;29808.488
737.051;22814.318;   -9.567;30233.547
737.623;23392.859;   -8.187;31469.086
738.195;23906.289;  -11.187;31784.225
738.768;26190.576;  -12.337;32120.523
739.340;26886.709;  -12.227;32094.342
739.912;25794.178;  -11.057;31312.680
740.484;24381.580;  -10.207;31946.238
741.056;22949.506;  -10.047;32984.059
741.628;24228.023;  -13.627;33897.715
742.199;26427.865;   -7.177;33213.016
742.771;25133.654;  -10.797;31369.113
743.343;23041.537;  -11.997;31865.473
743.915;22090.828;  -12.867;32388.631
744.487;22083.680;   -7.617;31079.568
745.058;22028.586;   -9.557;30570.107
745.630;22613.662;   -9.877;29970.127
746.201;23867.695;  -14.177;29186.766
746.773;24641.049;   -9.237;28805.723
747.344;24451.803;   -9.847;29591.223
747.916;22664.693;  -11.657;31412.201
748.487;22681.938;  -10.587;32194.898
749.059;24054.170;   -8.707;32533.719
749.630;24941.660;  -10.537;32158.518
750.201;24214.395;  -11.687;30855.395
750.773;22417.904;  -11.647;28622.555
751.344;22045.678;   -7.147;28405.732
751.915;22878.998;   -9.757;28461.551
752.486;22793.396;  -12.427;27842.850
753.057;20781.508;  -12.227;27845.008
753.628;19646.303;  -10.417;27728.107
754.199;20563.506;  -11.767;27381.086
754.770;21591.340;  -11.187;25882.203
755.341;21820.061;  -10.507;25886.184
755.912;21957.813;   -9.387;26050.861
756.483;21538.176;  -10.647;26798.779
757.054;19670.668;  -11.837;27048.238
757.625;18205.320;  -12.716;26294.838
758.195;18084.490;   -9.666;26142.076
758.766;17878.531;   -8.656;26392.234
759.337;18451.844;  -12.856;26334.594
759.907;19921.178;  -13.366;27579.652
760.478;20802.088;   -8.576;28352.770
761.048;20212.342;  -10.526;27325.088
761.619;19245.547;  -11.116;26460.428
762.189;19419.170;  -12.136;26029.826
762.760;20573.203;   -9.456;26430.145
763.330;21622.322;   -7.136;26670.902
763.900;21110.475;  -11.786;26603.021
764.471;18598.766;  -11.546;25542.740
765.041;17065.225;   -8.096;24358.459
765.611;16872.871;   -8.876;23991.297
766.181;17293.285;  -12.196;24470.236
766.751;18563.324;  -11.636;24845.975
767.321;18292.381;  -10.156;24533.633
767.891;16055.216;  -11.766;24916.492
768.461;15424.523;  -14.936;24776.771
769.031;16029.926;  -12.356;24757.988
769.601;17727.000;   -7.526;24181.088
770.171;17814.219;  -10.766;23670.387
770.741;17047.643;  -13.176;22960.045
771.311;17222.568;  -10.616;22917.523
771.880;17748.400;   -9.576;23562.941
772.450;17699.580;  -10.336;24216.500
773.020;17730.033;  -13.516;24140.398
773.589;16901.305;  -13.466;24414.857
774.159;16214.926;   -8.686;23858.717
774.729;15824.136;   -9.476;22942.135
775.298;15400.720;  -13.666;22324.033
775.867;14936.432;  -11.716;21140.313
776.437;15043.086;   -9.906;20838.092
777.006;14805.932;  -12.166;20599.510
777.576;14489.263;  -12.356;20508.809
778.145;14488.653;  -11.646;20732.947
778.714;14516.575;   -8.226;21062.465
779.283;14010.542;   -9.556;20949.664
779.853;13519.062;  -14.116;20508.623
780.422;13931.739;  -11.506;20649.082
780.991;13499.337;   -9.556;21527.520
781.560;12210.016;   -9.095;22632.658
782.129;11954.209;  -12.135;23048.277
782.698;11947.869;  -10.865;23438.555
783.267;11564.904;   -9.335;23267.734
783.836;11543.705;  -11.045;22415.133
784.404;12560.114;  -13.865;20443.152
784.973;13196.557;  -13.095;19699.150
785.542;13265.596;  -11.575;19763.828
786.111;13138.091;   -9.705;20341.408
786.679;12617.507;  -12.105;20207.967
787.248;12350.715;  -12.455;19516.465
787.817;12133.521;  -11.535;18900.363
788.385;11710.190;   -9.765;17879.121
788.954;11134.682;  -14.005;17658.301
789.522;10568.325;  -11.955;17788.879
790.090;11009.235;  -10.135;18118.277
790.659;11580.185;  -10.975;18338.736
791.227;11152.571;  -13.375;18508.615
791.795;11520.483;  -12.375;17898.254
792.364;11786.032;  -10.725;17295.133
792.932;12090.423;   -9.715;16822.051
793.500;12425.745;  -12.675;17040.148
794.068;12756.781;  -13.495;17179.787
794.636;12924.617;  -10.885;16664.246
795.204;12259.935;  -11.045;16524.545
795.772;12249.246;  -13.175;17274.564
796.340;11760.778;  -12.445;17891.002
796.908;11519.071;   -9.735;17648.561
797.476;11367.567;   -9.815;17064.080
798.044;10929.966;  -13.985;16672.777
798.612;10204.188;  -13.115;17023.996
799.180; 9822.373;  -10.185;16561.615
799.747; 9650.546;   -9.055;15962.773
800.315; 9373.757;  -12.385;15296.992
800.883; 9155.163;  -15.035;14801.771
801.450; 9313.287;  -10.365;14534.430
802.018; 9411.610;   -9.855;14173.248
802.585; 9412.246;  -11.905;14029.547
803.153; 9421.434;  -11.585;13836.846
803.720; 9251.941;   -9.095;13567.324
804.287; 8709.657;   -9.135;13360.622
804.855; 8214.946;  -11.604;13681.981
805.422; 8125.209;  -11.794;13536.560
805.989; 8202.551;  -10.734;13355.958
806.556; 8458.631;  -10.444;13747.896
807.124; 8775.913;  -12.764;13987.376
807.691; 8730.437;  -12.964;14038.674
808.258; 8496.333;  -11.134;14120.152
808.825; 8069.213;   -9.854;13860.111
809.392; 8171.465;  -10.504;13268.790
809.959; 7775.167;  -13.054;12680.389
810.526; 7308.938;   -8.294;12427.308
811.093; 7296.820;   -8.394;12030.105
811.659; 7876.588;  -12.304;11653.664
812.226; 8378.397;  -13.944;11637.183
812.793; 8059.006;  -10.484;11611.521
813.360; 7411.756;  -10.144;11885.181
813.926; 7115.115;  -11.684;12770.539
814.493; 6951.840;  -13.644;12677.638
815.060; 6598.681;   -9.724;11974.336
815.626; 6557.367;   -9.854;11594.715
816.193; 6914.935;  -13.254;11579.474
816.759; 6946.765;  -13.204;11666.972
817.325; 6999.878;   -9.434;11325.530
817.892; 7374.696;  -10.134;11105.369
818.458; 7806.167;  -13.474;10843.928
819.024; 7420.820;  -11.854;10714.406
819.591; 7129.652;  -10.244;10469.165
820.157; 6931.757;  -10.704;10235.523
820.723; 6429.009;  -12.324;10847.563
821.289; 6123.764;   -9.444;11040.980
821.855; 6031.947;   -8.374;10357.100
822.421; 5947.655;  -10.234; 9978.918
822.987; 5866.727;  -13.294; 9754.177
823.553; 5522.431;  -10.884;10065.755
824.119; 5376.631;   -8.884;10036.294
824.685; 5543.029;   -6.784;10029.192
825.251; 5661.429;  -12.004;10199.230
825.816; 5603.672;  -11.474; 9820.189
826.382; 5327.596;   -9.174; 9297.248
826.948; 5492.339;   -9.214; 9381.347
827.513; 5890.377;  -10.774; 9450.726
828.079; 5732.896;  -11.924; 9472.444
828.645; 5147.788;  -10.543; 9292.643
829.210; 4993.224;  -10.533; 9065.341
829.776; 4958.274;  -10.753; 9132.620
830.341; 4833.184;  -10.173; 9092.878
830.906; 5003.157;  -10.743; 9078.557
831.472; 5339.177;  -11.113; 8534.535
832.037; 5127.913;  -10.603; 8677.874
832.602; 4604.354;  -13.323; 8628.692
833.167; 4348.780;  -10.823; 8879.031
833.733; 4287.203;  -10.113; 9189.790
834.298; 4418.270;  -13.583; 9052.608
834.863; 4543.453;  -12.703; 8895.087
835.428; 4567.379;  -10.523; 8824.266
835.993; 4423.810;   -6.963; 8845.385
836.558; 4237.374;  -10.763; 8888.563
837.123; 4309.141;   -9.903; 8966.582
837.688; 4551.406;   -9.913; 8617.860
838.253; 4773.048;  -10.283; 8590.699
838.817; 4950.688;  -12.963; 8443.797
839.382; 4903.388;  -14.243; 8799.356
839.947; 4623.426;  -10.733; 8810.595
840.511; 4314.674;   -9.383; 8796.394
841.076; 3925.285;  -12.563; 8347.231
841.641; 3979.680;  -12.953; 8224.330
842.205; 4069.965;   -7.043; 8223.349
842.770; 4104.456;   -8.163; 8622.107
843.334; 4262.564;  -12.503; 8410.386
843.898; 4244.783;  -11.693; 8337.465
844.463; 4253.730;  -10.203; 8506.283
845.027; 4049.226;   -9.533; 8280.962
845.591; 3872.905;  -13.443; 8231.141
846.156; 3855.869;  -13.143; 7969.179
846.720; 3770.331;   -9.433; 7768.278
847.284; 3653.889;  -11.033; 7630.957
847.848; 3511.948;  -10.403; 7472.395
848.412; 3399.861;  -11.553; 7437.394
848.976; 3429.791;   -8.393; 7674.592
849.540; 3355.756;   -8.713; 7836.011
850.104; 3418.502;  -12.463; 7913.669
850.668; 3773.110;  -12.973; 7694.508
851.232; 3928.648;  -10.793; 7756.887
851.796; 3785.187;  -10.662; 7926.545
852.359; 3463.276;  -13.082; 7827.844
852.923; 3291.214;  -12.192; 7641.163
853.487; 3154.547;  -11.912; 7342.501
854.050; 3137.446;  -10.892; 7042.820
854.614; 3269.408;  -13.992; 7151.338
855.177; 3372.105;  -11.732; 7105.077
855.741; 3410.350;   -8.962; 6989.675
856.304; 3325.723;   -9.442; 6596.634
856.868; 3309.853;  -14.192; 6356.272
857.431; 3432.627;  -12.702; 6468.571
857.995; 3573.895;   -9.942; 6373.210
858.558; 3597.649;   -9.112; 6324.448
859.121; 3322.570;  -12.932; 6408.327
859.684; 3146.977;  -13.442; 6347.886
860.247; 3233.981;  -10.632; 6321.264
860.810; 3252.945;  -11.272; 6301.903
861.374; 3002.505;   -9.832; 6607.881
861.937; 2736.570;  -11.762; 6408.200
862.500; 2736.101;   -9.722; 6572.639
863.062; 2892.359;  -10.512; 6387.297
863.625; 3028.278;  -11.232; 6190.836
864.188; 3189.667;  -14.112; 5807.254
864.751; 3287.930;  -11.302; 5682.413
865.314; 3209.742;  -10.112; 5547.492
865.876; 2989.938;  -12.182; 5500.150
866.439; 2961.364;  -10.722; 5415.909
867.002; 2919.356;   -9.252; 5501.567
867.564; 2719.803;   -9.572; 5413.946
868.127; 2493.494;  -13.142; 5160.325
868.689; 2367.958;  -12.902; 5133.183
869.252; 2249.089;   -9.732; 5252.382
869.814; 2138.942;   -9.432; 5297.141
870.377; 2149.033;  -11.552; 5390.919
870.939; 2225.435;   -9.052; 5599.898
871.501; 2305.241;  -10.982; 5248.336
872.063; 2318.143;  -12.292; 4854.235
872.626; 2253.933;  -14.912; 4817.074
873.188; 2246.381;  -13.112; 4987.732
873.750; 2224.033;  -13.442; 4868.651
874.312; 2144.468;   -9.402; 4779.330
874.874; 2060.870;  -11.062; 4866.348
875.436; 1977.216;  -13.931; 4718.887
875.998; 1971.678;   -9.561; 4660.005
876.560; 1994.968;  -11.321; 4462.964
877.122; 1931.372;  -12.221; 4145.042
877.683; 1831.018;  -12.191; 4056.481
878.245; 1757.775;  -12.101; 3950.740
878.807; 1796.475;   -8.971; 4058.958
879.369; 1819.056;  -12.071; 3954.677
879.930; 1730.559;  -14.621; 3941.495
880.492; 1666.317;  -10.311; 4067.014
881.053; 1627.705;  -10.901; 3859.633
881.615; 1517.816;  -14.411; 3776.071
882.176; 1422.987;  -13.761; 3734.750
882.738; 1378.007;   -9.181; 3678.489
883.299; 1356.317;  -11.791; 3405.407
883.860; 1346.340;  -13.121; 3351.106
884.422; 1326.808;  -11.211; 3394.044
884.983; 1281.475;  -10.091; 3166.443
885.544; 1208.977;   -8.461; 3189.802
886.105; 1132.764;  -12.361; 3160.360
886.666; 1071.094;  -14.141; 3093.059
887.227; 1012.098;  -11.361; 2941.957
887.788;  946.565;  -11.401; 2974.836
888.349;  877.490;  -13.791; 2721.214
888.910;  871.306;  -13.191; 2696.493
889.471;  875.062;   -9.881; 2560.172
890.032;  852.863;   -9.881; 2558.190
890.593;  824.889;  -10.371; 2567.669
891.153;  798.625;  -13.301; 2460.307
891.714;  755.695;  -11.431; 2372.046
892.275;  719.654;  -11.291; 2309.505
892.835;  681.194;  -11.471; 2382.543
893.396;  627.452;  -11.541; 2295.502
893.956;  568.269;  -11.181; 2162.420
894.517;  527.607;  -11.741; 2125.439
895.077;  520.963;  -11.671; 2086.978
895.638;  523.306;  -11.311; 2126.316
896.198;  496.748;   -9.831; 1838.275
896.758;  452.422;   -8.421; 1892.813
897.319;  421.470;  -12.351; 1792.232
897.879;  405.474;  -13.511; 1762.751
898.439;  381.907;  -12.001; 1661.149
898.999;  356.543;  -10.180; 1781.468
899.559;  344.120;  -12.030; 1703.347
900.119;  337.996;  -15.710; 1537.525
900.679;  335.734;   -8.900; 1638.384
901.239;  320.590;   -8.340; 1527.902
901.799;  310.499;  -13.910; 1456.441
902.359;  302.911;  -13.460; 1357.140
902.919;  296.232;  -11.490; 1331.118
903.479;  283.221;  -12.110; 1317.257
904.038;  263.540;  -11.720; 1262.595
904.598;  247.696;  -13.610; 1152.034
905.158;  244.493;  -11.040; 1240.893
905.717;  238.595;  -10.900; 1233.691
906.277;  226.632;  -15.080; 1217.330
906.836;  216.700;  -13.380; 1222.408
907.396;  208.692;  -10.780; 1193.047
907.955;  201.878;   -8.500; 1182.526
908.515;  195.531;  -12.760; 1099.364
909.074;  189.750;  -11.900; 1092.863
909.633;  184.225;   -8.950; 1069.121
910.192;  179.474;   -8.770; 1196.460
910.752;  173.591;  -12.390; 1029.960
911.311;  168.889;  -13.680; 1009.780
911.870;  167.094;  -12.370;  971.460
912.429;  167.993;  -10.900; 1094.080
912.988;  167.157;  -11.690; 1081.060
913.547;  162.762;  -13.240;  940.380
914.106;  158.802;  -11.990;  999.420
914.665;  155.077;   -9.990;  984.020
915.224;  153.836;  -12.880; 1035.760
915.782;  153.542;  -12.350;  922.560
916.341;  154.071;   -9.110; 1049.840
916.900;  149.396;   -9.270;  925.260
917.458;  146.776;  -13.240;  884.220
918.017;  145.965;  -13.550;  942.600
918.576;  146.438;  -12.320;  904.440
919.134;  144.121;  -11.490;  837.980
919.693;  142.386;  -13.670;  893.060
920.251;  140.782;  -15.470;  876.500
920.809;  140.311;  -11.290;  839.580
921.368;  140.018;  -10.210;  885.360
921.926;  137.713;  -12.140;  842.940
922.484;  137.751;  -13.080;  903.360
923.042;  136.532;  -11.720;  880.340
923.601;  140.295;   -7.480;  998.680
924.159;  138.210;  -11.570;  935.560
924.717;  133.722;  -13.840;  841.080
925.275;  134.496;  -10.640;  903.240
925.833;  134.148;  -11.540;  779.320
926.391;  134.637;  -12.960;  938.380
926.949;  132.820;  -14.130;  857.680
927.506;  133.424;  -11.750;  903.500
928.064;  134.328;  -10.250;  877.580
928.622;  133.346;  -13.030;  880.100
929.180;  131.840;  -13.400;  814.180
929.737;  134.626;  -10.700;  808.540
930.295;  137.670;  -10.070;  928.480
930.853;  139.362;  -11.960;  849.100
931.410;  139.539;  -13.120;  821.120
931.968;  139.507;  -10.770;  940.660
932.525;  139.056;  -10.680;  909.380
933.082;  139.618;  -13.130;  811.440
933.640;  140.432;  -13.210;  925.900
934.197;  139.187;  -11.060;  886.360
934.754;  140.136;   -9.580;  897.780
935.312;  142.782;  -14.000;  863.340
935.869;  147.254;  -10.710; 1012.980
936.426;  148.991;   -9.860;  872.800
936.983;  149.166;   -9.710;  889.020
937.540;  148.193;  -13.990;  838.280
938.097;  147.100;  -14.040;  940.120
938.654;  147.157;  -10.310;  898.860
939.211;  150.934;  -10.560;  952.480
939.768;  153.600;  -13.900;  915.420
940.324;  156.975;  -14.760;  904.200
940.881;  159.364;  -10.370;  878.500
941.438;  160.712;   -8.260; 1021.200
941.995;  156.716;  -12.540;  992.560
942.551;  152.032;  -14.670;  875.620
943.108;  153.126;  -10.450;  937.920
943.664;  155.817;  -10.750;  869.340
944.221;  159.417;  -11.550; 1088.140
944.777;  156.684;  -14.770;  869.680
945.334;  157.691;  -12.820;  884.840
945.890;  159.581;  -10.130;  946.480
946.446;  159.403;  -13.470;  947.020
947.003;  160.366;  -12.120;  964.940
947.559;  164.412;   -9.980; 1063.040
948.115;  164.509;   -9.080; 1026.540
948.671;  161.409;  -10.830;  967.300
949.227;  158.738;  -12.440;  859.560
949.783;  157.435;  -12.910;  858.900
950.339;  158.967;  -10.270;  991.000
950.895;  158.985;  -13.630; 1023.840
951.451;  158.195;  -15.100;  925.280
952.007;  158.290;  -11.330;  998.540
952.563;  157.778;  -10.580;  937.780
953.118;  156.196;  -13.440;  904.940
953.674;  155.486;  -12.710;  935.780
954.230;  156.261;  -10.350;  949.640
954.785;  153.130;   -9.190;  936.640
955.341;  151.076;  -11.200;  998.160
955.897;  150.279;  -16.560;  834.660
956.452;  152.433;  -12.570;  953.840
957.008;  151.536;   -7.970; 1083.640
957.563;  149.486;  -11.940; 1009.540
958.118;  143.146;  -13.450;  877.700
958.674;  144.749;  -12.030;  946.780
959.229;  146.901;   -9.410; 1013.980
959.784;  144.517;  -12.000;  832.400
960.339;  143.734;  -14.780; 1001.280
960.894;  139.891;   -9.860;  963.760
961.449;  134.836;   -9.970;  859.960
962.004;  135.400;  -10.900; 1212.840
962.559;  129.394;  -13.150;  860.140
963.114;  127.371;  -13.740;  742.480
963.669;  127.038;   -9.820;  915.500
964.224;  125.505;  -13.890;  874.340
964.779;  124.129;  -12.600;  828.420
965.334;  125.613;  -10.950; 1017.860
965.888;  124.454;  -11.170;  875.360
966.443;  127.875;  -12.540;  972.380
966.998;  127.732;  -15.780;  819.460
967.552;  127.310;   -9.760;  908.380
968.107;  123.418;   -9.060;  868.300
968.661;  124.979;  -11.950;  922.440
969.216;  125.784;  -12.800;  856.280
969.770;  126.501;  -11.210;  917.200
970.324;  126.117;  -11.610;  923.140
970.879;  121.739;  -11.370;  947.180
971.433;  117.421;  -12.540;  952.720
971.987;  112.761;  -11.320;  895.340
972.541;  109.041;  -10.720;  917.100
973.095;  107.558;   -9.680; 1009.460
973.649;  106.563;  -11.440;  809.480
974.203;  106.446;  -11.210;  829.040
974.757;  107.695;  -10.240;  855.220
975.311;  106.581;  -13.720;  872.600
975.865;  100.898;  -13.770;  881.820
976.419;   92.101;  -11.690;  857.400
976.973;   84.706;   -9.510;  849.620
977.526;   80.441;  -12.620;  949.920
978.080;   76.617;  -12.010;  796.780
978.634;   80.528;  -10.170;  921.320
979.187;   81.549;   -9.020;  905.400
979.741;   82.318;   -9.820; 1018.380
980.294;   80.133;  -14.870;  789.160
980.848;   79.929;  -12.380;  717.220
981.401;   82.732;  -10.350;  816.540
981.955;   84.395;  -13.720;  844.300
982.508;   83.730;  -11.490;  746.340
983.061;   85.467;  -10.000;  915.260
983.615;   82.182;  -11.480;  798.800
984.168;   80.550;  -13.220;  770.080
984.721;   80.398;  -13.960;  880.760
985.274;   80.671;  -10.870;  867.500
985.827;   79.444;   -9.790;  834.220
986.380;   77.129;  -13.120;  721.340
986.933;   76.761;  -12.450;  864.800
987.486;   76.132;  -10.210;  861.920
988.039;   75.900;   -8.430;  863.100
988.591;   73.140;  -10.520;  893.260
989.144;   71.035;  -14.860;  737.260
989.697;   70.489;  -13.080;  758.740
990.250;   71.060;  -10.150;  858.100
990.802;   69.848;  -13.430;  755.860
991.355;   70.900;  -12.750;  974.880
991.907;   68.770;  -12.040;  864.320
992.460;   66.639;  -11.330;  753.760
993.012;   67.210;  -13.610;  749.540
993.565;   65.112;  -13.460;  711.360
994.117;   68.072;   -9.360;  950.780
994.669;   64.623;  -11.300;  701.320
995.221;   61.383;  -13.540;  791.920
995.774;   58.483;  -13.430;  787.580
996.326;   56.620;  -12.520;  740.220
996.878;   55.959;  -10.950;  838.420
997.430;   54.291;  -14.300;  699.860
997.982;   53.526;  -13.760;  750.140
998.534;   54.329;  -11.530;  739.060
999.086;   53.158;  -10.310;  738.220
999.638;   52.458;  -12.530;  661.380
1000.190;   50.733;  -11.840;  699.320
1000.741;   50.373;  -10.260;  742.700
1001.293;   51.171;   -8.860;  686.020
1001.845;   49.079;  -13.700;  676.640
1002.396;   50.418;  -12.100;  743.400
1002.948;   49.093;  -12.760;  737.400
1003.500;   48.033;  -10.380;  723.780
1004.051;   48.491;  -11.900;  907.580
1004.603;   45.701;  -12.250;  791.820
1005.154;   43.230;  -13.210;  608.980
1005.705;   42.897;  -10.950;  723.960
1006.257;   41.485;  -13.880;  707.220
1006.808;   41.149;  -12.840;  685.460
1007.359;   41.211;  -10.570;  763.240
1007.910;   40.443;   -9.620;  646.640
1008.461;   39.167;  -13.630;  732.940
1009.013;   39.204;  -17.200;  588.340
1009.564;   39.712;  -10.200;  793.520
1010.115;   37.526;  -12.570;  597.040
1010.665;   37.188;  -15.150;  602.160
1011.216;   36.933;  -14.480;  667.920
1011.767;   37.150;  -11.340;  697.920
1012.318;   36.762;   -9.780;  736.980
1012.869;   35.529;  -12.380;  679.000
1013.419;   35.671;  -15.560;  603.120
1013.970;   35.608;  -11.010;  666.640
1014.521;   35.631;  -11.610;  620.620
1015.071;   35.458;  -13.450;  670.380
1015.622;   34.704;  -13.870;  635.460
1016.172;   34.307;  -11.610;  596.820
1016.723;   34.076;  -12.120;  614.380
1017.273;   33.017;  -13.620;  604.160
1017.823;   34.008;  -14.140;  650.340
1018.374;   32.572;  -12.800;  611.760
1018.924;   33.335;  -12.340;  716.880
1019.474;   33.114;  -11.410;  718.880
1020.024;   31.532;  -14.770;  657.580
1020.574;   32.846;   -9.780;  726.160
1021.124;   32.741;   -8.560;  673.580
1021.674;   30.617;  -15.190;  559.120
1022.224;   32.303;  -13.530;  708.940
1022.774;   32.164;  -13.280;  668.820
1023.324;   32.391;  -10.690;  753.520
1023.874;   33.534;  -10.240;  875.760
1024.423;   30.750;  -12.540;  613.700
1024.973;   30.824;  -10.010;  610.760
1025.523;   30.383;  -10.550;  620.960
1026.072;   29.330;  -13.560;  606.420
1026.622;   28.802;  -15.120;  675.740
1027.172;   31.005;  -11.260;  715.660
1027.721;   30.152;  -11.410;  601.220
1028.270;   29.724;  -13.530;  663.400
1028.820;   29.240;  -13.680;  638.080
1029.369;   28.819;  -13.520;  612.700
1029.918;   29.333;  -10.980;  649.840
1030.468;   28.252;  -13.530;  564.780
1031.017;   28.450;  -13.170;  634.800
1031.566;   28.252;  -12.200;  608.900
1032.115;   28.862;   -9.960;  694.500
1032.664;   27.309;  -13.210;  596.480
1033.213;   28.293;  -12.500;  735.420
1033.762;   28.223;  -11.910;  635.620
1034.311;   27.745;   -9.640;  677.220
1034.860;   28.033;  -13.310;  691.000
1035.408;   27.076;  -11.830;  722.720
1035.957;   28.351;  -12.000;  719.540
1036.506;   25.962;  -11.690;  530.800
1037.055;   27.911;  -10.990;  844.320
1037.603;   25.889;  -15.120;  664.000
1038.152;   24.710;  -12.450;  534.760
1038.700;   26.002;  -10.560;  585.740
1039.249;   25.078;  -11.080;  681.220
1039.797;   25.396;  -12.540;  633.360
1040.345;   24.794;  -11.920;  705.420
1040.894;   24.893;  -11.410;  625.300
1041.442;   24.849;  -14.320;  632.200
1041.990;   23.957;  -16.240;  559.160
1042.538;   24.624;  -11.680;  536.180
1043.087;   23.659;  -10.760;  570.860
1043.635;   25.137;  -11.850;  670.500
1044.183;   23.072;  -15.480;  586.400
1044.731;   23.919;  -11.770;  576.000
1045.279;   23.647;  -13.090;  674.920
1045.827;   25.155;  -12.440;  892.400
1046.374;   21.956;  -13.840;  515.420
1046.922;   23.008;  -13.220;  590.580
1047.470;   23.847;  -10.230;  691.300
1048.018;   23.214;  -14.590;  647.960
1048.565;   23.829;  -12.050;  708.600
1049.113;   22.065;  -11.650;  557.000
1049.660;   21.870;  -10.510;  629.660
1050.208;   22.034;  -13.310;  675.640
1050.755;   21.191;  -15.900;  606.580
1051.303;   22.807;  -11.430;  686.820
1051.850;   21.662;   -8.480;  635.120
1052.397;   19.852;  -15.010;  473.960
1052.945;   20.543;  -13.960;  617.760
1053.492;   22.521;  -13.150;  741.840
1054.039;   22.583;   -9.630;  720.180
1054.586;   20.447;  -13.680;  557.240
1055.133;   20.872;  -14.570;  693.140
1055.680;   21.500;  -13.820;  646.620
1056.227;   19.842;  -11.730;  542.780
1056.774;   21.550;  -12.480;  794.980
1057.321;   19.070;  -13.930;  523.260
1057.868;   19.601;  -11.690;  651.320
1058.415;   19.451;   -9.520;  651.980
1058.961;   20.241;  -13.160;  678.940
1059.508;   19.356;  -12.920;  643.820
1060.055;   19.900;  -11.920;  581.780
1060.601;   19.803;  -11.500;  624.300
1061.148;   19.028;  -14.330;  616.820
1061.694;   18.078;  -16.870;  592.580
1062.241;   19.429;  -10.330;  596.320
1062.787;   19.866;  -10.620;  663.140
1063.334;   20.665;  -10.110;  808.560
1063.880;   18.302;  -13.400;  668.360
1064.426;   18.795;  -10.680;  706.820
1064.972;   18.298;   -9.920;  601.340
1065.518;   16.925;  -10.980;  566.640
1066.065;   17.951;  -14.890;  624.460
1066.611;   17.878;  -12.870;  598.800
1067.157;   19.253;  -12.950;  641.860
1067.703;   17.809;  -13.540;  668.480
1068.249;   17.403;  -13.540;  605.220
1068.794;   16.992;  -12.600;  626.880
1069.340;   16.260;  -10.620;  578.960
1069.886;   16.925;  -12.830;  590.700
1070.432;   16.237;  -14.870;  541.720
1070.977;   16.781;  -11.980;  601.080
1071.523;   17.543;   -8.200;  573.060
1072.068;   17.021;  -12.330;  582.000
1072.614;   15.420;  -16.370;  527.760
1073.160;   17.544;  -11.100;  687.040
1073.705;   16.430;  -10.480;  572.520
1074.250;   14.910;  -14.520;  559.900
1074.796;   16.144;  -11.460;  655.160
1075.341;   16.065;  -11.950;  664.100
1075.886;   15.993;  -11.460;  594.240
1076.431;   15.311;  -13.770;  649.880
1076.976;   14.547;  -12.680;  639.220
1077.521;   14.271;  -13.170;  583.080
1078.067;   14.858;  -10.860;  579.400
1078.612;   14.756;  -13.920;  661.620
1079.156;   14.706;  -13.880;  601.540
1079.701;   15.456;  -13.120;  693.260
1080.246;   16.001;   -9.940;  696.300
1080.791;   14.663;  -14.740;  625.020
1081.336;   14.583;  -13.750;  659.320
1081.880;   14.908;  -13.400;  649.680
1082.425;   14.037;  -12.220;  573.480
1082.970;   14.995;  -11.610;  717.040
1083.514;   13.286;  -13.580;  597.000
1084.059;   13.660;  -12.810;  586.720
1084.603;   13.419;  -12.320;  565.840
1085.147;   13.629;  -13.190;  645.220
1085.692;   13.599;  -12.480;  716.800
1086.236;   12.822;  -13.020;  503.140
1086.780;   15.172;   -9.190;  751.440
1087.325;   13.457;  -12.480;  654.620
1087.869;   13.029;  -12.450;  610.700
1088.413;   13.695;  -12.240;  705.040
1088.957;   11.486;   -9.020;  543.400
1089.501;   14.202;  -10.320;  766.640
1090.045;   12.733;  -12.720;  726.480
1090.589;   11.041;  -13.690;  569.920
1091.133;   13.095;  -10.020;  673.340
1091.676;   12.182;  -12.330;  591.940
1092.220;   11.761;  -14.970;  600.920
1092.764;   13.423;  -12.430;  706.960
1093.307;   12.859;   -9.800;  673.780
1093.851;   10.389;  -14.970;  556.540
1094.395;   11.466;  -15.310;  683.140
1094.938;   11.378;  -10.370;  632.520
1095.482;   11.952;  -11.050;  559.800
1096.025;   11.785;  -11.840;  710.880
1096.568;   12.000;  -12.840;  779.280
1097.112;   10.459;  -14.700;  508.180
1097.655;   11.879;   -8.720;  603.000
1098.198;    9.853;  -13.610;  600.180
1098.741;    9.555;  -13.350;  612.860
1099.285;   10.978;  -11.230;  657.300
1099.828;    9.563;  -11.840;  439.400
1100.371;   10.219;  -10.840;  608.160
1100.914;   10.099;  -14.190;  682.660
1101.457;   10.557;  -11.240;  679.900
1101.999;    9.646;  -11.270;  584.680
1102.542;   10.127;  -11.480;  641.440
1103.085;    8.701;  -11.750;  658.500
1103.628;   10.019;  -11.400;  762.060
1104.170;   10.304;  -10.490;  588.280
1104.713;    9.482;  -10.600;  646.700
1105.256;    8.663;  -14.360;  557.440
1105.798;    8.386;  -13.210;  499.980
1106.341;   10.427;  -10.270;  728.900
1106.883;    9.289;  -12.200;  521.340
1107.425;    8.033;  -13.110;  668.180
1107.968;    8.753;  -12.840;  612.380
1108.510;    9.434;   -6.480;  684.960
1109.052;    8.135;  -13.940;  612.620
1109.594;    7.154;  -13.690;  554.440
1110.136;    8.785;  -11.880;  643.220
1110.679;    7.924;   -9.500;  633.080
1111.221;    9.073;  -14.160;  604.460
1111.763;    7.742;  -13.980;  559.220
1112.304;    7.808;  -13.880;  547.140
1112.846;    8.425;  -12.210;  666.240
1113.388;   10.320;  -11.390;  942.180
1113.930;    7.723;  -14.540;  694.200
1114.472;    7.664;  -12.640;  606.540
1115.013;    6.884;  -11.620;  551.280
1115.555;    6.723;  -13.640;  587.100
1116.097;    5.433;  -15.380;  579.480
1116.638;    7.245;  -12.640;  684.600
1117.180;    7.176;   -9.850;  667.740
1117.721;    7.294;  -13.690;  568.580
1118.262;    7.475;  -12.680;  677.960
1118.804;    7.744;  -12.530;  637.340
1119.345;    6.493;  -11.690;  578.400
1119.886;    7.226;  -13.380;  704.040
1120.427;    5.439;  -14.070;  589.020
1120.969;    6.486;  -13.500;  597.920
1121.510;    5.513;  -11.480;  563.060
1122.051;    5.723;  -12.830;  723.580
1122.592;    4.935;  -14.290;  655.420
1123.133;    5.075;  -12.400;  547.940
1123.673;    7.233;  -10.130;  706.480
1124.214;    5.564;  -12.930;  612.460
1124.755;    6.170;  -14.380;  639.460
1125.296;    6.126;  -14.000;  627.320
1125.836;    7.223;  -10.070;  691.500
1126.377;    5.565;  -12.640;  599.660
1126.918;    5.190;  -12.960;  614.980
1127.458;    4.966;  -13.350;  622.220
1127.999;    6.155;  -10.750;  656.980
1128.539;    5.471;  -12.350;  694.240
1129.079;    4.077;  -14.860;  632.720
1129.620;    4.161;  -13.840;  558.100
1130.160;    4.554;  -12.330;  539.480
1130.700;    4.870;  -14.530;  640.840
1131.240;    4.949;  -12.530;  643.700
1131.781;    4.691;  -14.450;  619.680
1132.321;    4.649;   -9.790;  599.120
1132.861;    3.965;  -14.860;  564.200
1133.401;    3.151;  -14.290;  593.940
1133.941;    4.392;  -11.750;  626.280
1134.481;    3.281;   -9.920;  597.580
1135.020;    3.150;  -12.290;  609.160
1135.560;    4.248;  -11.650;  674.940
1136.100;    3.763;  -16.270;  501.160
1136.640;    2.933;  -10.890;  510.480
1137.179;    3.083;  -14.180;  537.960
1137.719;    3.537;  -16.250;  605.400
1138.258;    2.757;  -14.230;  587.360
1138.798;    4.346;   -9.090;  663.780
1139.337;    2.059;  -15.130;  482.840
1139.877;    2.950;  -13.680;  642.360
1140.416;    4.921;  -11.320;  878.060
1140.955;    1.915;  -10.860;  535.380
1141.494;    2.688;  -12.920;  669.280
1142.034;    1.853;  -13.930;  583.520
1142.573;    3.851;  -11.440;  646.280
1143.112;    3.092;  -12.000;  553.480
1143.651;    2.315;  -13.670;  536.480
1144.190;    3.123;  -12.730;  691.640
1144.729;    2.820;  -14.560;  607.420
1145.267;    2.310;  -11.830;  584.900
1145.806;    3.253;  -12.230;  637.040
1146.345;    1.536;  -14.130;  635.020
1146.884;    2.247;  -11.590;  622.500
1147.422;    2.196;  -12.550;  533.060
1147.961;    3.068;  -11.180;  708.460
1148.500;    3.137;  -11.510;  669.720
1149.038;    2.973;  -11.640;  632.500
1149.577;    3.072;  -10.130;  698.640
1150.115;    0.556;  -13.970;  452.280
1150.653;    0.929;  -14.520;  607.340
1151.192;    1.510;  -12.810;  552.920
1151.730;    2.185;   -9.100;  652.560
1152.268;    1.509;  -12.220;  589.520
1152.806;    0.736;  -14.140;  571.180
1153.344;    0.768;  -12.350;  577.640
1153.882;    1.086;   -8.980;  600.060
1154.421;   -0.486;  -15.190;  470.620
1154.958;    0.404;  -15.210;  595.240
1155.496;    1.816;  -12.850;  645.280
1156.034;    2.000;   -9.940;  721.880
1156.572;    1.682;  -13.570;  667.060
1157.110;   -0.493;  -14.590;  473.940
1157.647;    1.874;  -13.030;  676.960
1158.185;    0.390;  -12.140;  564.320
1158.723;   -0.537;  -14.390;  509.200
1159.260;    0.339;  -14.090;  701.700
1159.798;    1.880;  -11.920;  658.160
1160.335;    0.528;  -11.110;  631.820

