
Integration time [ms]:   3.276
Averaging Nr. [scans]: 1000
Smoothing Nr. [pixels]: 0
Data measured with spectrometer [name]: 7414430SP
Wave   ;Sample   ;Dark     ;Reference
[nm]   ;[counts] ;[counts] ;[counts] 

288.544;  150.858;    7.793;  793.890
289.143;  155.901;    7.462;  681.602
289.742;  154.787;    8.602;  828.814
290.341;  140.585;    1.321;  789.841
290.940;  129.652;   -0.709;  730.702
291.538;  131.062;    0.881;  881.108
292.137;  130.043;    0.122;  792.581
292.736;  134.559;   -1.929;  975.101
293.335;  131.163;   -8.229;  735.086
293.934;  132.050;   -5.279;  781.677
294.532;  130.702;   -1.369; 1031.958
295.131;  115.274;   -7.641;  834.394
295.730;  117.017;   -8.420;  809.588
296.328;  116.281;   -5.611;  783.442
296.927;  116.113;   -5.781;  779.652
297.525;  116.626;   -6.361;  781.236
298.124;  107.284;  -11.382;  654.009
298.722;  111.358;   -7.641;  761.933
299.321;  108.882;   -6.811;  708.597
299.919;  106.973;   -6.991;  751.918
300.518;  103.908;  -10.362;  689.338
301.116;  105.870;   -9.581;  691.381
301.715;  104.905;   -4.891;  730.222
302.313;  104.970;   -8.801;  704.943
302.911;  100.465;   -8.522;  733.830
303.509;  105.335;   -6.171;  925.627
304.108;  103.048;   -7.311;  760.383
304.706;  101.781;   -8.321;  801.664
305.304;   96.383;  -10.222;  796.707
305.902;  102.097;   -6.021;  784.484
306.500;   98.804;   -4.971;  728.200
307.098;   96.749;   -7.061;  746.560
307.696;   93.846;   -8.801;  780.432
308.294;   94.997;   -6.411;  731.359
308.892;   96.497;   -2.901;  759.769
309.490;   92.512;   -5.041;  712.161
310.088;   90.896;   -5.002;  788.444
310.686;   96.020;   -2.041;  821.749
311.284;   91.591;   -2.351;  766.040
311.882;   88.821;   -4.422;  731.225
312.480;   85.856;   -4.192;  697.167
313.078;   87.117;   -1.172;  808.331
313.675;   88.235;   -2.601;  691.600
314.273;   83.180;   -1.312;  797.837
314.871;   82.766;   -3.942;  589.829
315.468;   81.104;   -2.802;  652.090
316.066;   83.186;   -0.701;  694.427
316.664;   76.656;   -4.362;  656.351
317.261;   80.242;   -2.872;  910.128
317.859;   75.897;   -2.022;  768.735
318.456;   76.560;   -0.531;  830.096
319.054;   72.596;   -3.912;  787.828
319.651;   71.427;   -4.752;  759.928
320.249;   70.844;   -2.602;  810.188
320.846;   68.772;   -0.821;  714.286
321.443;   65.188;   -4.642;  832.135
322.041;   62.445;   -5.002;  812.315
322.638;   60.436;   -3.982;  701.456
323.235;   62.078;   -3.411;  665.683
323.833;   58.983;   -7.361;  740.354
324.430;   54.214;   -8.611;  615.900
325.027;   55.330;   -4.061;  876.855
325.624;   54.184;   -4.031;  644.532
326.221;   51.897;   -7.481;  689.717
326.818;   51.746;   -5.281;  818.332
327.415;   55.324;   -7.460;  748.828
328.012;   54.172;   -5.510;  690.585
328.609;   53.139;   -7.880;  731.389
329.206;   51.131;   -8.331;  778.621
329.803;   52.183;   -5.121;  737.841
330.400;   54.403;   -4.510;  704.260
330.997;   54.880;   -6.441;  817.147
331.594;   53.964;   -8.831;  788.185
332.191;   59.789;   -7.621;  728.722
332.787;   62.143;   -4.591;  844.463
333.384;   59.771;   -7.412;  763.093
333.981;   59.465;   -8.293;  815.687
334.578;   62.239;   -7.052;  708.378
335.174;   64.951;   -3.102;  731.469
335.771;   63.342;   -5.943;  836.456
336.367;   61.014;   -7.393;  710.631
336.964;   65.405;   -4.063;  793.266
337.561;   62.274;   -3.813;  731.112
338.157;   57.956;   -4.654;  911.916
338.754;   55.545;   -7.934;  796.589
339.350;   54.342;   -4.414;  722.493
339.946;   56.316;   -4.664;  773.135
340.543;   47.786;   -6.375;  846.136
341.139;   42.716;   -9.815;  720.836
341.735;   40.986;   -4.526;  772.593
342.332;   39.703;   -4.895;  691.472
342.928;   39.003;   -4.295;  795.394
343.524;   33.683;   -5.476;  761.684
344.120;   31.228;   -5.856;  738.562
344.716;   33.086;   -2.155;  723.717
345.313;   31.410;   -6.275;  795.342
345.909;   25.819;   -8.815;  627.336
346.505;   28.087;   -5.305;  740.247
347.101;   28.279;   -2.674;  827.864
347.697;   28.665;   -4.344;  785.398
348.293;   23.334;   -9.975;  627.244
348.889;   25.126;   -5.774;  745.914
349.485;   23.789;   -5.004;  688.205
350.081;   24.275;   -4.704;  772.592
350.676;   19.186;   -6.635;  691.606
351.272;   23.837;   -4.504;  809.530
351.868;   23.540;   -3.914;  780.497
352.464;   20.923;   -9.044;  723.932
353.059;   16.703;   -8.314;  646.017
353.655;   20.846;   -7.024;  777.063
354.251;   22.142;   -5.343;  759.845
354.846;   16.388;   -8.604;  740.646
355.442;   13.621;   -6.945;  753.071
356.038;   15.862;   -7.564;  751.708
356.633;   16.162;   -5.814;  728.594
357.229;   13.905;   -7.364;  724.757
357.824;   11.625;   -8.024;  703.600
358.420;   11.979;   -9.384;  679.726
359.015;   11.892;   -5.104;  695.357
359.610;   13.331;   -6.854;  763.920
360.206;    6.782;  -10.185;  603.240
360.801;    9.651;   -7.054;  646.503
361.396;   11.979;   -5.034;  725.975
361.992;    7.361;   -8.284;  668.220
362.587;    4.564;   -8.625;  670.160
363.182;    6.984;   -7.674;  689.631
363.777;    7.218;   -5.164;  738.242
364.372;    7.419;   -8.604;  737.314
364.967;    4.087;   -9.055;  680.744
365.563;    7.676;   -6.114;  815.567
366.158;    4.616;   -5.814;  685.161
366.753;    5.204;   -7.854;  649.263
367.348;    4.044;   -7.804;  746.056
367.942;    4.279;   -7.954;  697.298
368.537;    2.915;   -4.984;  754.245
369.132;    2.431;   -8.564;  703.428
369.727;   -0.900;   -8.855;  638.079
370.322;    0.551;   -6.245;  580.186
370.917;    0.082;   -6.425;  710.646
371.511;    2.661;   -6.294;  861.834
372.106;   -0.437;   -7.685;  776.964
372.701;   -3.439;   -7.335;  585.988
373.296;    2.444;   -4.564;  863.135
373.890;   -2.812;  -10.235;  647.840
374.485;   -4.927;   -7.885;  691.199
375.079;   -1.264;   -7.324;  738.685
375.674;    0.044;   -3.494;  812.970
376.268;   -4.713;   -8.525;  691.759
376.863;   -9.557;  -10.086;  580.327
377.457;   -3.916;   -7.025;  662.490
378.052;   -5.431;   -3.585;  764.884
378.646;   -7.001;   -7.595;  741.167
379.240;   -6.664;   -8.335;  721.176
379.835;   -4.969;   -5.785;  636.978
380.429;   -7.909;   -4.335;  562.557
381.023;   -7.298;   -6.805;  779.205
381.617;  -10.336;   -9.195;  680.106
382.212;   -6.525;   -6.905;  685.303
382.806;   -5.885;   -3.745;  760.690
383.400;   -9.981;   -7.745;  672.281
383.994;  -11.171;   -9.765;  664.870
384.588;   -6.503;   -6.564;  697.701
385.182;   -5.285;   -5.344;  726.624
385.776;   -7.372;   -8.514;  706.875
386.370;  -10.567;   -9.555;  681.968
386.964;   -8.859;   -8.715;  684.155
387.558;   -7.529;   -6.174;  598.360
388.152;  -10.577;   -8.725;  681.959
388.745;   -9.085;   -7.965;  814.707
389.339;   -7.414;   -5.924;  747.642
389.933;   -5.497;   -5.524;  695.370
390.527;   -8.059;   -7.114;  859.029
391.120;  -14.519;  -10.725;  595.318
391.714;  -10.956;   -8.035;  711.633
392.308;   -6.912;   -3.574;  780.253
392.901;  -11.174;   -7.245;  642.460
393.495;  -13.665;   -9.285;  595.414
394.089;  -11.134;   -5.895;  760.452
394.682;  -11.492;   -4.295;  697.188
395.275;  -12.013;   -9.875;  719.927
395.869;  -13.010;   -8.485;  667.314
396.462;  -11.573;   -7.455;  616.609
397.056;   -7.294;   -5.424;  776.621
397.649;  -11.889;   -6.605;  731.575
398.242;  -10.027;   -8.224;  712.645
398.836;   -8.241;   -7.474;  766.408
399.429;  -10.252;   -7.094;  631.041
400.022;  -13.571;   -9.475;  665.902
400.615;  -10.796;   -7.145;  805.609
401.208;   -9.447;   -7.174;  691.451
401.802;  -11.561;   -5.515;  699.329
402.395;  -12.700;   -9.875;  683.502
402.988;  -14.222;   -8.845;  696.627
403.581;  -10.408;   -8.874;  646.878
404.174;   -7.564;   -5.324;  686.568
404.767;  -10.768;   -9.575;  638.583
405.360;  -13.215;  -10.965;  621.445
405.953;   -8.025;   -8.764;  759.034
406.545;   -6.888;   -7.514;  725.342
407.138;  -10.748;  -10.025;  618.350
407.731;  -10.856;  -10.034;  613.303
408.324;   -5.962;   -9.374;  660.554
408.917;   -6.985;   -6.534;  681.864
409.509;   -9.217;   -8.004;  740.396
410.102;  -10.931;   -9.875;  643.948
410.695;   -4.887;   -8.604;  665.758
411.287;   -5.849;   -6.794;  599.821
411.880;   -7.582;   -9.334;  585.421
412.472;   -9.902;  -10.254;  613.092
413.065;   -7.297;   -6.714;  629.408
413.657;   -5.551;   -7.234;  576.678
414.250;   -5.256;  -10.544;  646.681
414.842;   -6.730;   -9.744;  676.353
415.434;   -3.814;   -6.994;  570.463
416.027;   -0.121;   -5.893;  652.196
416.619;   -2.367;   -7.264;  713.400
417.211;   -3.018;  -10.374;  599.352
417.804;    0.688;   -7.993;  628.499
418.396;   -2.676;   -7.234;  607.643
418.988;   -1.500;   -9.443;  659.238
419.580;   -4.300;  -10.724;  568.276
420.172;   -1.927;  -10.323;  536.196
420.764;    2.009;   -8.793;  672.482
421.356;    0.792;  -11.143;  636.898
421.948;   -0.480;   -8.293;  677.661
422.540;    5.356;   -7.893;  680.027
423.132;    5.051;   -7.082;  600.641
423.724;    0.932;   -8.653;  561.267
424.316;    2.869;  -10.213;  621.345
424.908;    6.801;   -9.762;  591.517
425.500;    7.394;   -5.572;  647.978
426.092;    7.158;   -8.422;  648.268
426.683;    6.591;   -9.283;  684.836
427.275;   10.614;   -7.852;  641.471
427.867;   11.645;   -5.272;  668.948
428.458;   11.590;   -7.682;  732.344
429.050;    9.652;  -10.612;  680.749
429.642;   12.172;   -9.882;  743.124
430.233;   13.513;   -6.962;  569.356
430.825;   13.637;   -6.842;  724.809
431.416;   11.720;   -9.672;  698.241
432.008;   15.228;   -6.552;  651.723
432.599;   16.203;   -6.891;  656.073
433.190;   13.094;  -10.912;  637.670
433.782;   12.172;  -11.172;  590.395
434.373;   19.965;   -6.061;  884.765
434.964;   18.818;   -8.251;  602.920
435.556;   16.230;   -9.722;  634.537
436.147;   18.438;   -9.082;  758.490
436.738;   19.258;   -8.041;  701.099
437.329;   24.497;   -7.341;  721.723
437.920;   17.308;   -8.162;  666.688
438.511;   18.027;  -11.802;  564.526
439.103;   24.611;  -10.191;  623.998
439.694;   25.876;   -7.601;  681.583
440.285;   26.395;   -8.541;  764.432
440.876;   24.774;   -9.751;  845.738
441.466;   24.996;   -9.401;  575.162
442.057;   30.111;   -7.760;  665.814
442.648;   28.248;   -9.971;  746.255
443.239;   26.500;  -11.001;  620.477
443.830;   32.085;   -7.990;  704.958
444.421;   33.993;   -7.910;  655.474
445.011;   29.553;   -8.131;  693.619
445.602;   29.232;   -7.111;  743.126
446.193;   32.031;  -10.920;  488.117
446.783;   36.682;   -6.500;  640.397
447.374;   31.506;   -8.671;  692.759
447.964;   31.443;  -10.781;  713.770
448.555;   41.529;   -9.650;  822.742
449.145;   37.547;   -8.660;  662.853
449.736;   38.217;   -8.990;  803.179
450.326;   37.817;   -9.500;  713.626
450.917;   43.413;   -8.680;  675.324
451.507;   42.018;   -7.520;  600.661
452.097;   42.558;   -8.590;  746.267
452.688;   43.473;  -11.340;  742.160
453.278;   43.958;  -10.100;  566.840
453.868;   49.213;   -6.019;  793.550
454.458;   46.529;   -9.440;  651.141
455.048;   46.659;  -10.560;  711.783
455.639;   48.718;  -11.799;  567.096
456.229;   52.256;   -6.899;  710.694
456.819;   52.667;   -7.389;  751.158
457.409;   54.165;  -11.119;  773.993
457.999;   56.752;   -9.289;  737.505
458.589;   57.020;   -6.139;  686.606
459.179;   56.275;   -8.729;  717.658
459.769;   54.978;   -9.789;  627.099
460.358;   59.420;  -10.259;  797.262
460.948;   60.140;   -7.299;  689.503
461.538;   60.758;  -10.289;  660.677
462.128;   59.597;  -11.269;  664.934
462.717;   65.864;   -9.368;  710.326
463.307;   69.101;   -7.908;  705.846
463.897;   64.883;   -9.599;  656.942
464.486;   63.108;   -9.769;  837.128
465.076;   68.774;   -8.048;  733.776
465.666;   72.371;   -9.358;  652.900
466.255;   70.536;   -7.919;  785.651
466.845;   68.539;  -11.689;  666.749
467.434;   72.599;   -7.818;  725.873
468.023;   74.004;   -7.678;  658.357
468.613;   71.114;  -10.939;  713.946
469.202;   74.329;  -10.118;  646.507
469.791;   79.790;   -9.108;  737.811
470.381;   81.835;   -6.058;  742.813
470.970;   81.140;  -10.428;  711.099
471.559;   81.555;  -10.268;  733.291
472.148;   84.753;   -8.448;  675.737
472.738;   87.145;   -6.917;  765.466
473.327;   86.513;  -11.978;  637.529
473.916;   86.744;  -11.888;  737.446
474.505;   90.153;   -9.437;  751.703
475.094;   94.163;   -6.747;  806.570
475.683;   93.030;   -9.367;  797.699
476.272;   94.624;  -12.637;  730.632
476.861;   97.619;  -10.027;  706.754
477.449;  103.716;   -8.716;  728.487
478.038;   97.896;   -9.577;  692.513
478.627;   99.124;   -9.718;  714.852
479.216;  107.456;   -8.947;  769.441
479.805;  109.264;   -6.256;  783.375
480.393;  108.692;   -7.937; 1008.945
480.982;  107.873;   -7.717;  874.501
481.571;  114.280;   -9.266;  858.333
482.159;  115.187;   -7.636;  705.386
482.748;  115.001;   -9.667;  821.385
483.336;  119.534;  -10.376;  858.209
483.925;  120.202;   -7.147;  774.373
484.513;  127.684;   -7.996;  758.962
485.102;  124.503;  -10.027;  810.965
485.690;  132.755;  -10.446; 1011.050
486.278;  134.905;   -8.446;  979.329
486.867;  136.036;   -6.356;  809.662
487.455;  137.258;   -9.136;  898.229
488.043;  139.569;  -10.646;  748.361
488.631;  148.710;   -7.456; 1005.079
489.220;  152.921;   -6.636;  908.626
489.808;  152.992;  -11.036;  741.415
490.396;  160.877;  -10.246;  914.645
490.984;  168.136;   -8.556;  830.161
491.572;  178.700;   -5.886;  940.315
492.160;  185.005;   -9.486;  919.081
492.748;  196.823;  -10.976;  884.341
493.336;  220.624;   -8.776; 1019.693
493.924;  249.579;   -5.465;  958.077
494.512;  278.785;   -9.986; 1066.638
495.100;  319.019;  -10.636; 1103.280
495.687;  377.782;  -10.885; 1206.373
496.275;  446.800;   -8.126; 1150.796
496.863;  518.826;  -10.586; 1281.171
497.451;  625.997;  -11.926; 1386.805
498.038;  768.945;  -10.885; 1556.729
498.626;  884.915;   -6.315; 1741.407
499.214; 1045.017;   -7.326; 2016.609
499.801; 1260.679;  -11.906; 2220.633
500.389; 1512.690;  -10.466; 2312.494
500.976; 1841.040;   -5.236; 2744.849
501.564; 2305.825;   -8.936; 3148.565
502.151; 2699.250;  -13.176; 3515.999
502.738; 3153.047;  -10.646; 3971.274
503.326; 3563.275;   -9.525; 4403.796
503.913; 4004.175;  -10.856; 5161.749
504.500; 4415.145;  -11.586; 5986.420
505.088; 4810.604;  -10.336; 6381.201
505.675; 5388.415;   -6.355; 6925.547
506.262; 6126.005;   -9.046; 7619.060
506.849; 6902.984;  -10.416; 8733.969
507.436; 7498.488;  -10.305; 9790.121
508.023; 8107.975;   -5.496; 9985.472
508.610; 8331.301;   -7.856;10434.618
509.197; 8989.078;  -10.097;11198.435
509.784;10414.295;  -10.886;12391.194
510.371;11662.495;   -9.315;13603.713
510.958;12428.805;   -9.936;14426.586
511.545;13168.912;   -9.326;15243.775
512.132;14095.480;  -10.075;15945.876
512.719;14752.068;   -7.796;16340.369
513.305;16060.225;  -10.606;18011.766
513.892;16835.326;  -11.486;19754.971
514.479;18027.537;   -9.126;20967.805
515.066;19465.350;   -6.026;22299.793
515.652;21049.947;   -8.466;22908.660
516.239;22476.965;  -10.886;23798.875
516.825;23507.795;  -11.496;25567.275
517.412;24737.809;   -5.796;28154.959
517.998;25515.936;  -10.506;28344.111
518.585;25410.336;  -10.076;27134.219
519.171;25972.156;   -8.315;27268.576
519.758;28078.631;   -8.596;28964.129
520.344;30131.482;   -8.466;30664.494
520.930;29735.383;  -11.006;32550.605
521.516;31100.705;  -10.495;35422.895
522.103;33210.746;   -5.526;38280.004
522.689;33975.883;   -8.746;37835.117
523.275;33264.152;  -11.376;37288.613
523.861;34719.180;  -11.156;37281.395
524.447;36667.676;   -8.135;37846.949
525.033;36501.387;   -7.896;38321.949
525.619;36655.500;  -12.476;38579.285
526.205;38060.102;   -9.516;40622.875
526.791;41080.094;   -6.926;42258.836
527.377;40948.738;   -8.346;42966.902
527.963;42129.938;   -8.717;42018.949
528.549;41267.070;  -11.016;42476.828
529.135;39967.195;   -8.536;41854.852
529.721;38918.520;   -9.666;41237.711
530.306;38460.934;  -10.066;41259.445
530.892;38244.457;  -11.356;41506.047
531.478;39052.473;   -6.596;43559.613
532.063;42356.633;   -8.836;47695.563
532.649;43420.305;  -10.047;50808.324
533.235;44201.188;   -9.746;51787.500
533.820;44879.488;   -6.566;52145.035
534.406;46217.609;  -10.817;51133.488
534.991;46117.867;   -9.416;49996.805
535.576;44392.027;   -9.036;48882.852
536.162;45139.832;   -6.156;46942.285
536.747;46501.313;  -11.607;45711.746
537.333;49710.641;  -11.787;48510.180
537.918;52316.875;  -12.437;50439.891
538.503;51435.000;   -7.196;50863.711
539.088;48306.199;  -10.556;50906.922
539.673;48701.398;   -8.767;52621.965
540.259;48964.262;  -10.026;52368.094
540.844;46074.500;   -7.416;50879.109
541.429;47625.965;   -9.467;52077.777
542.014;49954.457;   -9.527;52716.695
542.599;49164.121;   -9.946;52363.281
543.184;46026.074;   -7.927;53187.137
543.769;47435.996;   -9.297;54697.605
544.354;47675.141;  -10.127;53913.914
544.938;46078.023;   -9.267;49680.164
545.523;47719.836;   -6.506;47386.277
546.108;50467.883;   -9.787;49151.949
546.693;52578.430;  -11.587;51384.637
547.278;52962.469;  -10.986;51853.254
547.862;49750.410;   -8.206;51173.750
548.447;44931.156;  -10.067;51691.395
549.031;44013.016;   -9.637;52456.703
549.616;49004.125;   -9.926;52714.516
550.201;48697.480;   -6.347;52414.598
550.785;50060.438;   -7.917;52355.059
551.370;49274.313;  -10.867;54589.453
551.954;49084.227;   -9.047;58267.348
552.538;49839.609;   -7.827;59062.176
553.123;48043.875;  -10.287;58115.285
553.707;45840.578;  -12.178;56556.285
554.291;47286.422;   -8.717;56201.668
554.876;50192.527;   -7.457;55335.762
555.460;50421.141;  -10.387;54155.703
556.044;50787.566;   -9.618;53721.484
556.628;48555.355;  -11.567;53731.016
557.212;47393.863;   -8.097;54312.531
557.796;46215.922;  -11.077;53797.773
558.380;46242.402;  -11.108;56145.984
558.964;46325.633;   -9.057;57277.930
559.548;46991.652;   -6.977;56459.641
560.132;45022.418;  -11.457;54434.543
560.716;43780.250;  -11.378;54800.617
561.300;45280.570;   -9.577;57606.945
561.884;46386.977;   -7.127;58972.445
562.467;44439.379;   -7.118;57327.570
563.051;43433.074;  -13.358;54962.434
563.635;44725.125;  -10.178;52594.473
564.219;45614.770;   -7.837;50610.410
564.802;46352.516;  -11.398;49551.180
565.386;45951.586;  -12.788;48370.953
565.969;45432.535;   -9.077;48178.871
566.553;44280.527;   -6.207;49957.305
567.136;44994.895;   -8.568;50369.594
567.720;41467.988;  -11.868;49492.004
568.303;39262.070;   -8.268;50616.352
568.887;39105.004;   -8.698;50727.148
569.470;39767.176;   -6.808;51698.379
570.053;38985.656;  -13.188;52122.078
570.637;36407.680;  -12.037;52536.438
571.220;35936.664;   -8.577;51186.098
571.803;36863.324;   -8.498;51032.762
572.386;39617.090;  -10.498;49609.887
572.969;42290.617;   -9.388;48285.926
573.552;40200.605;   -8.338;47624.285
574.135;38562.766;   -8.518;45498.641
574.718;35897.246;  -13.628;41970.434
575.301;35087.992;  -10.893;41447.137
575.884;34278.738;   -8.158;40923.836
576.467;35404.051;  -10.328;45267.723
577.050;37234.461;  -13.058;48175.543
577.633;38571.570;   -9.458;47729.328
578.216;37701.324;   -8.928;47579.793
578.799;36804.969;   -9.358;47820.996
579.381;35692.168;  -11.388;48115.551
579.964;33752.000;  -11.718;47333.766
580.547;35592.492;   -8.588;46668.969
581.129;36197.859;   -8.859;44466.141
581.712;36868.723;  -10.729;44164.922
582.294;37381.523;  -11.118;46477.855
582.877;37649.695;   -5.218;48244.254
583.459;35835.711;   -8.679;47437.895
584.042;33611.395;  -10.709;46943.219
584.624;33587.961;  -11.669;46792.227
585.206;33330.723;   -8.218;46557.250
585.789;33970.367;  -10.569;45793.773
586.371;36473.293;  -11.859;43836.391
586.953;37003.926;  -10.719;42972.492
587.536;37986.531;   -7.198;42487.211
588.118;38205.574;   -8.720;42086.414
588.700;34456.566;  -10.439;43389.930
589.282;33543.195;   -9.198;43646.039
589.864;34431.895;   -9.199;43438.109
590.446;35477.828;  -11.319;43151.926
591.028;35083.898;  -11.159;42781.867
591.610;33841.230;  -11.779;42839.098
592.192;31340.617;   -7.668;42820.402
592.774;30115.846;  -11.949;40724.277
593.356;29174.242;  -12.129;39874.789
593.937;28298.359;  -10.669;39980.648
594.519;30728.873;   -6.509;42069.633
595.101;32753.896;  -10.849;42976.031
595.683;32747.641;  -11.679;44084.441
596.264;33634.102;   -9.049;43478.797
596.846;33148.051;   -8.849;43803.672
597.427;32759.934;   -9.570;42986.934
598.009;33918.824;  -12.620;42832.219
598.591;34373.188;  -10.039;42580.086
599.172;34006.520;  -10.369;43061.805
599.753;34116.535;   -9.140;41691.469
600.335;35224.746;  -11.430;40692.520
600.916;33436.125;   -9.939;39982.422
601.498;31504.260;   -8.479;40318.617
602.079;30016.625;  -10.920;40670.609
602.660;29864.893;  -11.480;41450.898
603.241;31587.410;  -11.699;41137.738
603.823;30126.121;   -9.579;38868.797
604.404;29705.299;  -10.620;38182.785
604.985;31346.695;  -10.450;38078.047
605.566;31139.311;   -9.129;38056.633
606.147;31162.268;   -7.510;37020.418
606.728;32844.387;  -10.660;37883.359
607.309;31563.773;  -11.740;38748.273
607.890;31198.828;   -9.759;38850.230
608.471;30663.375;   -8.250;37457.918
609.051;30014.668;   -9.240;36066.457
609.632;28712.549;  -12.120;35991.074
610.213;29078.100;   -9.110;37402.641
610.794;30039.637;   -8.030;38383.363
611.374;29950.805;   -8.110;40562.387
611.955;30576.729;  -13.560;38533.727
612.536;31901.572;  -11.400;36951.789
613.116;31753.504;   -8.070;37197.891
613.697;31934.785;  -10.830;38411.125
614.277;30214.752;  -11.641;38673.938
614.858;31094.920;  -13.310;37075.863
615.438;30613.797;   -7.460;35092.906
616.019;28150.557;   -7.601;33666.301
616.599;28326.625;  -12.020;34189.023
617.179;29890.775;  -11.780;36952.047
617.760;30929.531;   -8.570;39582.574
618.340;31802.838;  -11.471;38943.977
618.920;32734.705;  -11.170;37594.156
619.500;32781.660;  -11.071;37866.938
620.080;32099.881;   -7.750;37869.043
620.660;33338.430;  -12.711;36868.617
621.241;35222.777;  -10.211;36352.309
621.821;35423.367;  -10.961;35459.520
622.401;34008.992;   -7.720;35207.414
622.980;32937.820;   -8.981;35980.422
623.560;31522.924;   -9.331;37351.328
624.140;30398.379;   -9.850;34388.582
624.720;25386.977;   -7.451;32368.764
625.300;21818.561;   -9.070;32638.629
625.880;25266.910;  -12.601;34599.035
626.459;29502.682;  -11.751;36831.738
627.039;32459.119;   -9.281;38299.098
627.619;32370.924;   -8.801;38289.574
628.198;30629.424;  -12.071;37220.695
628.778;29560.209;   -9.461;37632.563
629.357;30326.482;   -8.491;38003.012
629.937;30534.438;   -9.721;38402.039
630.516;29968.908;   -9.951;37868.801
631.096;29572.936;  -11.731;35760.410
631.675;32212.352;   -8.572;35225.219
632.254;37517.723;  -11.282;35130.289
632.834;36979.379;  -13.322;35794.570
633.413;35221.984;  -10.301;35788.922
633.992;32472.576;   -8.582;34532.863
634.571;32960.906;   -8.352;33590.113
635.151;35373.879;  -11.912;34943.863
635.730;33929.816;  -10.511;35352.523
636.309;30793.906;   -7.731;35366.605
636.888;28400.176;   -9.952;36165.637
637.467;29063.656;  -11.672;37515.902
638.046;30528.875;   -8.901;39288.695
638.625;33485.426;   -7.912;38279.699
639.204;33405.195;  -10.022;37741.598
639.782;32349.689;  -12.252;38364.551
640.361;28228.664;  -10.041;36740.621
640.940;25458.090;  -11.161;34950.082
641.519;26043.289;   -9.701;34137.398
642.097;29023.791;  -11.271;35654.258
642.676;32047.193;   -8.651;35637.957
643.255;33045.129;   -8.711;36567.074
643.833;32241.648;   -9.581;37809.434
644.412;32422.652;  -13.711;37337.293
644.990;31438.418;  -11.811;37018.531
645.569;31434.971;   -9.411;36518.469
646.147;30998.900;  -10.291;36186.430
646.726;30734.986;  -12.401;36267.688
647.304;31440.857;  -10.411;36647.625
647.882;32952.250;   -9.651;39286.742
648.461;34799.039;   -9.631;39157.703
649.039;33161.523;  -11.881;35412.883
649.617;32111.850;   -9.661;34744.918
650.195;31391.768;   -9.301;35403.098
650.773;29966.930;  -10.511;35053.797
651.352;27802.320;  -11.521;33756.816
651.930;25520.998;  -12.211;31868.773
652.508;23697.594;   -9.171;33121.551
653.086;27561.127;   -9.371;33564.793
653.663;30465.203;  -13.161;34054.668
654.241;29385.664;  -13.031;35693.309
654.819;30974.525;   -9.371;36422.906
655.397;30719.660;  -10.511;38213.484
655.975;30179.293;  -10.371;39507.625
656.553;29731.869;  -10.051;39498.223
657.130;28383.123;  -10.061;40395.480
657.708;27945.969;   -9.561;39242.020
658.286;28073.832;  -11.511;38920.020
658.863;29002.043;  -10.261;40202.898
659.441;32239.873;   -7.531;39677.938
660.018;32202.049;   -9.501;40413.355
660.596;30812.434;  -13.301;39931.414
661.173;32529.285;  -11.211;39604.531
661.750;33140.441;   -9.951;39700.070
662.328;32259.512;   -9.390;39292.809
662.905;31166.264;  -11.330;38235.648
663.482;26470.502;   -9.050;36212.305
664.060;24527.451;   -8.240;35944.945
664.637;27554.291;  -10.050;35170.785
665.214;29029.289;  -11.760;34197.523
665.791;30521.271;  -10.530;34549.520
666.368;29712.561;   -9.690;35118.578
666.945;30333.188;   -9.320;36019.418
667.522;31753.236;  -11.860;36048.438
668.099;31551.152;  -10.770;36243.914
668.676;30195.406;   -6.260;35958.875
669.253;28863.707;   -7.000;37384.730
669.830;29203.459;  -10.190;36779.629
670.407;29181.457;   -9.550;35231.289
670.984;29313.123;   -9.260;35544.270
671.560;29947.762;   -9.280;35466.867
672.137;28991.537;  -11.810;34280.863
672.714;30009.184;  -11.490;34632.863
673.290;31240.752;   -7.740;35135.422
673.867;31263.238;  -10.660;36114.480
674.443;30914.336;  -12.230;36152.859
675.020;28902.059;  -10.450;35327.238
675.596;30047.725;   -9.260;35795.176
676.173;30842.947;  -10.780;35430.355
676.749;30401.877;  -13.690;33549.516
677.326;30007.785;  -11.980;32210.012
677.902;29864.496;   -8.630;32068.871
678.478;29179.596;  -10.730;32583.891
679.054;28328.635;  -10.520;32088.928
679.631;28763.957;  -11.920;30978.848
680.207;30175.924;   -7.490;33160.887
680.783;31666.635;   -9.860;35570.363
681.359;30815.982;  -13.380;36125.184
681.935;30562.545;  -12.480;35240.922
682.511;30247.434;   -7.900;34429.961
683.087;30578.510;   -7.710;34463.680
683.663;29946.438;  -11.480;34648.898
684.239;28460.881;  -14.090;34546.457
684.815;27766.258;   -7.560;35586.375
685.390;27849.258;   -9.910;35821.895
685.966;28398.740;  -11.159;35085.871
686.542;31111.191;  -11.169;34198.230
687.118;33359.035;   -5.959;32847.707
687.693;33544.734;  -10.329;32794.027
688.269;33227.629;  -12.059;33072.367
688.844;31434.619;  -10.909;33141.664
689.420;29483.184;   -8.019;33965.742
689.995;27687.354;   -8.399;34655.523
690.571;26463.318;  -10.949;33576.742
691.146;26573.316;   -9.619;32657.219
691.722;26301.934;   -8.999;32526.979
692.297;26110.574;  -11.589;33014.617
692.872;27482.121;  -11.739;34012.254
693.448;27134.027;  -11.059;34237.434
694.023;26115.268;  -10.139;34142.672
694.598;28231.928;   -9.029;34132.031
695.173;28984.191;  -13.319;34205.250
695.748;28048.070;  -10.169;32882.488
696.323;27766.041;   -8.339;32864.906
696.898;27864.207;   -8.169;33170.004
697.473;27915.063;  -12.309;32432.984
698.048;27107.689;  -10.989;31649.303
698.623;26890.732;   -9.329;30778.141
699.198;28480.861;   -9.849;31140.119
699.773;29828.271;  -12.329;31764.299
700.348;28699.994;  -10.389;31780.816
700.922;28572.154;   -9.269;32046.375
701.497;29281.303;   -9.329;32603.574
702.072;29277.783;  -10.789;34799.871
702.646;28123.895;  -10.839;35793.172
703.221;26409.955;   -9.099;35201.590
703.795;28254.168;  -10.939;34764.527
704.370;28537.850;  -12.859;34307.367
704.944;28625.736;  -11.559;33509.887
705.519;29281.426;   -7.939;31388.584
706.093;30601.139;  -10.499;31340.104
706.668;31020.311;  -11.289;32630.281
707.242;29973.154;  -11.509;32728.779
707.816;28751.145;   -9.639;32947.238
708.390;27260.369;  -11.429;33277.855
708.965;27792.818;  -11.869;33834.336
709.539;28013.115;  -11.689;33709.273
710.113;28023.191;  -10.478;33044.313
710.687;27311.867;  -10.228;31953.992
711.261;25769.943;  -13.698;30505.949
711.835;25780.779;  -13.378;30262.369
712.409;26336.205;   -9.698;31254.447
712.983;28220.234;  -11.898;32754.986
713.557;29432.941;  -15.138;34018.824
714.131;29223.563;  -14.098;34579.625
714.704;28156.357;   -9.958;33890.262
715.278;25688.463;  -10.028;33531.102
715.852;24640.666;  -11.148;33601.660
716.425;25818.379;   -9.068;33515.117
716.999;26929.648;  -10.038;33185.555
717.573;27781.744;   -9.798;33905.996
718.146;28742.262;  -12.378;35199.293
718.720;28726.465;  -11.918;35060.551
719.293;28599.730;   -8.088;34973.230
719.867;31480.203;  -10.888;36394.449
720.440;31071.801;  -11.938;36663.008
721.013;29159.211;  -12.818;35102.426
721.587;27590.332;  -10.298;33985.266
722.160;26509.047;  -10.048;33524.965
722.733;25653.732;  -12.108;32987.043
723.306;26044.973;  -10.818;33066.301
723.880;27966.475;   -8.908;33399.500
724.453;29818.967;   -9.878;33468.297
725.026;29004.143;  -11.188;33816.637
725.599;26496.303;  -11.678;32797.996
726.172;26741.910;   -9.618;33187.434
726.745;27822.869;   -8.258;35136.613
727.318;29144.084;  -12.978;35751.730
727.891;29631.736;  -12.148;35890.430
728.463;29075.332;   -8.968;34822.090
729.036;27774.484;  -10.188;32895.086
729.609;28250.725;  -11.788;31823.225
730.182;25485.113;  -11.788;31445.283
730.754;23172.795;  -10.268;32373.223
731.327;23560.488;   -9.998;33676.820
731.900;24096.125;  -12.228;33417.000
732.472;24958.512;  -13.848;31978.498
733.045;26412.576;   -8.698;30368.777
733.617;26347.359;  -10.607;30574.215
734.190;26448.646;  -11.507;31280.975
734.762;24024.949;  -13.647;31674.412
735.334;22213.238;   -9.767;31247.291
735.907;22588.885;   -9.897;29876.211
736.479;22766.646;  -11.637;29808.488
737.051;22526.629;   -9.567;30233.547
737.623;23094.656;   -8.187;31469.086
738.195;23597.260;  -11.187;31784.225
738.768;25866.857;  -12.337;32120.523
739.340;26526.836;  -12.227;32094.342
739.912;25445.047;  -11.057;31312.680
740.484;24046.496;  -10.207;31946.238
741.056;22620.010;  -10.047;32984.059
741.628;23879.537;  -13.627;33897.715
742.199;26064.836;   -7.177;33213.016
742.771;24779.617;  -10.797;31369.113
743.343;22707.242;  -11.997;31865.473
743.915;21770.465;  -12.867;32388.631
744.487;21770.785;   -7.617;31079.568
745.058;21710.160;   -9.557;30570.107
745.630;22247.426;   -9.877;29970.127
746.201;23471.529;  -14.177;29186.766
746.773;24227.875;   -9.237;28805.723
747.344;24047.945;   -9.847;29591.223
747.916;22238.176;  -11.657;31412.201
748.487;22243.150;  -10.587;32194.898
749.059;23598.008;   -8.707;32533.719
749.630;24497.764;  -10.537;32158.518
750.201;23786.561;  -11.687;30855.395
750.773;22013.961;  -11.647;28622.555
751.344;21665.193;   -7.147;28405.732
751.915;22459.568;   -9.757;28461.551
752.486;22390.502;  -12.427;27842.850
753.057;20413.895;  -12.227;27845.008
753.628;19290.779;  -10.417;27728.107
754.199;20179.199;  -11.767;27381.086
754.770;21187.717;  -11.187;25882.203
755.341;21445.131;  -10.507;25886.184
755.912;21556.645;   -9.387;26050.861
756.483;21124.754;  -10.647;26798.779
757.054;19283.027;  -11.837;27048.238
757.625;17851.559;  -12.716;26294.838
758.195;17765.074;   -9.666;26142.076
758.766;17570.545;   -8.656;26392.234
759.337;18113.576;  -12.856;26334.594
759.907;19532.631;  -13.366;27579.652
760.478;20404.738;   -8.576;28352.770
761.048;19846.736;  -10.526;27325.088
761.619;18861.746;  -11.116;26460.428
762.189;18997.598;  -12.136;26029.826
762.760;20126.316;   -9.456;26430.145
763.330;21186.277;   -7.136;26670.902
763.900;20693.215;  -11.786;26603.021
764.471;18241.389;  -11.546;25542.740
765.041;16731.531;   -8.096;24358.459
765.611;16518.990;   -8.876;23991.297
766.181;16914.584;  -12.196;24470.236
766.751;18133.277;  -11.636;24845.975
767.321;17888.713;  -10.156;24533.633
767.891;15717.145;  -11.766;24916.492
768.461;15103.608;  -14.936;24776.771
769.031;15715.798;  -12.356;24757.988
769.601;17372.902;   -7.526;24181.088
770.171;17429.418;  -10.766;23670.387
770.741;16667.818;  -13.176;22960.045
771.311;16832.063;  -10.616;22917.523
771.880;17324.473;   -9.576;23562.941
772.450;17235.834;  -10.336;24216.500
773.020;17276.186;  -13.516;24140.398
773.589;16519.252;  -13.466;24414.857
774.159;15876.967;   -8.686;23858.717
774.729;15465.842;   -9.476;22942.135
775.298;15032.422;  -13.666;22324.033
775.867;14567.902;  -11.716;21140.313
776.437;14678.346;   -9.906;20838.092
777.006;14452.157;  -12.166;20599.510
777.576;14149.603;  -12.356;20508.809
778.145;14173.298;  -11.646;20732.947
778.714;14210.799;   -8.226;21062.465
779.283;13713.637;   -9.556;20949.664
779.853;13194.227;  -14.116;20508.623
780.422;13566.848;  -11.506;20649.082
780.991;13166.953;   -9.556;21527.520
781.560;11902.257;   -9.095;22632.658
782.129;11621.331;  -12.135;23048.277
782.698;11604.946;  -10.865;23438.555
783.267;11233.222;   -9.335;23267.734
783.836;11225.146;  -11.045;22415.133
784.404;12237.460;  -13.865;20443.152
784.973;12866.498;  -13.095;19699.150
785.542;12940.238;  -11.575;19763.828
786.111;12794.487;   -9.705;20341.408
786.679;12276.164;  -12.105;20207.967
787.248;12032.006;  -12.455;19516.465
787.817;11842.438;  -11.535;18900.363
788.385;11419.434;   -9.765;17879.121
788.954;10844.773;  -14.005;17658.301
789.522;10290.069;  -11.955;17788.879
790.090;10723.306;  -10.135;18118.277
790.659;11278.096;  -10.975;18338.736
791.227;10841.889;  -13.375;18508.615
791.795;11171.244;  -12.375;17898.254
792.364;11427.284;  -10.725;17295.133
792.932;11737.271;   -9.715;16822.051
793.500;12072.451;  -12.675;17040.148
794.068;12394.904;  -13.495;17179.787
794.636;12543.980;  -10.885;16664.246
795.204;11909.080;  -11.045;16524.545
795.772;11909.131;  -13.175;17274.564
796.340;11437.435;  -12.445;17891.002
796.908;11193.930;   -9.735;17648.561
797.476;11048.181;   -9.815;17064.080
798.044;10625.589;  -13.985;16672.777
798.612; 9937.359;  -13.115;17023.996
799.180; 9555.375;  -10.185;16561.615
799.747; 9380.172;   -9.055;15962.773
800.315; 9110.185;  -12.385;15296.992
800.883; 8892.521;  -15.035;14801.771
801.450; 9049.439;  -10.365;14534.430
802.018; 9147.854;   -9.855;14173.248
802.585; 9152.834;  -11.905;14029.547
803.153; 9164.997;  -11.585;13836.846
803.720; 8985.667;   -9.095;13567.324
804.287; 8443.683;   -9.135;13360.622
804.855; 7964.769;  -11.604;13681.981
805.422; 7863.896;  -11.794;13536.560
805.989; 7924.995;  -10.734;13355.958
806.556; 8160.159;  -10.444;13747.896
807.124; 8461.771;  -12.764;13987.376
807.691; 8427.813;  -12.964;14038.674
808.258; 8198.586;  -11.134;14120.152
808.825; 7791.669;   -9.854;13860.111
809.392; 7887.371;  -10.504;13268.790
809.959; 7500.835;  -13.054;12680.389
810.526; 7046.479;   -8.294;12427.308
811.093; 7028.260;   -8.394;12030.105
811.659; 7581.238;  -12.304;11653.664
812.226; 8070.012;  -13.944;11637.183
812.793; 7785.072;  -10.484;11611.521
813.360; 7160.514;  -10.144;11885.181
813.926; 6877.788;  -11.684;12770.539
814.493; 6714.070;  -13.644;12677.638
815.060; 6367.937;   -9.724;11974.336
815.626; 6324.681;   -9.854;11594.715
816.193; 6664.793;  -13.254;11579.474
816.759; 6694.287;  -13.204;11666.972
817.325; 6736.741;   -9.434;11325.530
817.892; 7075.305;  -10.134;11105.369
818.458; 7481.979;  -13.474;10843.928
819.024; 7113.432;  -11.854;10714.406
819.591; 6846.388;  -10.244;10469.165
820.157; 6684.742;  -10.704;10235.523
820.723; 6234.736;  -12.324;10847.563
821.289; 5964.481;   -9.444;11040.980
821.855; 5884.495;   -8.374;10357.100
822.421; 5795.046;  -10.234; 9978.918
822.987; 5693.451;  -13.294; 9754.177
823.553; 5336.298;  -10.884;10065.755
824.119; 5181.985;   -8.884;10036.294
824.685; 5338.729;   -6.784;10029.192
825.251; 5455.628;  -12.004;10199.230
825.816; 5400.503;  -11.474; 9820.189
826.382; 5124.370;   -9.174; 9297.248
826.948; 5274.751;   -9.214; 9381.347
827.513; 5662.825;  -10.774; 9450.726
828.079; 5520.778;  -11.924; 9472.444
828.645; 4961.320;  -10.543; 9292.643
829.210; 4809.205;  -10.533; 9065.341
829.776; 4772.757;  -10.753; 9132.620
830.341; 4656.711;  -10.173; 9092.878
830.906; 4818.452;  -10.743; 9078.557
831.472; 5142.625;  -11.113; 8534.535
832.037; 4940.042;  -10.603; 8677.874
832.602; 4432.962;  -13.323; 8628.692
833.167; 4182.537;  -10.823; 8879.031
833.733; 4118.545;  -10.113; 9189.790
834.298; 4236.340;  -13.583; 9052.608
834.863; 4358.482;  -12.703; 8895.087
835.428; 4384.229;  -10.523; 8824.266
835.993; 4263.923;   -6.963; 8845.385
836.558; 4103.591;  -10.763; 8888.563
837.123; 4182.338;   -9.903; 8966.582
837.688; 4419.662;   -9.913; 8617.860
838.253; 4633.144;  -10.283; 8590.699
838.817; 4792.557;  -12.963; 8443.797
839.382; 4729.904;  -14.243; 8799.356
839.947; 4448.346;  -10.733; 8810.595
840.511; 4138.478;   -9.383; 8796.394
841.076; 3758.639;  -12.563; 8347.231
841.641; 3808.229;  -12.953; 8224.330
842.205; 3906.281;   -7.043; 8223.349
842.770; 3939.258;   -8.163; 8622.107
843.334; 4088.937;  -12.503; 8410.386
843.898; 4075.218;  -11.693; 8337.465
844.463; 4082.054;  -10.203; 8506.283
845.027; 3886.706;   -9.533; 8280.962
845.591; 3716.602;  -13.443; 8231.141
846.156; 3703.572;  -13.143; 7969.179
846.720; 3618.325;   -9.433; 7768.278
847.284; 3510.240;  -11.033; 7630.957
847.848; 3369.613;  -10.403; 7472.395
848.412; 3264.545;  -11.553; 7437.394
848.976; 3291.216;   -8.393; 7674.592
849.540; 3220.531;   -8.713; 7836.011
850.104; 3280.626;  -12.463; 7913.669
850.668; 3617.631;  -12.973; 7694.508
851.232; 3762.714;  -10.793; 7756.887
851.796; 3629.633;  -10.662; 7926.545
852.359; 3324.592;  -13.082; 7827.844
852.923; 3158.307;  -12.192; 7641.163
853.487; 3019.396;  -11.912; 7342.501
854.050; 3001.406;  -10.892; 7042.820
854.614; 3129.700;  -13.992; 7151.338
855.177; 3226.362;  -11.732; 7105.077
855.741; 3259.270;   -8.962; 6989.675
856.304; 3179.716;   -9.442; 6596.634
856.868; 3163.280;  -14.192; 6356.272
857.431; 3280.722;  -12.702; 6468.571
857.995; 3422.652;   -9.942; 6373.210
858.558; 3455.981;   -9.112; 6324.448
859.121; 3193.302;  -12.932; 6408.327
859.684; 3017.237;  -13.442; 6347.886
860.247; 3095.858;  -10.632; 6321.264
860.810; 3113.017;  -11.272; 6301.903
861.374; 2872.629;   -9.832; 6607.881
861.937; 2614.267;  -11.762; 6408.200
862.500; 2611.302;   -9.722; 6572.639
863.062; 2761.425;  -10.512; 6387.297
863.625; 2887.320;  -11.232; 6190.836
864.188; 3047.317;  -14.112; 5807.254
864.751; 3142.652;  -11.302; 5682.413
865.314; 3066.753;  -10.112; 5547.492
865.876; 2860.972;  -12.182; 5500.150
866.439; 2838.063;  -10.722; 5415.909
867.002; 2791.401;   -9.252; 5501.567
867.564; 2597.935;   -9.572; 5413.946
868.127; 2382.329;  -13.142; 5160.325
868.689; 2263.568;  -12.902; 5133.183
869.252; 2150.673;   -9.732; 5252.382
869.814; 2046.703;   -9.432; 5297.141
870.377; 2056.374;  -11.552; 5390.919
870.939; 2131.452;   -9.052; 5599.898
871.501; 2204.524;  -10.982; 5248.336
872.063; 2211.532;  -12.292; 4854.235
872.626; 2146.873;  -14.912; 4817.074
873.188; 2144.334;  -13.112; 4987.732
873.750; 2125.258;  -13.442; 4868.651
874.312; 2050.138;   -9.402; 4779.330
874.874; 1970.648;  -11.062; 4866.348
875.436; 1890.542;  -13.931; 4718.887
875.998; 1889.008;   -9.561; 4660.005
876.560; 1912.008;  -11.321; 4462.964
877.122; 1851.200;  -12.221; 4145.042
877.683; 1755.077;  -12.191; 4056.481
878.245; 1684.052;  -12.101; 3950.740
878.807; 1717.385;   -8.971; 4058.958
879.369; 1737.867;  -12.071; 3954.677
879.930; 1651.373;  -14.621; 3941.495
880.492; 1589.973;  -10.311; 4067.014
881.053; 1554.801;  -10.901; 3859.633
881.615; 1451.825;  -14.411; 3776.071
882.176; 1360.817;  -13.761; 3734.750
882.738; 1316.496;   -9.181; 3678.489
883.299; 1293.944;  -11.791; 3405.407
883.860; 1285.990;  -13.121; 3351.106
884.422; 1269.085;  -11.211; 3394.044
884.983; 1226.261;  -10.091; 3166.443
885.544; 1153.263;   -8.461; 3189.802
886.105; 1081.780;  -12.361; 3160.360
886.666; 1019.866;  -14.141; 3093.059
887.227;  965.448;  -11.361; 2941.957
887.788;  904.857;  -11.401; 2974.836
888.349;  838.572;  -13.791; 2721.214
888.910;  833.145;  -13.191; 2696.493
889.471;  838.205;   -9.881; 2560.172
890.032;  816.037;   -9.881; 2558.190
890.593;  787.269;  -10.371; 2567.669
891.153;  762.672;  -13.301; 2460.307
891.714;  720.076;  -11.431; 2372.046
892.275;  686.659;  -11.291; 2309.505
892.835;  651.639;  -11.471; 2382.543
893.396;  599.980;  -11.541; 2295.502
893.956;  544.503;  -11.181; 2162.420
894.517;  504.098;  -11.741; 2125.439
895.077;  498.966;  -11.671; 2086.978
895.638;  502.019;  -11.311; 2126.316
896.198;  475.998;   -9.831; 1838.275
896.758;  434.384;   -8.421; 1892.813
897.319;  405.327;  -12.351; 1792.232
897.879;  390.184;  -13.511; 1762.751
898.439;  366.630;  -12.001; 1661.149
898.999;  341.536;  -10.180; 1781.468
899.559;  329.807;  -12.030; 1703.347
900.119;  326.386;  -15.710; 1537.525
900.679;  322.502;   -8.900; 1638.384
901.239;  307.654;   -8.340; 1527.902
901.799;  297.996;  -13.910; 1456.441
902.359;  291.716;  -13.460; 1357.140
902.919;  285.338;  -11.490; 1331.118
903.479;  273.008;  -12.110; 1317.257
904.038;  253.973;  -11.720; 1262.595
904.598;  238.368;  -13.610; 1152.034
905.158;  235.684;  -11.040; 1240.893
905.717;  229.482;  -10.900; 1233.691
906.277;  218.264;  -15.080; 1217.330
906.836;  209.135;  -13.380; 1222.408
907.396;  201.577;  -10.780; 1193.047
907.955;  194.752;   -8.500; 1182.526
908.515;  188.139;  -12.760; 1099.364
909.074;  183.192;  -11.900; 1092.863
909.633;  178.501;   -8.950; 1069.121
910.192;  172.972;   -8.770; 1196.460
910.752;  168.066;  -12.390; 1029.960
911.311;  163.220;  -13.680; 1009.780
911.870;  161.920;  -12.370;  971.460
912.429;  162.557;  -10.900; 1094.080
912.988;  161.314;  -11.690; 1081.060
913.547;  157.103;  -13.240;  940.380
914.106;  152.884;  -11.990;  999.420
914.665;  149.640;   -9.990;  984.020
915.224;  148.216;  -12.880; 1035.760
915.782;  147.706;  -12.350;  922.560
916.341;  148.449;   -9.110; 1049.840
916.900;  144.072;   -9.270;  925.260
917.458;  142.446;  -13.240;  884.220
918.017;  142.209;  -13.550;  942.600
918.576;  142.162;  -12.320;  904.440
919.134;  140.112;  -11.490;  837.980
919.693;  137.920;  -13.670;  893.060
920.251;  135.887;  -15.470;  876.500
920.809;  135.994;  -11.290;  839.580
921.368;  135.485;  -10.210;  885.360
921.926;  134.635;  -12.140;  842.940
922.484;  132.463;  -13.080;  903.360
923.042;  133.029;  -11.720;  880.340
923.601;  135.357;   -7.480;  998.680
924.159;  133.857;  -11.570;  935.560
924.717;  130.306;  -13.840;  841.080
925.275;  130.361;  -10.640;  903.240
925.833;  129.966;  -11.540;  779.320
926.391;  130.336;  -12.960;  938.380
926.949;  128.123;  -14.130;  857.680
927.506;  129.156;  -11.750;  903.500
928.064;  129.473;  -10.250;  877.580
928.622;  127.838;  -13.030;  880.100
929.180;  128.009;  -13.400;  814.180
929.737;  129.447;  -10.700;  808.540
930.295;  133.177;  -10.070;  928.480
930.853;  133.551;  -11.960;  849.100
931.410;  134.211;  -13.120;  821.120
931.968;  134.540;  -10.770;  940.660
932.525;  134.250;  -10.680;  909.380
933.082;  133.473;  -13.130;  811.440
933.640;  135.996;  -13.210;  925.900
934.197;  134.099;  -11.060;  886.360
934.754;  135.176;   -9.580;  897.780
935.312;  137.021;  -14.000;  863.340
935.869;  141.517;  -10.710; 1012.980
936.426;  142.793;   -9.860;  872.800
936.983;  143.444;   -9.710;  889.020
937.540;  142.159;  -13.990;  838.280
938.097;  140.900;  -14.040;  940.120
938.654;  141.871;  -10.310;  898.860
939.211;  143.635;  -10.560;  952.480
939.768;  146.945;  -13.900;  915.420
940.324;  150.156;  -14.760;  904.200
940.881;  152.400;  -10.370;  878.500
941.438;  153.110;   -8.260; 1021.200
941.995;  148.655;  -12.540;  992.560
942.551;  145.806;  -14.670;  875.620
943.108;  146.359;  -10.450;  937.920
943.664;  148.107;  -10.750;  869.340
944.221;  151.934;  -11.550; 1088.140
944.777;  148.866;  -14.770;  869.680
945.334;  149.693;  -12.820;  884.840
945.890;  151.819;  -10.130;  946.480
946.446;  151.462;  -13.470;  947.020
947.003;  152.890;  -12.120;  964.940
947.559;  156.284;   -9.980; 1063.040
948.115;  155.219;   -9.080; 1026.540
948.671;  153.542;  -10.830;  967.300
949.227;  150.824;  -12.440;  859.560
949.783;  148.847;  -12.910;  858.900
950.339;  150.440;  -10.270;  991.000
950.895;  151.286;  -13.630; 1023.840
951.451;  149.705;  -15.100;  925.280
952.007;  150.360;  -11.330;  998.540
952.563;  149.052;  -10.580;  937.780
953.118;  147.952;  -13.440;  904.940
953.674;  146.366;  -12.710;  935.780
954.230;  147.088;  -10.350;  949.640
954.785;  144.943;   -9.190;  936.640
955.341;  142.906;  -11.200;  998.160
955.897;  141.309;  -16.560;  834.660
956.452;  143.469;  -12.570;  953.840
957.008;  143.288;   -7.970; 1083.640
957.563;  140.089;  -11.940; 1009.540
958.118;  134.932;  -13.450;  877.700
958.674;  135.845;  -12.030;  946.780
959.229;  137.678;   -9.410; 1013.980
959.784;  135.078;  -12.000;  832.400
960.339;  135.142;  -14.780; 1001.280
960.894;  131.461;   -9.860;  963.760
961.449;  127.507;   -9.970;  859.960
962.004;  126.775;  -10.900; 1212.840
962.559;  121.809;  -13.150;  860.140
963.114;  119.245;  -13.740;  742.480
963.669;  118.893;   -9.820;  915.500
964.224;  117.225;  -13.890;  874.340
964.779;  116.475;  -12.600;  828.420
965.334;  117.000;  -10.950; 1017.860
965.888;  116.917;  -11.170;  875.360
966.443;  118.825;  -12.540;  972.380
966.998;  117.784;  -15.780;  819.460
967.552;  118.845;   -9.760;  908.380
968.107;  113.890;   -9.060;  868.300
968.661;  115.217;  -11.950;  922.440
969.216;  115.383;  -12.800;  856.280
969.770;  115.891;  -11.210;  917.200
970.324;  115.202;  -11.610;  923.140
970.879;  111.974;  -11.370;  947.180
971.433;  108.140;  -12.540;  952.720
971.987;  104.083;  -11.320;  895.340
972.541;  100.876;  -10.720;  917.100
973.095;  100.094;   -9.680; 1009.460
973.649;   97.990;  -11.440;  809.480
974.203;   97.594;  -11.210;  829.040
974.757;   97.917;  -10.240;  855.220
975.311;   98.897;  -13.720;  872.600
975.865;   97.155;  -13.770;  881.820
976.419;   95.957;  -11.690;  857.400
976.973;   96.073;   -9.510;  849.620
977.526;   97.574;  -12.620;  949.920
978.080;   95.975;  -12.010;  796.780
978.634;   97.689;  -10.170;  921.320
979.187;   95.543;   -9.020;  905.400
979.741;   92.795;   -9.820; 1018.380
980.294;   88.360;  -14.870;  789.160
980.848;   85.670;  -12.380;  717.220
981.401;   88.457;  -10.350;  816.540
981.955;   90.336;  -13.720;  844.300
982.508;   89.438;  -11.490;  746.340
983.061;   89.506;  -10.000;  915.260
983.615;   85.412;  -11.480;  798.800
984.168;   83.352;  -13.220;  770.080
984.721;   82.045;  -13.960;  880.760
985.274;   81.767;  -10.870;  867.500
985.827;   80.884;   -9.790;  834.220
986.380;   78.201;  -13.120;  721.340
986.933;   77.166;  -12.450;  864.800
987.486;   75.902;  -10.210;  861.920
988.039;   75.360;   -8.430;  863.100
988.591;   72.911;  -10.520;  893.260
989.144;   70.495;  -14.860;  737.260
989.697;   69.500;  -13.080;  758.740
990.250;   70.437;  -10.150;  858.100
990.802;   68.909;  -13.430;  755.860
991.355;   70.148;  -12.750;  974.880
991.907;   67.892;  -12.040;  864.320
992.460;   65.636;  -11.330;  753.760
993.012;   65.410;  -13.610;  749.540
993.565;   63.797;  -13.460;  711.360
994.117;   66.383;   -9.360;  950.780
994.669;   62.273;  -11.300;  701.320
995.221;   59.774;  -13.540;  791.920
995.774;   58.567;  -13.430;  787.580
996.326;   57.235;  -12.520;  740.220
996.878;   57.242;  -10.950;  838.420
997.430;   54.050;  -14.300;  699.860
997.982;   53.813;  -13.760;  750.140
998.534;   54.509;  -11.530;  739.060
999.086;   52.822;  -10.310;  738.220
999.638;   51.253;  -12.530;  661.380
1000.190;   51.028;  -11.840;  699.320
1000.741;   51.178;  -10.260;  742.700
1001.293;   50.414;   -8.860;  686.020
1001.845;   48.223;  -13.700;  676.640
1002.396;   48.943;  -12.100;  743.400
1002.948;   48.969;  -12.760;  737.400
1003.500;   46.965;  -10.380;  723.780
1004.051;   47.353;  -11.900;  907.580
1004.603;   45.578;  -12.250;  791.820
1005.154;   42.421;  -13.210;  608.980
1005.705;   41.167;  -10.950;  723.960
1006.257;   40.404;  -13.880;  707.220
1006.808;   39.868;  -12.840;  685.460
1007.359;   40.224;  -10.570;  763.240
1007.910;   38.841;   -9.620;  646.640
1008.461;   38.347;  -13.630;  732.940
1009.013;   36.935;  -17.200;  588.340
1009.564;   39.588;  -10.200;  793.520
1010.115;   36.633;  -12.570;  597.040
1010.665;   36.212;  -15.150;  602.160
1011.216;   36.407;  -14.480;  667.920
1011.767;   35.977;  -11.340;  697.920
1012.318;   35.576;   -9.780;  736.980
1012.869;   34.449;  -12.380;  679.000
1013.419;   33.536;  -15.560;  603.120
1013.970;   34.902;  -11.010;  666.640
1014.521;   33.840;  -11.610;  620.620
1015.071;   34.040;  -13.450;  670.380
1015.622;   33.393;  -13.870;  635.460
1016.172;   33.181;  -11.610;  596.820
1016.723;   33.334;  -12.120;  614.380
1017.273;   32.359;  -13.620;  604.160
1017.823;   32.339;  -14.140;  650.340
1018.374;   32.043;  -12.800;  611.760
1018.924;   31.738;  -12.340;  716.880
1019.474;   32.200;  -11.410;  718.880
1020.024;   30.182;  -14.770;  657.580
1020.574;   32.428;   -9.780;  726.160
1021.124;   32.726;   -8.560;  673.580
1021.674;   30.130;  -15.190;  559.120
1022.224;   30.973;  -13.530;  708.940
1022.774;   31.166;  -13.280;  668.820
1023.324;   31.676;  -10.690;  753.520
1023.874;   31.721;  -10.240;  875.760
1024.423;   29.199;  -12.540;  613.700
1024.973;   29.643;  -10.010;  610.760
1025.523;   28.868;  -10.550;  620.960
1026.072;   28.701;  -13.560;  606.420
1026.622;   27.984;  -15.120;  675.740
1027.172;   29.249;  -11.260;  715.660
1027.721;   28.498;  -11.410;  601.220
1028.270;   28.498;  -13.530;  663.400
1028.820;   28.095;  -13.680;  638.080
1029.369;   27.963;  -13.520;  612.700
1029.918;   28.279;  -10.980;  649.840
1030.468;   27.398;  -13.530;  564.780
1031.017;   27.186;  -13.170;  634.800
1031.566;   26.894;  -12.200;  608.900
1032.115;   28.008;   -9.960;  694.500
1032.664;   26.339;  -13.210;  596.480
1033.213;   26.833;  -12.500;  735.420
1033.762;   26.781;  -11.910;  635.620
1034.311;   27.180;   -9.640;  677.220
1034.860;   26.571;  -13.310;  691.000
1035.408;   26.163;  -11.830;  722.720
1035.957;   27.703;  -12.000;  719.540
1036.506;   24.818;  -11.690;  530.800
1037.055;   26.838;  -10.990;  844.320
1037.603;   24.120;  -15.120;  664.000
1038.152;   23.885;  -12.450;  534.760
1038.700;   25.176;  -10.560;  585.740
1039.249;   24.124;  -11.080;  681.220
1039.797;   24.882;  -12.540;  633.360
1040.345;   25.251;  -11.920;  705.420
1040.894;   25.241;  -11.410;  625.300
1041.442;   23.722;  -14.320;  632.200
1041.990;   22.482;  -16.240;  559.160
1042.538;   22.800;  -11.680;  536.180
1043.087;   22.476;  -10.760;  570.860
1043.635;   23.790;  -11.850;  670.500
1044.183;   22.077;  -15.480;  586.400
1044.731;   22.832;  -11.770;  576.000
1045.279;   22.702;  -13.090;  674.920
1045.827;   25.048;  -12.440;  892.400
1046.374;   20.968;  -13.840;  515.420
1046.922;   21.953;  -13.220;  590.580
1047.470;   23.405;  -10.230;  691.300
1048.018;   21.448;  -14.590;  647.960
1048.565;   22.902;  -12.050;  708.600
1049.113;   21.024;  -11.650;  557.000
1049.660;   21.414;  -10.510;  629.660
1050.208;   21.710;  -13.310;  675.640
1050.755;   20.649;  -15.900;  606.580
1051.303;   22.035;  -11.430;  686.820
1051.850;   20.650;   -8.480;  635.120
1052.397;   19.606;  -15.010;  473.960
1052.945;   19.370;  -13.960;  617.760
1053.492;   22.037;  -13.150;  741.840
1054.039;   21.384;   -9.630;  720.180
1054.586;   19.328;  -13.680;  557.240
1055.133;   19.865;  -14.570;  693.140
1055.680;   20.543;  -13.820;  646.620
1056.227;   19.768;  -11.730;  542.780
1056.774;   20.397;  -12.480;  794.980
1057.321;   18.547;  -13.930;  523.260
1057.868;   19.588;  -11.690;  651.320
1058.415;   19.133;   -9.520;  651.980
1058.961;   18.958;  -13.160;  678.940
1059.508;   18.250;  -12.920;  643.820
1060.055;   18.947;  -11.920;  581.780
1060.601;   19.402;  -11.500;  624.300
1061.148;   18.150;  -14.330;  616.820
1061.694;   17.697;  -16.870;  592.580
1062.241;   18.763;  -10.330;  596.320
1062.787;   18.440;  -10.620;  663.140
1063.334;   19.256;  -10.110;  808.560
1063.880;   17.957;  -13.400;  668.360
1064.426;   18.538;  -10.680;  706.820
1064.972;   17.618;   -9.920;  601.340
1065.518;   16.626;  -10.980;  566.640
1066.065;   17.445;  -14.890;  624.460
1066.611;   16.519;  -12.870;  598.800
1067.157;   18.233;  -12.950;  641.860
1067.703;   16.496;  -13.540;  668.480
1068.249;   16.597;  -13.540;  605.220
1068.794;   16.525;  -12.600;  626.880
1069.340;   15.949;  -10.620;  578.960
1069.886;   16.037;  -12.830;  590.700
1070.432;   14.711;  -14.870;  541.720
1070.977;   15.852;  -11.980;  601.080
1071.523;   16.433;   -8.200;  573.060
1072.068;   15.175;  -12.330;  582.000
1072.614;   15.085;  -16.370;  527.760
1073.160;   16.365;  -11.100;  687.040
1073.705;   15.801;  -10.480;  572.520
1074.250;   15.004;  -14.520;  559.900
1074.796;   15.271;  -11.460;  655.160
1075.341;   16.274;  -11.950;  664.100
1075.886;   15.427;  -11.460;  594.240
1076.431;   14.827;  -13.770;  649.880
1076.976;   14.281;  -12.680;  639.220
1077.521;   14.234;  -13.170;  583.080
1078.067;   13.612;  -10.860;  579.400
1078.612;   14.270;  -13.920;  661.620
1079.156;   13.960;  -13.880;  601.540
1079.701;   14.996;  -13.120;  693.260
1080.246;   14.971;   -9.940;  696.300
1080.791;   14.025;  -14.740;  625.020
1081.336;   13.104;  -13.750;  659.320
1081.880;   14.513;  -13.400;  649.680
1082.425;   13.487;  -12.220;  573.480
1082.970;   14.374;  -11.610;  717.040
1083.514;   12.179;  -13.580;  597.000
1084.059;   12.207;  -12.810;  586.720
1084.603;   12.356;  -12.320;  565.840
1085.147;   12.725;  -13.190;  645.220
1085.692;   14.087;  -12.480;  716.800
1086.236;   11.990;  -13.020;  503.140
1086.780;   13.361;   -9.190;  751.440
1087.325;   12.416;  -12.480;  654.620
1087.869;   12.182;  -12.450;  610.700
1088.413;   13.075;  -12.240;  705.040
1088.957;   11.004;   -9.020;  543.400
1089.501;   13.182;  -10.320;  766.640
1090.045;   12.490;  -12.720;  726.480
1090.589;   10.054;  -13.690;  569.920
1091.133;   11.317;  -10.020;  673.340
1091.676;   11.559;  -12.330;  591.940
1092.220;   11.088;  -14.970;  600.920
1092.764;   12.754;  -12.430;  706.960
1093.307;   12.149;   -9.800;  673.780
1093.851;   10.307;  -14.970;  556.540
1094.395;   10.933;  -15.310;  683.140
1094.938;   10.625;  -10.370;  632.520
1095.482;   10.825;  -11.050;  559.800
1096.025;   11.419;  -11.840;  710.880
1096.568;   11.461;  -12.840;  779.280
1097.112;    8.907;  -14.700;  508.180
1097.655;   10.997;   -8.720;  603.000
1098.198;    9.515;  -13.610;  600.180
1098.741;    8.699;  -13.350;  612.860
1099.285;   10.558;  -11.230;  657.300
1099.828;    8.615;  -11.840;  439.400
1100.371;    9.137;  -10.840;  608.160
1100.914;    9.101;  -14.190;  682.660
1101.457;   10.183;  -11.240;  679.900
1101.999;    8.848;  -11.270;  584.680
1102.542;    9.637;  -11.480;  641.440
1103.085;    8.160;  -11.750;  658.500
1103.628;   10.506;  -11.400;  762.060
1104.170;    9.265;  -10.490;  588.280
1104.713;    9.060;  -10.600;  646.700
1105.256;    8.379;  -14.360;  557.440
1105.798;    7.888;  -13.210;  499.980
1106.341;    9.792;  -10.270;  728.900
1106.883;    8.347;  -12.200;  521.340
1107.425;    8.095;  -13.110;  668.180
1107.968;    8.627;  -12.840;  612.380
1108.510;    8.777;   -6.480;  684.960
1109.052;    6.911;  -13.940;  612.620
1109.594;    7.035;  -13.690;  554.440
1110.136;    8.591;  -11.880;  643.220
1110.679;    7.911;   -9.500;  633.080
1111.221;    8.228;  -14.160;  604.460
1111.763;    6.793;  -13.980;  559.220
1112.304;    6.781;  -13.880;  547.140
1112.846;    8.840;  -12.210;  666.240
1113.388;    9.533;  -11.390;  942.180
1113.930;    7.000;  -14.540;  694.200
1114.472;    6.609;  -12.640;  606.540
1115.013;    6.076;  -11.620;  551.280
1115.555;    6.067;  -13.640;  587.100
1116.097;    5.685;  -15.380;  579.480
1116.638;    7.065;  -12.640;  684.600
1117.180;    7.178;   -9.850;  667.740
1117.721;    6.336;  -13.690;  568.580
1118.262;    6.523;  -12.680;  677.960
1118.804;    6.981;  -12.530;  637.340
1119.345;    5.420;  -11.690;  578.400
1119.886;    6.796;  -13.380;  704.040
1120.427;    5.193;  -14.070;  589.020
1120.969;    5.275;  -13.500;  597.920
1121.510;    5.537;  -11.480;  563.060
1122.051;    5.277;  -12.830;  723.580
1122.592;    4.319;  -14.290;  655.420
1123.133;    4.092;  -12.400;  547.940
1123.673;    6.955;  -10.130;  706.480
1124.214;    4.733;  -12.930;  612.460
1124.755;    5.485;  -14.380;  639.460
1125.296;    5.175;  -14.000;  627.320
1125.836;    6.130;  -10.070;  691.500
1126.377;    4.372;  -12.640;  599.660
1126.918;    5.712;  -12.960;  614.980
1127.458;    4.664;  -13.350;  622.220
1127.999;    5.709;  -10.750;  656.980
1128.539;    4.942;  -12.350;  694.240
1129.079;    4.070;  -14.860;  632.720
1129.620;    4.472;  -13.840;  558.100
1130.160;    3.579;  -12.330;  539.480
1130.700;    4.362;  -14.530;  640.840
1131.240;    4.555;  -12.530;  643.700
1131.781;    3.576;  -14.450;  619.680
1132.321;    4.389;   -9.790;  599.120
1132.861;    3.098;  -14.860;  564.200
1133.401;    1.910;  -14.290;  593.940
1133.941;    3.731;  -11.750;  626.280
1134.481;    2.935;   -9.920;  597.580
1135.020;    2.854;  -12.290;  609.160
1135.560;    3.335;  -11.650;  674.940
1136.100;    2.953;  -16.270;  501.160
1136.640;    2.276;  -10.890;  510.480
1137.179;    2.015;  -14.180;  537.960
1137.719;    1.938;  -16.250;  605.400
1138.258;    2.712;  -14.230;  587.360
1138.798;    3.682;   -9.090;  663.780
1139.337;    1.875;  -15.130;  482.840
1139.877;    2.108;  -13.680;  642.360
1140.416;    4.859;  -11.320;  878.060
1140.955;    2.297;  -10.860;  535.380
1141.494;    2.616;  -12.920;  669.280
1142.034;    2.122;  -13.930;  583.520
1142.573;    3.671;  -11.440;  646.280
1143.112;    2.500;  -12.000;  553.480
1143.651;    1.778;  -13.670;  536.480
1144.190;    1.780;  -12.730;  691.640
1144.729;    1.936;  -14.560;  607.420
1145.267;    2.545;  -11.830;  584.900
1145.806;    2.407;  -12.230;  637.040
1146.345;    0.896;  -14.130;  635.020
1146.884;    1.983;  -11.590;  622.500
1147.422;    1.373;  -12.550;  533.060
1147.961;    2.977;  -11.180;  708.460
1148.500;    1.131;  -11.510;  669.720
1149.038;    2.491;  -11.640;  632.500
1149.577;    2.648;  -10.130;  698.640
1150.115;   -0.335;  -13.970;  452.280
1150.653;    0.698;  -14.520;  607.340
1151.192;    1.526;  -12.810;  552.920
1151.730;    1.771;   -9.100;  652.560
1152.268;    0.202;  -12.220;  589.520
1152.806;    0.457;  -14.140;  571.180
1153.344;   -0.119;  -12.350;  577.640
1153.882;    1.258;   -8.980;  600.060
1154.421;   -0.911;  -15.190;  470.620
1154.958;   -0.131;  -15.210;  595.240
1155.496;    1.911;  -12.850;  645.280
1156.034;    0.912;   -9.940;  721.880
1156.572;    1.657;  -13.570;  667.060
1157.110;   -1.526;  -14.590;  473.940
1157.647;    0.834;  -13.030;  676.960
1158.185;   -0.005;  -12.140;  564.320
1158.723;   -1.097;  -14.390;  509.200
1159.260;    0.023;  -14.090;  701.700
1159.798;    0.444;  -11.920;  658.160
1160.335;    0.399;  -11.110;  631.820

