
Integration time [ms]:   3.882
Averaging Nr. [scans]: 1000
Smoothing Nr. [pixels]: 0
Data measured with spectrometer [name]: 7414430SP
Wave   ;Sample   ;Dark     ;Reference
[nm]   ;[counts] ;[counts] ;[counts] 

288.544;  140.136;    7.153;  793.890
289.143;  144.195;    8.402;  681.602
289.742;  144.210;    7.062;  828.814
290.341;  132.002;    0.191;  789.841
290.940;  122.180;    0.321;  730.702
291.538;  123.043;    3.811;  881.108
292.137;  121.682;   -3.438;  792.581
292.736;  125.722;   -2.809;  975.101
293.335;  121.305;   -5.239;  735.086
293.934;  121.945;   -4.939;  781.677
294.532;  123.024;   -2.199; 1031.958
295.131;  108.650;   -6.831;  834.394
295.730;  107.383;   -6.620;  809.588
296.328;  106.432;   -6.471;  783.442
296.927;  105.820;   -6.571;  779.652
297.525;  107.464;   -7.391;  781.236
298.124;   97.765;   -9.402;  654.009
298.722;  101.760;   -5.781;  761.933
299.321;   99.970;   -6.351;  708.597
299.919;   98.159;   -8.661;  751.918
300.518;   94.604;  -11.922;  689.338
301.116;   95.053;   -6.941;  691.381
301.715;   95.920;   -5.471;  730.222
302.313;   95.763;   -8.361;  704.943
302.911;   91.217;   -9.082;  733.830
303.509;   96.411;   -4.571;  925.627
304.108;   93.071;   -7.111;  760.383
304.706;   93.102;   -7.681;  801.664
305.304;   88.046;   -9.162;  796.707
305.902;   92.238;   -6.761;  784.484
306.500;   88.747;   -6.921;  728.200
307.098;   87.315;   -6.491;  746.560
307.696;   85.247;   -6.941;  780.432
308.294;   85.699;   -6.301;  731.359
308.892;   88.139;   -4.771;  759.769
309.490;   84.196;   -5.141;  712.161
310.088;   82.482;   -2.912;  788.444
310.686;   86.373;   -0.421;  821.749
311.284;   82.132;   -3.461;  766.040
311.882;   80.198;   -6.282;  731.225
312.480;   77.497;   -3.632;  697.167
313.078;   79.412;   -2.112;  808.331
313.675;   79.912;   -1.931;  691.600
314.273;   73.880;   -1.442;  797.837
314.871;   74.077;   -3.002;  589.829
315.468;   72.034;   -2.252;  652.090
316.066;   74.323;   -1.091;  694.427
316.664;   67.602;   -4.512;  656.351
317.261;   72.596;   -0.062;  910.128
317.859;   68.102;   -0.952;  768.735
318.456;   68.789;    0.719;  830.096
319.054;   64.333;   -4.002;  787.828
319.651;   63.836;   -4.972;  759.928
320.249;   62.802;   -1.162;  810.188
320.846;   59.696;   -2.651;  714.286
321.443;   58.044;   -3.832;  832.135
322.041;   55.315;   -4.312;  812.315
322.638;   52.799;   -3.872;  701.456
323.235;   55.413;   -4.361;  665.683
323.833;   53.014;   -4.821;  740.354
324.430;   47.751;   -6.971;  615.900
325.027;   49.219;   -4.361;  876.855
325.624;   49.201;   -5.581;  644.532
326.221;   45.381;   -6.601;  689.717
326.818;   45.617;   -7.301;  818.332
327.415;   48.378;   -6.180;  748.828
328.012;   47.713;   -5.920;  690.585
328.609;   46.192;   -8.390;  731.389
329.206;   44.454;   -6.121;  778.621
329.803;   44.554;   -5.241;  737.841
330.400;   45.935;   -7.420;  704.260
330.997;   46.782;   -5.931;  817.147
331.594;   45.150;   -5.641;  788.185
332.191;   50.353;   -6.451;  728.722
332.787;   53.812;   -4.651;  844.463
333.384;   50.851;   -5.472;  763.093
333.981;   48.423;   -6.303;  815.687
334.578;   52.700;   -5.892;  708.378
335.174;   54.658;   -4.102;  731.469
335.771;   53.034;   -8.053;  836.456
336.367;   50.481;   -7.363;  710.631
336.964;   55.045;   -6.243;  793.266
337.561;   53.841;   -5.653;  731.112
338.157;   48.697;   -7.074;  911.916
338.754;   47.289;   -5.474;  796.589
339.350;   45.552;   -5.624;  722.493
339.946;   47.415;   -5.054;  773.135
340.543;   41.191;   -6.695;  846.136
341.139;   33.940;   -6.215;  720.836
341.735;   32.106;   -5.746;  772.593
342.332;   31.606;   -7.335;  691.472
342.928;   31.990;   -4.835;  795.394
343.524;   26.381;   -4.586;  761.684
344.120;   23.263;   -3.946;  738.562
344.716;   26.373;   -4.835;  723.717
345.313;   24.244;   -5.325;  795.342
345.909;   19.099;   -6.535;  627.336
346.505;   20.325;   -4.725;  740.247
347.101;   21.578;   -4.164;  827.864
347.697;   21.768;   -5.274;  785.398
348.293;   15.901;   -7.145;  627.244
348.889;   17.312;   -4.364;  745.914
349.485;   16.680;   -6.404;  688.205
350.081;   17.320;   -7.534;  772.592
350.676;   12.870;   -6.995;  691.606
351.272;   17.043;   -3.544;  809.530
351.868;   17.066;   -5.324;  780.497
352.464;   14.898;   -7.204;  723.932
353.059;   10.609;   -6.894;  646.017
353.655;   13.984;   -3.754;  777.063
354.251;   15.342;   -6.143;  759.845
354.846;    9.920;   -9.464;  740.646
355.442;    6.974;   -7.555;  753.071
356.038;    9.555;   -5.474;  751.708
356.633;    9.827;   -5.914;  728.594
357.229;    7.760;   -8.944;  724.757
357.824;    6.348;   -6.794;  703.600
358.420;    4.530;   -5.754;  679.726
359.015;    5.089;   -5.664;  695.357
359.610;    6.420;   -8.004;  763.920
360.206;    0.461;   -8.815;  603.240
360.801;    3.582;   -8.834;  646.503
361.396;    5.535;   -6.274;  725.975
361.992;    1.520;   -8.574;  668.220
362.587;   -1.194;   -9.265;  670.160
363.182;    0.771;   -5.484;  689.631
363.777;    1.953;   -5.164;  738.242
364.372;    1.568;   -6.954;  737.314
364.967;   -2.834;   -7.065;  680.744
365.563;    1.577;   -5.684;  815.567
366.158;   -1.014;   -6.484;  685.161
366.753;   -0.400;   -8.004;  649.263
367.348;   -2.068;  -10.114;  746.056
367.942;   -2.342;   -7.764;  697.298
368.537;   -2.988;   -4.554;  754.245
369.132;   -2.755;   -7.664;  703.428
369.727;   -6.712;   -8.905;  638.079
370.322;   -5.434;   -4.945;  580.186
370.917;   -6.087;   -7.095;  710.646
371.511;   -1.869;   -6.574;  861.834
372.106;   -6.319;   -6.515;  776.964
372.701;  -10.020;   -8.225;  585.988
373.296;   -3.501;   -4.494;  863.135
373.890;   -8.743;   -7.965;  647.840
374.485;  -10.637;   -9.745;  691.199
375.079;   -6.572;   -5.554;  738.685
375.674;   -5.477;   -4.724;  812.970
376.268;   -9.467;   -8.365;  691.759
376.863;  -15.400;   -8.126;  580.327
377.457;   -9.106;   -6.045;  662.490
378.052;  -10.585;   -6.835;  764.884
378.646;  -11.651;   -9.375;  741.167
379.240;  -12.474;   -6.185;  721.176
379.835;  -11.273;   -6.135;  636.978
380.429;  -13.189;   -8.365;  562.557
381.023;  -13.026;   -7.935;  779.205
381.617;  -15.773;   -8.325;  680.106
382.212;  -12.070;   -7.405;  685.303
382.806;  -11.128;   -4.155;  760.690
383.400;  -15.183;   -8.945;  672.281
383.994;  -15.909;   -8.365;  664.870
384.588;  -12.845;   -7.824;  697.701
385.182;  -10.705;   -7.984;  726.624
385.776;  -12.349;  -10.404;  706.875
386.370;  -16.297;   -7.335;  681.968
386.964;  -14.677;   -7.485;  684.155
387.558;  -13.198;   -8.174;  598.360
388.152;  -15.740;  -10.415;  681.959
388.745;  -13.767;   -9.595;  814.707
389.339;  -12.692;   -6.454;  747.642
389.933;  -11.331;   -5.804;  695.370
390.527;  -12.490;   -6.854;  859.029
391.120;  -19.157;   -7.665;  595.318
391.714;  -15.810;   -7.245;  711.633
392.308;  -13.174;   -4.514;  780.253
392.901;  -16.531;   -7.935;  642.460
393.495;  -19.172;   -8.585;  595.414
394.089;  -16.414;   -5.245;  760.452
394.682;  -16.593;   -6.305;  697.188
395.275;  -18.229;   -9.335;  719.927
395.869;  -18.658;   -7.375;  667.314
396.462;  -17.239;   -7.055;  616.609
397.056;  -13.227;   -5.434;  776.621
397.649;  -17.487;   -9.525;  731.575
398.242;  -14.283;   -7.574;  712.645
398.836;  -13.773;   -5.134;  766.408
399.429;  -15.267;   -6.544;  631.041
400.022;  -18.818;   -9.215;  665.902
400.615;  -15.689;   -8.105;  805.609
401.208;  -14.142;   -7.614;  691.451
401.802;  -16.673;   -8.085;  699.329
402.395;  -17.771;   -9.575;  683.502
402.988;  -18.617;   -9.285;  696.627
403.581;  -16.114;   -7.514;  646.878
404.174;  -12.950;   -6.404;  686.568
404.767;  -16.542;   -8.775;  638.583
405.360;  -18.881;   -7.415;  621.445
405.953;  -13.491;   -5.624;  759.034
406.545;  -12.432;   -6.474;  725.342
407.138;  -17.349;   -8.445;  618.350
407.731;  -15.795;  -10.044;  613.303
408.324;  -12.041;   -8.484;  660.554
408.917;  -12.517;   -7.624;  681.864
409.509;  -14.714;   -8.304;  740.396
410.102;  -16.721;   -8.495;  643.948
410.695;  -10.673;   -7.824;  665.758
411.287;  -11.588;   -7.754;  599.821
411.880;  -12.362;   -9.294;  585.421
412.472;  -15.727;   -8.814;  613.092
413.065;  -13.536;   -6.674;  629.408
413.657;  -11.073;   -9.664;  576.678
414.250;  -10.982;  -10.264;  646.681
414.842;  -12.493;   -8.664;  676.353
415.434;  -10.670;   -8.584;  570.463
416.027;   -5.503;   -9.423;  652.196
416.619;   -7.992;  -10.764;  713.400
417.211;   -8.331;   -7.404;  599.352
417.804;   -5.922;   -7.383;  628.499
418.396;   -8.165;   -8.334;  607.643
418.988;   -7.077;   -9.633;  659.238
419.580;  -10.487;  -10.554;  568.276
420.172;   -8.358;   -8.683;  536.196
420.764;   -3.955;   -9.713;  672.482
421.356;   -5.321;  -11.303;  636.898
421.948;   -5.413;   -8.453;  677.661
422.540;   -0.877;   -5.793;  680.027
423.132;   -1.942;   -7.162;  600.641
423.724;   -4.930;   -7.933;  561.267
424.316;   -2.641;   -9.083;  621.345
424.908;    0.319;   -8.392;  591.517
425.500;    1.440;   -8.062;  647.978
426.092;    1.962;   -9.692;  648.268
426.683;    0.729;   -8.223;  684.836
427.275;    2.956;   -8.602;  641.471
427.867;    4.793;   -8.382;  668.948
428.458;    5.575;  -10.472;  732.344
429.050;    3.858;   -9.112;  680.749
429.642;    5.927;   -7.752;  743.124
430.233;    6.265;   -8.832;  569.356
430.825;    7.980;   -8.292;  724.809
431.416;    5.081;   -7.522;  698.241
432.008;    8.145;   -9.262;  651.723
432.599;    9.386;   -6.441;  656.073
433.190;    6.703;   -9.222;  637.670
433.782;    5.032;  -11.832;  590.395
434.373;   13.888;   -7.121;  884.765
434.964;   12.082;   -9.141;  602.920
435.556;    9.063;   -9.332;  634.537
436.147;   12.208;   -8.892;  758.490
436.738;   12.210;   -8.151;  701.099
437.329;   17.513;   -8.281;  721.723
437.920;   10.473;   -9.062;  666.688
438.511;    9.602;  -11.182;  564.526
439.103;   17.116;   -7.461;  623.998
439.694;   18.092;   -8.541;  681.583
440.285;   19.378;   -7.351;  764.432
440.876;   17.710;   -8.201;  845.738
441.466;   16.993;  -10.381;  575.162
442.057;   21.657;   -7.620;  665.814
442.648;   21.045;   -8.461;  746.255
443.239;   18.155;   -8.991;  620.477
443.830;   23.831;   -7.910;  704.958
444.421;   26.191;   -7.340;  655.474
445.011;   22.796;   -8.981;  693.619
445.602;   21.905;   -9.341;  743.126
446.193;   23.771;  -11.390;  488.117
446.783;   28.444;  -11.240;  640.397
447.374;   23.879;   -8.471;  692.759
447.964;   23.945;   -8.471;  713.770
448.555;   32.360;   -6.590;  822.742
449.145;   28.942;   -8.200;  662.853
449.736;   30.564;  -11.040;  803.179
450.326;   29.563;   -9.640;  713.626
450.917;   34.985;   -9.480;  675.324
451.507;   33.971;   -8.020;  600.661
452.097;   35.247;  -10.210;  746.267
452.688;   35.689;   -7.810;  742.160
453.278;   35.351;   -9.360;  566.840
453.868;   41.083;   -8.669;  793.550
454.458;   38.448;  -10.950;  651.141
455.048;   38.142;  -10.200;  711.783
455.639;   39.138;   -9.369;  567.096
456.229;   42.572;   -7.739;  710.694
456.819;   44.872;   -8.939;  751.158
457.409;   44.869;   -7.169;  773.993
457.999;   47.962;   -7.779;  737.505
458.589;   48.003;   -7.039;  686.606
459.179;   47.090;   -9.019;  717.658
459.769;   45.074;   -8.909;  627.099
460.358;   50.562;   -8.659;  797.262
460.948;   50.183;   -8.209;  689.503
461.538;   51.954;   -9.879;  660.677
462.128;   50.040;   -9.379;  664.934
462.717;   56.806;   -9.158;  710.326
463.307;   59.708;   -8.638;  705.846
463.897;   55.350;   -8.869;  656.942
464.486;   54.948;   -7.409;  837.128
465.076;   59.492;   -9.618;  733.776
465.666;   62.038;   -7.578;  652.900
466.255;   59.849;   -9.369;  785.651
466.845;   59.026;  -10.049;  666.749
467.434;   62.327;   -8.168;  725.873
468.023;   63.222;   -9.188;  658.357
468.613;   61.235;   -9.849;  713.946
469.202;   64.355;  -12.958;  646.507
469.791;   69.768;   -9.488;  737.811
470.381;   71.000;   -6.468;  742.813
470.970;   70.821;  -10.248;  711.099
471.559;   71.252;  -11.428;  733.291
472.148;   72.685;   -9.738;  675.737
472.738;   75.335;   -7.877;  765.466
473.327;   75.339;  -11.868;  637.529
473.916;   75.121;   -8.578;  737.446
474.505;   79.706;  -11.137;  751.703
475.094;   82.301;   -9.407;  806.570
475.683;   81.230;   -9.977;  797.699
476.272;   81.770;  -10.807;  730.632
476.861;   84.949;  -11.017;  706.754
477.449;   92.318;  -10.316;  728.487
478.038;   85.225;  -10.187;  692.513
478.627;   85.980;  -12.458;  714.852
479.216;   93.865;  -10.127;  769.441
479.805;   95.938;   -6.256;  783.375
480.393;   96.372;   -8.737; 1008.945
480.982;   94.835;   -9.087;  874.501
481.571;  100.999;   -7.806;  858.333
482.159;  100.448;  -10.596;  705.386
482.748;  100.449;  -11.507;  821.385
483.336;  105.666;   -8.366;  858.209
483.925;  105.475;   -7.497;  774.373
484.513;  112.771;   -8.326;  758.962
485.102;  108.935;  -10.277;  810.965
485.690;  117.893;   -8.256; 1011.050
486.278;  119.166;   -7.146;  979.329
486.867;  119.189;   -7.986;  809.662
487.455;  121.362;   -9.926;  898.229
488.043;  122.440;  -10.026;  748.361
488.631;  130.710;   -7.226; 1005.079
489.220;  135.004;   -8.696;  908.626
489.808;  133.907;  -12.276;  741.415
490.396;  141.066;   -9.386;  914.645
490.984;  145.826;   -8.506;  830.161
491.572;  155.651;   -8.226;  940.315
492.160;  161.702;   -9.836;  919.081
492.748;  171.274;  -10.316;  884.341
493.336;  188.951;   -7.146; 1019.693
493.924;  209.548;   -7.965;  958.077
494.512;  233.093;  -10.316; 1066.638
495.100;  265.576;  -10.186; 1103.280
495.687;  312.463;   -7.805; 1206.373
496.275;  371.085;   -9.686; 1150.796
496.863;  443.084;  -11.566; 1281.171
497.451;  528.542;  -11.406; 1386.805
498.038;  648.730;   -8.235; 1556.729
498.626;  754.781;   -7.485; 1741.407
499.214;  896.848;   -8.646; 2016.609
499.801; 1118.555;   -9.936; 2220.633
500.389; 1296.521;   -8.056; 2312.494
500.976; 1460.344;   -6.166; 2744.849
501.564; 1647.708;   -9.126; 3148.565
502.151; 1932.933;  -12.456; 3515.999
502.738; 2316.445;  -10.056; 3971.274
503.326; 2691.646;  -10.605; 4403.796
503.913; 3016.003;  -10.576; 5161.749
504.500; 3483.286;   -9.056; 5986.420
505.088; 3936.003;  -10.136; 6381.201
505.675; 4636.481;   -9.075; 6925.547
506.262; 5118.181;  -11.346; 7619.060
506.849; 5675.675;   -9.376; 8733.969
507.436; 6205.423;   -7.365; 9790.121
508.023; 6547.516;   -8.686; 9985.472
508.610; 6957.602;   -8.846;10434.618
509.197; 7855.707;   -9.077;11198.435
509.784; 9035.565;  -10.246;12391.194
510.371; 9510.847;   -9.825;13603.713
510.958;10256.388;  -10.896;14426.586
511.545;10951.999;   -9.006;15243.775
512.132;11683.743;   -8.765;15945.876
512.719;12691.273;   -8.286;16340.369
513.305;14581.073;   -9.256;18011.766
513.892;16705.301;  -11.106;19754.971
514.479;18277.371;   -8.576;20967.805
515.066;19395.564;   -9.046;22299.793
515.652;19838.990;  -10.676;22908.660
516.239;21297.738;  -10.166;23798.875
516.825;21854.484;  -11.266;25567.275
517.412;21459.723;   -7.446;28154.959
517.998;21823.514;  -10.916;28344.111
518.585;21354.041;   -9.166;27134.219
519.171;21266.078;  -10.135;27268.576
519.758;22796.762;   -8.806;28964.129
520.344;25815.357;   -6.716;30664.494
520.930;27441.248;  -10.166;32550.605
521.516;27819.908;   -9.615;35422.895
522.103;29019.811;   -8.656;38280.004
522.689;31148.973;   -9.646;37835.117
523.275;31928.715;  -10.786;37288.613
523.861;32750.840;   -9.266;37281.395
524.447;32646.559;   -8.285;37846.949
525.033;32845.254;   -9.426;38321.949
525.619;32418.691;   -9.836;38579.285
526.205;33275.180;   -8.136;40622.875
526.791;34510.996;   -9.986;42258.836
527.377;36105.621;   -8.236;42966.902
527.963;34593.922;  -12.117;42018.949
528.549;33144.180;   -8.376;42476.828
529.135;34351.742;   -8.696;41854.852
529.721;36064.371;   -9.686;41237.711
530.306;38077.512;   -8.616;41259.445
530.892;41125.582;   -9.396;41506.047
531.478;41804.891;   -9.926;43559.613
532.063;42958.184;  -10.236;47695.563
532.649;45234.520;   -8.257;50808.324
533.235;46739.742;  -11.476;51787.500
533.820;45503.422;   -8.156;52145.035
534.406;44127.754;  -12.257;51133.488
534.991;42242.520;   -8.686;49996.805
535.576;40012.172;   -9.426;48882.852
536.162;39885.988;   -8.436;46942.285
536.747;38803.988;  -10.957;45711.746
537.333;38330.676;  -13.147;48510.180
537.918;41140.566;   -9.027;50439.891
538.503;42124.570;   -8.256;50863.711
539.088;45380.027;  -10.576;50906.922
539.673;47357.418;  -10.907;52621.965
540.259;47601.367;   -9.126;52368.094
540.844;44570.559;   -9.026;50879.109
541.429;46092.109;   -9.597;52077.777
542.014;50177.117;  -11.447;52716.695
542.599;51315.039;   -9.236;52363.281
543.184;49685.590;  -12.267;53187.137
543.769;50799.711;  -10.367;54697.605
544.354;50636.523;  -10.887;53913.914
544.938;44421.871;  -11.687;49680.164
545.523;39855.070;   -8.286;47386.277
546.108;41366.727;   -9.317;49151.949
546.693;43559.707;  -10.187;51384.637
547.278;42650.016;   -9.926;51853.254
547.862;42012.766;   -9.196;51173.750
548.447;41358.789;   -9.657;51691.395
549.031;41639.926;   -9.127;52456.703
549.616;44998.477;  -10.836;52714.516
550.201;48330.953;   -8.507;52414.598
550.785;48690.695;  -10.537;52355.059
551.370;48606.738;  -11.727;54589.453
551.954;48703.180;   -9.457;58267.348
552.538;48200.141;   -8.147;59062.176
553.123;47002.801;   -9.397;58115.285
553.707;44773.926;   -9.558;56556.285
554.291;45249.840;   -9.417;56201.668
554.876;45313.074;   -7.627;55335.762
555.460;43700.730;  -10.457;54155.703
556.044;42009.098;  -10.078;53721.484
556.628;42633.203;   -9.407;53731.016
557.212;42641.242;   -7.957;54312.531
557.796;42704.984;  -11.327;53797.773
558.380;46877.723;  -10.868;56145.984
558.964;47403.230;   -9.637;57277.930
559.548;45477.938;   -8.807;56459.641
560.132;46161.438;  -10.187;54434.543
560.716;45447.207;   -9.868;54800.617
561.300;46414.141;  -10.217;57606.945
561.884;47099.473;   -4.947;58972.445
562.467;46463.977;   -9.588;57327.570
563.051;44863.934;  -11.138;54962.434
563.635;42932.402;   -9.358;52594.473
564.219;42311.875;   -9.797;50610.410
564.802;42583.082;   -9.918;49551.180
565.386;40472.465;  -10.838;48370.953
565.969;39652.172;   -8.037;48178.871
566.553;39081.559;   -5.667;49957.305
567.136;37761.320;   -8.258;50369.594
567.720;36761.379;  -11.278;49492.004
568.303;38185.121;   -9.028;50616.352
568.887;36951.625;   -7.508;50727.148
569.470;34950.590;  -11.068;51698.379
570.053;35454.559;  -10.028;52122.078
570.637;35719.082;  -11.077;52536.438
571.220;36602.605;   -8.747;51186.098
571.803;38876.723;   -8.868;51032.762
572.386;40977.734;  -10.608;49609.887
572.969;40713.934;  -10.548;48285.926
573.552;38414.879;   -7.898;47624.285
574.135;39580.867;   -9.918;45498.641
574.718;35996.910;  -10.328;41970.434
575.301;33164.730;   -9.548;41447.137
575.884;30332.551;   -8.768;40923.836
576.467;33404.762;   -9.858;45267.723
577.050;33661.629;  -11.018;48175.543
577.633;34520.938;  -10.048;47729.328
578.216;33953.234;  -10.268;47579.793
578.799;31479.824;  -11.808;47820.996
579.381;31465.850;   -7.338;48115.551
579.964;33979.305;   -9.728;47333.766
580.547;35142.203;   -8.928;46668.969
581.129;36131.840;   -9.149;44466.141
581.712;36345.012;  -11.359;44164.922
582.294;33890.844;  -10.738;46477.855
582.877;32992.078;   -8.788;48244.254
583.459;33618.477;   -9.859;47437.895
584.042;35723.281;   -9.649;46943.219
584.624;35425.496;  -10.529;46792.227
585.206;34082.375;  -10.298;46557.250
585.789;33725.246;  -11.029;45793.773
586.371;31884.943;   -9.359;43836.391
586.953;31078.148;   -8.799;42972.492
587.536;30665.447;   -8.928;42487.211
588.118;30758.617;   -9.180;42086.414
588.700;30374.199;  -10.519;43389.930
589.282;29374.199;   -8.098;43646.039
589.864;29251.648;   -8.139;43438.109
590.446;31046.758;  -10.509;43151.926
591.028;31658.588;  -11.119;42781.867
591.610;32953.648;  -10.019;42839.098
592.192;32719.443;   -8.838;42820.402
592.774;29796.889;  -11.549;40724.277
593.356;27018.906;  -11.609;39874.789
593.937;26250.896;  -10.019;39980.648
594.519;28395.609;   -7.839;42069.633
595.101;30891.805;  -10.779;42976.031
595.683;31923.947;  -10.049;44084.441
596.264;31179.857;   -9.969;43478.797
596.846;30624.500;   -9.699;43803.672
597.427;29066.803;  -10.970;42986.934
598.009;27225.912;  -13.090;42832.219
598.591;25545.930;   -9.509;42580.086
599.172;26082.133;   -9.019;43061.805
599.753;28379.764;  -13.310;41691.469
600.335;30757.281;  -11.010;40692.520
600.916;30987.889;  -10.309;39982.422
601.498;30246.629;   -8.209;40318.617
602.079;29798.098;  -11.440;40670.609
602.660;31368.227;   -8.690;41450.898
603.241;32631.969;  -12.759;41137.738
603.823;31401.500;  -10.409;38868.797
604.404;30867.867;  -11.790;38182.785
604.985;32536.971;  -10.280;38078.047
605.566;34013.098;   -8.059;38056.633
606.147;31280.205;   -8.960;37020.418
606.728;29089.975;  -10.710;37883.359
607.309;28388.113;  -12.760;38748.273
607.890;26945.207;   -9.959;38850.230
608.471;27359.611;   -9.780;37457.918
609.051;29196.988;   -8.940;36066.457
609.632;30208.266;  -12.070;35991.074
610.213;30014.141;   -9.610;37402.641
610.794;29884.498;   -8.750;38383.363
611.374;30470.070;  -11.100;40562.387
611.955;30976.682;  -12.200;38533.727
612.536;31091.678;  -10.410;36951.789
613.116;30195.467;  -10.010;37197.891
613.697;28551.582;  -10.480;38411.125
614.277;28350.461;  -12.751;38673.938
614.858;27541.051;  -11.600;37075.863
615.438;27742.994;   -8.190;35092.906
616.019;26467.100;   -8.941;33666.301
616.599;28262.111;  -13.540;34189.023
617.179;31056.523;  -10.890;36952.047
617.760;30139.244;   -7.610;39582.574
618.340;28262.373;  -14.441;38943.977
618.920;27943.873;   -9.180;37594.156
619.500;30174.355;  -11.881;37866.938
620.080;31815.422;   -9.870;37869.043
620.660;30604.529;  -13.211;36868.617
621.241;29403.428;  -11.921;36352.309
621.821;28811.498;  -10.271;35459.520
622.401;29622.535;   -8.200;35207.414
622.980;31375.232;  -11.141;35980.422
623.560;31091.139;  -14.321;37351.328
624.140;29517.539;   -9.360;34388.582
624.720;25359.574;   -7.481;32368.764
625.300;23129.424;  -12.730;32638.629
625.880;27101.965;  -11.441;34599.035
626.459;30430.559;  -10.971;36831.738
627.039;33839.348;   -9.011;38299.098
627.619;34186.980;   -8.521;38289.574
628.198;32470.045;   -9.861;37220.695
628.778;31528.557;   -8.841;37632.563
629.357;31719.672;   -9.891;38003.012
629.937;31863.020;  -11.871;38402.039
630.516;31418.568;  -10.641;37868.801
631.096;33401.105;  -11.391;35760.410
631.675;34958.805;   -6.622;35225.219
632.254;32236.633;  -13.002;35130.289
632.834;30910.799;  -11.622;35794.570
633.413;32006.977;   -8.321;35788.922
633.992;30177.912;   -7.732;34532.863
634.571;30257.404;  -10.992;33590.113
635.151;29793.859;  -10.422;34943.863
635.730;30484.221;  -11.511;35352.523
636.309;30220.891;   -7.901;35366.605
636.888;29555.756;  -11.452;36165.637
637.467;29046.674;  -10.672;37515.902
638.046;29794.406;   -9.301;39288.695
638.625;31143.604;  -11.452;38279.699
639.204;31782.145;  -12.262;37741.598
639.782;32169.078;  -11.892;38364.551
640.361;30546.170;  -11.411;36740.621
640.940;25542.475;  -11.501;34950.082
641.519;27872.311;  -10.921;34137.398
642.097;31523.896;  -10.101;35654.258
642.676;29921.451;  -10.821;35637.957
643.255;31103.209;   -8.631;36567.074
643.833;33723.730;  -11.411;37809.434
644.412;36183.090;  -12.021;37337.293
644.990;36395.566;  -12.271;37018.531
645.569;35302.527;   -9.741;36518.469
646.147;32924.809;   -9.051;36186.430
646.726;32839.082;  -13.861;36267.688
647.304;32935.086;   -9.461;36647.625
647.882;32742.346;  -13.171;39286.742
648.461;33008.496;  -11.911;39157.703
649.039;31788.361;   -9.541;35412.883
649.617;31305.436;   -8.901;34744.918
650.195;29167.867;   -8.591;35403.098
650.773;28646.031;  -13.031;35053.797
651.352;27819.158;  -12.211;33756.816
651.930;25546.598;  -11.361;31868.773
652.508;22529.027;   -8.601;33121.551
653.086;25222.133;   -9.991;33564.793
653.663;29440.539;  -11.931;34054.668
654.241;31980.945;  -10.821;35693.309
654.819;33440.277;   -9.341;36422.906
655.397;31202.463;  -10.851;38213.484
655.975;29956.740;  -11.461;39507.625
656.553;29912.348;   -8.841;39498.223
657.130;29228.965;  -10.371;40395.480
657.708;29919.732;  -11.071;39242.020
658.286;29375.736;  -11.141;38920.020
658.863;30400.551;  -10.861;40202.898
659.441;34845.047;  -11.181;39677.938
660.018;35160.219;  -10.851;40413.355
660.596;34645.324;  -12.571;39931.414
661.173;35104.828;  -12.141;39604.531
661.750;34931.375;  -11.571;39700.070
662.328;32440.621;  -10.780;39292.809
662.905;29849.844;  -10.750;38235.648
663.482;26942.674;  -11.320;36212.305
664.060;26189.576;  -10.160;35944.945
664.637;30750.262;  -13.120;35170.785
665.214;32719.906;  -11.500;34197.523
665.791;30850.729;  -12.430;34549.520
666.368;28449.457;   -9.840;35118.578
666.945;27582.193;  -11.290;36019.418
667.522;28216.887;  -13.540;36048.438
668.099;28795.711;  -10.250;36243.914
668.676;27783.117;  -11.270;35958.875
669.253;26737.342;   -8.210;37384.730
669.830;26194.623;   -9.710;36779.629
670.407;25933.004;   -9.700;35231.289
670.984;26647.273;   -9.190;35544.270
671.560;25874.168;   -9.560;35466.867
672.137;25613.215;  -11.820;34280.863
672.714;28467.336;  -12.460;34632.863
673.290;32767.996;  -10.940;35135.422
673.867;33136.348;  -10.510;36114.480
674.443;30025.988;  -12.110;36152.859
675.020;31281.709;  -11.760;35327.238
675.596;32134.691;   -9.380;35795.176
676.173;31016.863;  -11.120;35430.355
676.749;29784.799;  -13.390;33549.516
677.326;29029.973;  -12.600;32210.012
677.902;28103.357;  -10.830;32068.871
678.478;28059.377;  -12.400;32583.891
679.054;29820.779;   -8.610;32088.928
679.631;29905.555;  -11.640;30978.848
680.207;29805.215;   -8.140;33160.887
680.783;30609.217;  -12.300;35570.363
681.359;29572.973;  -10.910;36125.184
681.935;29875.805;  -11.040;35240.922
682.511;30502.844;  -11.130;34429.961
683.087;30620.328;  -11.080;34463.680
683.663;32867.547;  -10.530;34648.898
684.239;32530.707;  -12.120;34546.457
684.815;29940.230;   -8.870;35586.375
685.390;29096.727;   -8.940;35821.895
685.966;29218.271;  -12.109;35085.871
686.542;28332.906;  -13.539;34198.230
687.118;28094.713;  -10.379;32847.707
687.693;28374.713;  -10.189;32794.027
688.269;27184.521;  -12.939;33072.367
688.844;26246.049;   -8.679;33141.664
689.420;27238.152;  -10.919;33965.742
689.995;27627.361;   -7.489;34655.523
690.571;27153.254;  -12.199;33576.742
691.146;27463.861;   -8.979;32657.219
691.722;28883.318;   -9.119;32526.979
692.297;27145.410;  -10.519;33014.617
692.872;26427.320;  -10.629;34012.254
693.448;26813.369;  -12.119;34237.434
694.023;27440.895;   -8.219;34142.672
694.598;25657.523;  -13.209;34132.031
695.173;24959.635;  -11.879;34205.250
695.748;25754.113;  -12.039;32882.488
696.323;25700.160;  -11.779;32864.906
696.898;26652.008;  -10.219;33170.004
697.473;27726.338;  -13.639;32432.984
698.048;28065.740;  -11.239;31649.303
698.623;30043.754;  -10.859;30778.141
699.198;31620.076;  -13.379;31140.119
699.773;32343.955;  -13.409;31764.299
700.348;32956.961;  -12.329;31780.816
700.922;33392.184;   -8.749;32046.375
701.497;33584.824;  -12.449;32603.574
702.072;31981.281;   -8.879;34799.871
702.646;29740.391;  -10.719;35793.172
703.221;28511.859;   -8.469;35201.590
703.795;28418.488;  -11.389;34764.527
704.370;28168.418;  -12.499;34307.367
704.944;27917.498;  -11.449;33509.887
705.519;27219.117;  -10.659;31388.584
706.093;26704.170;  -12.909;31340.104
706.668;27300.482;  -13.509;32630.281
707.242;26870.504;  -10.049;32728.779
707.816;24818.672;  -10.629;32947.238
708.390;24295.168;  -11.829;33277.855
708.965;24833.600;  -11.159;33834.336
709.539;25771.455;  -11.069;33709.273
710.113;25058.006;  -10.908;33044.313
710.687;23350.564;   -9.488;31953.992
711.261;23562.871;  -13.068;30505.949
711.835;26464.645;  -12.748;30262.369
712.409;27207.080;  -10.678;31254.447
712.983;25907.719;  -11.658;32754.986
713.557;26239.734;  -13.718;34018.824
714.131;26739.693;  -13.388;34579.625
714.704;27499.457;   -9.818;33890.262
715.278;28637.180;  -11.818;33531.102
715.852;29800.543;  -11.328;33601.660
716.425;30328.711;   -9.118;33515.117
716.999;30432.172;  -10.188;33185.555
717.573;30396.641;   -9.808;33905.996
718.146;32822.027;  -11.478;35199.293
718.720;32712.123;  -10.998;35060.551
719.293;30842.496;   -9.508;34973.230
719.867;30341.260;  -12.138;36394.449
720.440;29175.980;  -11.288;36663.008
721.013;31697.750;  -11.428;35102.426
721.587;33295.609;  -11.698;33985.266
722.160;34533.711;  -11.608;33524.965
722.733;33255.988;  -11.428;32987.043
723.306;31854.193;  -12.518;33066.301
723.880;31591.467;   -7.408;33399.500
724.453;30309.357;  -11.048;33468.297
725.026;28890.625;  -11.678;33816.637
725.599;27790.957;  -10.978;32797.996
726.172;26951.396;   -8.838;33187.434
726.745;27860.410;  -11.438;35136.613
727.318;28649.824;   -9.828;35751.730
727.891;27408.279;  -10.868;35890.430
728.463;25551.492;  -11.348;34822.090
729.036;23852.211;  -11.608;32895.086
729.609;23810.787;  -14.738;31823.225
730.182;25088.408;   -8.448;31445.283
730.754;26366.490;  -11.228;32373.223
731.327;26691.824;  -12.018;33676.820
731.900;28507.143;  -13.748;33417.000
732.472;28647.844;  -10.928;31978.498
733.045;27011.113;   -9.478;30368.777
733.617;25156.342;  -12.967;30574.215
734.190;24228.500;  -11.707;31280.975
734.762;23224.592;  -11.067;31674.412
735.334;22650.680;  -10.587;31247.291
735.907;21734.701;  -11.947;29876.211
736.479;22318.139;  -11.667;29808.488
737.051;24953.967;  -10.187;30233.547
737.623;27330.480;   -6.887;31469.086
738.195;30232.639;  -12.117;31784.225
738.768;32104.975;  -14.077;32120.523
739.340;31094.402;  -12.207;32094.342
739.912;27732.146;   -8.977;31312.680
740.484;25957.758;  -11.017;31946.238
741.056;26941.094;  -13.517;32984.059
741.628;28935.844;  -11.507;33897.715
742.199;29150.818;   -7.597;33213.016
742.771;29922.957;  -12.227;31369.113
743.343;29304.371;  -12.427;31865.473
743.915;27634.186;   -9.827;32388.631
744.487;26576.383;  -10.007;31079.568
745.058;24791.756;  -11.887;30570.107
745.630;24041.061;  -10.787;29970.127
746.201;23505.215;  -10.887;29186.766
746.773;23592.357;   -9.707;28805.723
747.344;24470.609;  -11.137;29591.223
747.916;24652.818;  -11.887;31412.201
748.487;24064.160;   -9.707;32194.898
749.059;23471.938;  -10.027;32533.719
749.630;23364.414;  -11.787;32158.518
750.201;22435.867;  -12.767;30855.395
750.773;22047.271;  -11.497;28622.555
751.344;22658.125;   -9.937;28405.732
751.915;23069.809;  -11.567;28461.551
752.486;22456.074;  -13.267;27842.850
753.057;20514.879;  -10.627;27845.008
753.628;19136.941;  -11.657;27728.107
754.199;21367.840;  -12.097;27381.086
754.770;22987.670;  -11.447;25882.203
755.341;22937.678;  -11.997;25886.184
755.912;20834.408;  -10.207;26050.861
756.483;19090.223;  -10.937;26798.779
757.054;18908.680;  -11.527;27048.238
757.625;19088.447;  -12.886;26294.838
758.195;19476.262;  -11.226;26142.076
758.766;19600.807;  -12.366;26392.234
759.337;18527.992;  -11.946;26334.594
759.907;18562.811;  -13.856;27579.652
760.478;19407.137;   -9.606;28352.770
761.048;19471.596;  -11.606;27325.088
761.619;19732.348;  -11.036;26460.428
762.189;19114.355;  -12.206;26029.826
762.760;20409.939;   -9.666;26430.145
763.330;21220.973;   -9.796;26670.902
763.900;19237.570;  -10.896;26603.021
764.471;17622.086;  -11.726;25542.740
765.041;18109.930;   -9.656;24358.459
765.611;19091.713;  -11.276;23991.297
766.181;18925.590;  -12.116;24470.236
766.751;18334.592;  -12.376;24845.975
767.321;18227.932;  -11.626;24533.633
767.891;18409.393;  -10.426;24916.492
768.461;17288.535;  -13.456;24776.771
769.031;15344.768;  -11.616;24757.988
769.601;15311.608;  -11.356;24181.088
770.171;15662.884;  -11.586;23670.387
770.741;16097.758;  -12.696;22960.045
771.311;16193.131;  -10.226;22917.523
771.880;15870.954;  -11.146;23562.941
772.450;16498.766;  -11.716;24216.500
773.020;16730.566;  -13.226;24140.398
773.589;16431.557;  -12.586;24414.857
774.159;16179.565;  -10.246;23858.717
774.729;15696.948;  -11.586;22942.135
775.298;14868.779;  -15.926;22324.033
775.867;14987.565;  -10.426;21140.313
776.437;14847.573;  -11.416;20838.092
777.006;13378.787;  -12.766;20599.510
777.576;13443.752;  -13.666;20508.809
778.145;14009.850;  -10.066;20732.947
778.714;13628.590;  -10.276;21062.465
779.283;13850.019;  -12.086;20949.664
779.853;15253.463;  -14.016;20508.623
780.422;15774.647;  -12.376;20649.082
780.991;14774.781;   -9.246;21527.520
781.560;13828.956;   -9.775;22632.658
782.129;13495.965;  -12.495;23048.277
782.698;13116.156;  -11.775;23438.555
783.267;13324.354;  -10.065;23267.734
783.836;13897.853;  -12.455;22415.133
784.404;14645.075;  -13.385;20443.152
784.973;15472.835;  -11.045;19699.150
785.542;15126.750;   -9.505;19763.828
786.111;14100.956;   -9.385;20341.408
786.679;13900.777;  -13.475;20207.967
787.248;13927.324;  -11.245;19516.465
787.817;12105.273;  -12.485;18900.363
788.385;10419.970;  -11.165;17879.121
788.954;11049.831;  -11.755;17658.301
789.522;11788.807;   -9.625;17788.879
790.090;11471.905;   -9.665;18118.277
790.659;11114.805;   -9.295;18338.736
791.227;12133.802;  -12.175;18508.615
791.795;13505.816;  -12.145;17898.254
792.364;13370.688;  -11.575;17295.133
792.932;11981.220;  -11.085;16822.051
793.500;10795.093;  -11.345;17040.148
794.068;10696.254;  -12.565;17179.787
794.636;11790.326;  -12.105;16664.246
795.204;12425.336;  -11.995;16524.545
795.772;11886.212;  -12.615;17274.564
796.340;11500.816;  -12.425;17891.002
796.908;11280.176;  -11.455;17648.561
797.476;10577.016;  -12.165;17064.080
798.044;10144.740;  -15.795;16672.777
798.612;10350.683;  -10.985;17023.996
799.180;11122.363;  -12.055;16561.615
799.747;11472.331;  -12.525;15962.773
800.315;10311.463;  -14.765;15296.992
800.883; 9069.761;  -12.435;14801.771
801.450; 8967.321;  -11.295;14534.430
802.018; 9411.877;  -11.185;14173.248
802.585; 9367.233;  -11.625;14029.547
803.153; 8386.358;  -10.665;13836.846
803.720; 7913.471;  -10.275;13567.324
804.287; 7818.078;  -12.865;13360.622
804.855; 8074.926;  -12.324;13681.981
805.422; 8381.684;  -11.574;13536.560
805.989; 8210.854;  -11.004;13355.958
806.556; 8413.176;  -12.214;13747.896
807.124; 8823.015;  -13.304;13987.376
807.691; 8523.047;  -12.034;14038.674
808.258; 7868.483;  -11.014;14120.152
808.825; 7757.913;  -11.804;13860.111
809.392; 7685.661;  -11.544;13268.790
809.959; 7569.344;  -14.954;12680.389
810.526; 7875.056;  -10.214;12427.308
811.093; 8336.430;  -10.754;12030.105
811.659; 8028.721;  -12.194;11653.664
812.226; 6887.528;   -9.194;11637.183
812.793; 6535.323;   -9.644;11611.521
813.360; 7347.795;  -11.544;11885.181
813.926; 8211.057;  -12.814;12770.539
814.493; 8156.044;  -11.524;12677.638
815.060; 7835.210;  -12.254;11974.336
815.626; 7364.508;  -12.114;11594.715
816.193; 7038.020;  -11.994;11579.474
816.759; 6930.746;  -11.464;11666.972
817.325; 6627.776;  -10.444;11325.530
817.892; 6302.391;  -11.124;11105.369
818.458; 6157.937;  -11.864;10843.928
819.024; 6435.289;  -10.634;10714.406
819.591; 6533.473;  -10.554;10469.165
820.157; 6787.767;  -13.334;10235.523
820.723; 7054.665;  -13.044;10847.563
821.289; 7214.492;   -9.664;11040.980
821.855; 7428.059;  -10.994;10357.100
822.421; 7486.710;  -11.784; 9978.918
822.987; 7451.133;  -12.554; 9754.177
823.553; 7797.239;  -12.554;10065.755
824.119; 7665.801;   -8.544;10036.294
824.685; 6718.108;  -12.144;10029.192
825.251; 6120.688;  -12.754;10199.230
825.816; 5650.245;  -11.354; 9820.189
826.382; 5344.758;  -11.004; 9297.248
826.948; 5342.426;  -11.004; 9381.347
827.513; 5273.561;  -12.474; 9450.726
828.079; 5266.163;  -13.084; 9472.444
828.645; 5451.806;  -10.813; 9292.643
829.210; 5272.983;  -11.593; 9065.341
829.776; 5195.114;  -12.633; 9132.620
830.341; 5189.633;  -10.473; 9092.878
830.906; 5014.853;   -8.763; 9078.557
831.472; 4755.346;  -13.453; 8534.535
832.037; 4150.687;  -12.173; 8677.874
832.602; 3927.899;  -14.093; 8628.692
833.167; 4204.244;  -13.593; 8879.031
833.733; 4742.271;  -10.793; 9189.790
834.298; 5124.066;  -14.783; 9052.608
834.863; 4713.857;  -11.023; 8895.087
835.428; 4462.236;  -11.113; 8824.266
835.993; 4914.045;   -9.983; 8845.385
836.558; 5165.475;  -13.003; 8888.563
837.123; 4986.722;  -10.733; 8966.582
837.688; 4580.127;   -9.683; 8617.860
838.253; 4397.506;  -12.253; 8590.699
838.817; 4412.314;  -11.643; 8443.797
839.382; 4387.583;  -11.953; 8799.356
839.947; 4466.399;  -11.443; 8810.595
840.511; 4795.325;  -10.843; 8796.394
841.076; 5039.216;  -13.533; 8347.231
841.641; 4841.623;  -11.743; 8224.330
842.205; 4300.470;  -10.013; 8223.349
842.770; 3980.900;  -11.023; 8622.107
843.334; 4079.622;  -14.273; 8410.386
843.898; 4493.724;  -11.323; 8337.465
844.463; 4880.796;  -10.263; 8506.283
845.027; 5047.066;  -10.353; 8280.962
845.591; 4979.203;  -12.163; 8231.141
846.156; 4820.789;  -12.263; 7969.179
846.720; 4816.367;  -11.553; 7768.278
847.284; 4617.364;  -12.393; 7630.957
847.848; 3812.783;  -12.623; 7472.395
848.412; 3208.070;  -11.863; 7437.394
848.976; 3145.088;  -10.203; 7674.592
849.540; 3341.305;  -10.603; 7836.011
850.104; 3544.181;  -12.423; 7913.669
850.668; 3573.772;  -14.613; 7694.508
851.232; 3584.974;  -12.873; 7756.887
851.796; 3805.759;  -14.192; 7926.545
852.359; 4004.968;  -13.652; 7827.844
852.923; 3927.114;  -11.402; 7641.163
853.487; 3605.462;  -12.022; 7342.501
854.050; 3432.485;  -15.202; 7042.820
854.614; 3450.109;  -14.592; 7151.338
855.177; 3439.167;  -12.572; 7105.077
855.741; 3464.810;   -9.932; 6989.675
856.304; 3409.531;  -12.192; 6596.634
856.868; 3290.382;  -13.462; 6356.272
857.431; 3284.047;  -11.542; 6468.571
857.995; 3361.839;  -12.062; 6373.210
858.558; 3166.057;  -11.142; 6324.448
859.121; 3018.251;  -11.742; 6408.327
859.684; 3071.202;  -10.332; 6347.886
860.247; 3181.302;  -11.962; 6321.264
860.810; 3241.833;  -12.332; 6301.903
861.374; 3129.204;  -10.292; 6607.881
861.937; 2959.846;  -12.062; 6408.200
862.500; 2975.563;  -11.702; 6572.639
863.062; 3105.489;  -13.852; 6387.297
863.625; 3179.098;  -12.972; 6190.836
864.188; 3145.161;  -10.292; 5807.254
864.751; 3078.770;  -12.382; 5682.413
865.314; 2854.472;  -13.232; 5547.492
865.876; 2536.229;  -12.772; 5500.150
866.439; 2288.730;  -11.952; 5415.909
867.002; 2346.474;   -9.332; 5501.567
867.564; 2682.676;  -11.712; 5413.946
868.127; 2865.395;  -12.012; 5160.325
868.689; 2538.071;  -11.882; 5133.183
869.252; 2167.528;  -11.572; 5252.382
869.814; 2060.212;  -10.692; 5297.141
870.377; 2117.449;  -12.392; 5390.919
870.939; 2194.088;  -10.582; 5599.898
871.501; 2248.186;  -12.782; 5248.336
872.063; 2285.203;  -15.612; 4854.235
872.626; 2350.117;  -13.922; 4817.074
873.188; 2319.567;  -13.832; 4987.732
873.750; 2252.493;  -10.962; 4868.651
874.312; 2303.457;  -11.022; 4779.330
874.874; 2360.624;  -13.152; 4866.348
875.436; 2291.819;  -13.401; 4718.887
875.998; 2176.347;   -8.891; 4660.005
876.560; 2079.357;  -12.591; 4462.964
877.122; 2014.564;  -14.531; 4145.042
877.683; 1972.886;  -10.781; 4056.481
878.245; 1872.216;  -14.281; 3950.740
878.807; 1806.202;  -10.311; 4058.958
879.369; 1757.053;  -13.201; 3954.677
879.930; 1720.396;  -12.061; 3941.495
880.492; 1719.450;   -9.181; 4067.014
881.053; 1734.706;  -12.051; 3859.633
881.615; 1689.336;  -11.501; 3776.071
882.176; 1583.603;  -12.221; 3734.750
882.738; 1471.666;   -8.931; 3678.489
883.299; 1405.687;  -13.571; 3405.407
883.860; 1426.153;  -12.331; 3351.106
884.422; 1375.226;  -10.201; 3394.044
884.983; 1234.415;  -12.521; 3166.443
885.544; 1106.767;  -12.291; 3189.802
886.105; 1046.225;  -12.991; 3160.360
886.666; 1033.023;  -12.901; 3093.059
887.227; 1023.770;  -12.061; 2941.957
887.788;  994.532;  -11.641; 2974.836
888.349;  944.828;  -14.691; 2721.214
888.910;  896.343;   -9.681; 2696.493
889.471;  891.504;   -9.971; 2560.172
890.032;  901.608;  -13.151; 2558.190
890.593;  881.720;  -12.051; 2567.669
891.153;  837.378;  -12.841; 2460.307
891.714;  804.545;  -13.561; 2372.046
892.275;  774.198;  -12.401; 2309.505
892.835;  735.557;  -13.191; 2382.543
893.396;  695.190;  -12.551; 2295.502
893.956;  671.887;  -11.981; 2162.420
894.517;  655.225;  -12.221; 2125.439
895.077;  616.246;  -12.021; 2086.978
895.638;  554.319;  -10.891; 2126.316
896.198;  498.045;  -13.171; 1838.275
896.758;  463.229;  -11.891; 1892.813
897.319;  434.995;  -12.491; 1792.232
897.879;  420.926;  -12.401; 1762.751
898.439;  392.757;  -13.431; 1661.149
898.999;  373.874;  -11.340; 1781.468
899.559;  364.950;  -13.930; 1703.347
900.119;  344.302;  -13.730; 1537.525
900.679;  326.010;   -9.210; 1638.384
901.239;  309.897;  -10.860; 1527.902
901.799;  290.532;  -11.450; 1456.441
902.359;  272.168;  -13.800; 1357.140
902.919;  265.166;  -12.130; 1331.118
903.479;  265.831;  -12.650; 1317.257
904.038;  259.590;  -16.110; 1262.595
904.598;  244.756;  -13.690; 1152.034
905.158;  232.409;  -10.290; 1240.893
905.717;  224.831;  -10.670; 1233.691
906.277;  224.264;  -14.040; 1217.330
906.836;  224.965;  -13.510; 1222.408
907.396;  218.889;  -11.530; 1193.047
907.955;  207.762;  -13.190; 1182.526
908.515;  195.500;  -12.950; 1099.364
909.074;  187.435;  -12.390; 1092.863
909.633;  182.751;  -10.340; 1069.121
910.192;  180.516;  -11.170; 1196.460
910.752;  175.039;  -14.200; 1029.960
911.311;  170.204;  -13.810; 1009.780
911.870;  166.823;  -12.750;  971.460
912.429;  166.950;  -12.380; 1094.080
912.988;  163.911;  -11.930; 1081.060
913.547;  158.422;  -10.990;  940.380
914.106;  154.779;  -11.200;  999.420
914.665;  152.907;  -13.150;  984.020
915.224;  150.556;  -13.310; 1035.760
915.782;  148.494;  -13.340;  922.560
916.341;  147.719;  -10.710; 1049.840
916.900;  145.993;  -12.980;  925.260
917.458;  143.425;  -13.060;  884.220
918.017;  142.372;  -10.900;  942.600
918.576;  141.821;  -11.630;  904.440
919.134;  141.277;  -12.860;  837.980
919.693;  142.101;  -15.160;  893.060
920.251;  140.987;  -13.470;  876.500
920.809;  140.246;  -13.700;  839.580
921.368;  141.189;  -13.420;  885.360
921.926;  141.334;  -14.710;  842.940
922.484;  141.837;  -12.560;  903.360
923.042;  140.797;  -11.930;  880.340
923.601;  142.061;  -10.270;  998.680
924.159;  140.021;  -12.960;  935.560
924.717;  139.651;  -13.040;  841.080
925.275;  141.797;  -12.560;  903.240
925.833;  141.807;  -13.040;  779.320
926.391;  144.787;  -13.360;  938.380
926.949;  143.572;  -13.940;  857.680
927.506;  145.190;   -9.400;  903.500
928.064;  144.703;  -10.940;  877.580
928.622;  143.460;  -13.180;  880.100
929.180;  143.419;  -12.730;  814.180
929.737;  144.355;  -12.840;  808.540
930.295;  148.171;  -11.810;  928.480
930.853;  151.830;  -13.650;  849.100
931.410;  154.610;  -13.580;  821.120
931.968;  156.307;  -12.020;  940.660
932.525;  156.346;  -13.320;  909.380
933.082;  158.009;  -13.800;  811.440
933.640;  164.038;  -11.380;  925.900
934.197;  166.785;  -11.480;  886.360
934.754;  170.077;  -13.220;  897.780
935.312;  169.204;  -14.950;  863.340
935.869;  166.751;  -10.940; 1012.980
936.426;  161.124;  -12.100;  872.800
936.983;  161.780;  -12.930;  889.020
937.540;  161.748;  -14.250;  838.280
938.097;  167.144;  -12.600;  940.120
938.654;  174.188;  -11.260;  898.860
939.211;  177.599;  -13.020;  952.480
939.768;  178.961;  -15.760;  915.420
940.324;  181.220;  -13.920;  904.200
940.881;  176.044;  -11.620;  878.500
941.438;  173.519;   -9.870; 1021.200
941.995;  170.330;  -13.920;  992.560
942.551;  169.651;  -12.830;  875.620
943.108;  171.067;  -11.980;  937.920
943.664;  174.943;  -13.740;  869.340
944.221;  181.530;  -12.670; 1088.140
944.777;  180.018;  -13.250;  869.680
945.334;  178.779;  -13.000;  884.840
945.890;  178.675;  -13.020;  946.480
946.446;  179.291;  -13.880;  947.020
947.003;  181.954;  -12.660;  964.940
947.559;  182.288;   -8.730; 1063.040
948.115;  179.344;  -11.960; 1026.540
948.671;  174.413;  -12.360;  967.300
949.227;  171.368;  -12.700;  859.560
949.783;  168.025;  -13.450;  858.900
950.339;  165.210;  -10.620;  991.000
950.895;  163.914;  -14.770; 1023.840
951.451;  163.573;  -13.650;  925.280
952.007;  167.009;  -11.180;  998.540
952.563;  170.012;  -11.680;  937.780
953.118;  171.609;  -13.280;  904.940
953.674;  173.550;  -12.510;  935.780
954.230;  164.732;  -12.220;  949.640
954.785;  148.541;  -12.190;  936.640
955.341;  131.866;  -12.270;  998.160
955.897;  118.237;  -14.900;  834.660
956.452;  114.181;  -12.520;  953.840
957.008;  114.447;   -9.410; 1083.640
957.563;  115.224;  -11.280; 1009.540
958.118;  118.375;  -13.470;  877.700
958.674;  123.641;  -12.190;  946.780
959.229;  128.095;  -12.760; 1013.980
959.784;  133.905;  -15.710;  832.400
960.339;  140.779;  -12.540; 1001.280
960.894;  142.377;  -11.680;  963.760
961.449;  139.062;  -11.410;  859.960
962.004;  139.119;  -10.430; 1212.840
962.559;  134.957;  -14.040;  860.140
963.114;  131.522;  -14.270;  742.480
963.669;  133.554;  -11.320;  915.500
964.224;  132.587;  -14.620;  874.340
964.779;  130.808;  -14.150;  828.420
965.334;  131.044;  -10.850; 1017.860
965.888;  130.553;  -14.530;  875.360
966.443;  132.774;  -13.520;  972.380
966.998;  129.220;  -13.370;  819.460
967.552;  125.964;   -9.960;  908.380
968.107;  121.549;  -12.360;  868.300
968.661;  123.090;  -12.270;  922.440
969.216;  122.903;  -12.140;  856.280
969.770;  122.961;  -11.860;  917.200
970.324;  123.424;  -12.170;  923.140
970.879;  121.404;  -14.160;  947.180
971.433;  119.545;  -12.940;  952.720
971.987;  116.222;  -10.180;  895.340
972.541;  115.786;  -12.130;  917.100
973.095;  115.554;  -14.980; 1009.460
973.649;  114.739;  -14.480;  809.480
974.203;  115.690;  -13.530;  829.040
974.757;  117.824;  -12.060;  855.220
975.311;  115.952;  -13.240;  872.600
975.865;  113.043;  -12.550;  881.820
976.419;  112.154;  -13.180;  857.400
976.973;  110.480;  -14.100;  849.620
977.526;  109.940;  -13.330;  949.920
978.080;  106.312;  -15.390;  796.780
978.634;  106.580;  -11.670;  921.320
979.187;  104.152;  -10.640;  905.400
979.741;  103.603;  -13.330; 1018.380
980.294;  100.637;  -14.480;  789.160
980.848;   98.208;  -13.420;  717.220
981.401;   96.829;  -12.360;  816.540
981.955;   94.956;  -12.480;  844.300
982.508;   91.514;  -14.000;  746.340
983.061;   92.551;  -10.440;  915.260
983.615;   87.408;  -14.340;  798.800
984.168;   84.440;  -14.950;  770.080
984.721;   85.478;  -13.270;  880.760
985.274;   83.315;  -12.240;  867.500
985.827;   80.303;  -12.720;  834.220
986.380;   76.660;  -14.920;  721.340
986.933;   77.232;  -12.860;  864.800
987.486;   75.325;  -10.440;  861.920
988.039;   74.357;  -11.820;  863.100
988.591;   72.854;  -13.760;  893.260
989.144;   71.436;  -14.080;  737.260
989.697;   72.251;  -13.440;  758.740
990.250;   72.620;  -12.050;  858.100
990.802;   72.400;  -14.550;  755.860
991.355;   71.820;  -10.770;  974.880
991.907;   69.620;  -11.710;  864.320
992.460;   67.421;  -12.650;  753.760
993.012;   65.586;  -13.860;  749.540
993.565;   64.000;  -14.310;  711.360
994.117;   64.029;   -9.920;  950.780
994.669;   61.172;  -13.420;  701.320
995.221;   59.700;  -14.200;  791.920
995.774;   59.062;  -13.400;  787.580
996.326;   58.262;  -11.850;  740.220
996.878;   57.715;  -12.230;  838.420
997.430;   55.873;  -14.260;  699.860
997.982;   56.153;  -11.430;  750.140
998.534;   56.224;  -11.590;  739.060
999.086;   54.785;  -11.960;  738.220
999.638;   53.726;  -13.640;  661.380
1000.190;   53.237;  -13.660;  699.320
1000.741;   52.404;   -9.980;  742.700
1001.293;   51.649;  -11.860;  686.020
1001.845;   51.610;  -14.280;  676.640
1002.396;   51.100;  -12.270;  743.400
1002.948;   51.204;  -13.670;  737.400
1003.500;   49.685;  -12.010;  723.780
1004.051;   49.839;  -11.890;  907.580
1004.603;   48.459;  -11.220;  791.820
1005.154;   45.422;  -13.210;  608.980
1005.705;   45.209;  -11.850;  723.960
1006.257;   44.996;  -13.670;  707.220
1006.808;   43.784;  -12.060;  685.460
1007.359;   43.576;  -10.250;  763.240
1007.910;   42.101;  -13.440;  646.640
1008.461;   41.860;  -13.170;  732.940
1009.013;   39.683;  -14.590;  588.340
1009.564;   41.231;  -12.100;  793.520
1010.115;   38.809;  -14.000;  597.040
1010.665;   38.263;  -15.020;  602.160
1011.216;   39.190;  -12.560;  667.920
1011.767;   38.377;  -11.330;  697.920
1012.318;   39.509;  -11.450;  736.980
1012.869;   37.425;  -11.000;  679.000
1013.419;   37.293;  -11.760;  603.120
1013.970;   37.681;  -11.800;  666.640
1014.521;   36.676;  -14.750;  620.620
1015.071;   36.945;  -14.430;  670.380
1015.622;   37.347;  -14.170;  635.460
1016.172;   35.833;  -11.700;  596.820
1016.723;   35.495;  -13.230;  614.380
1017.273;   34.699;  -16.120;  604.160
1017.823;   35.262;  -13.360;  650.340
1018.374;   34.977;  -13.710;  611.760
1018.924;   35.006;  -11.050;  716.880
1019.474;   34.701;  -14.120;  718.880
1020.024;   33.537;  -12.990;  657.580
1020.574;   34.352;  -12.010;  726.160
1021.124;   34.529;  -12.080;  673.580
1021.674;   32.688;  -15.860;  559.120
1022.224;   34.259;  -11.710;  708.940
1022.774;   33.408;  -13.030;  668.820
1023.324;   33.937;  -11.000;  753.520
1023.874;   35.326;  -13.270;  875.760
1024.423;   32.838;  -14.570;  613.700
1024.973;   31.979;  -12.620;  610.760
1025.523;   31.414;  -12.630;  620.960
1026.072;   31.354;  -14.110;  606.420
1026.622;   30.643;  -15.390;  675.740
1027.172;   32.230;   -9.090;  715.660
1027.721;   30.328;  -12.250;  601.220
1028.270;   31.201;  -15.590;  663.400
1028.820;   31.514;  -13.840;  638.080
1029.369;   30.688;  -13.170;  612.700
1029.918;   30.657;  -14.080;  649.840
1030.468;   29.302;  -13.860;  564.780
1031.017;   30.203;  -12.970;  634.800
1031.566;   29.099;  -12.320;  608.900
1032.115;   30.562;  -13.140;  694.500
1032.664;   28.208;  -14.560;  596.480
1033.213;   30.202;  -11.620;  735.420
1033.762;   28.807;  -13.190;  635.620
1034.311;   28.479;  -13.460;  677.220
1034.860;   28.867;  -15.770;  691.000
1035.408;   28.925;  -13.100;  722.720
1035.957;   28.627;  -12.880;  719.540
1036.506;   26.416;  -13.640;  530.800
1037.055;   29.570;  -12.420;  844.320
1037.603;   27.706;  -13.740;  664.000
1038.152;   26.770;  -13.840;  534.760
1038.700;   26.904;  -10.770;  585.740
1039.249;   26.910;  -13.520;  681.220
1039.797;   27.030;  -13.060;  633.360
1040.345;   26.948;  -11.760;  705.420
1040.894;   26.174;  -10.790;  625.300
1041.442;   25.508;  -15.420;  632.200
1041.990;   25.558;  -14.550;  559.160
1042.538;   24.094;  -15.620;  536.180
1043.087;   25.171;  -14.940;  570.860
1043.635;   26.544;  -12.100;  670.500
1044.183;   24.778;  -13.200;  586.400
1044.731;   24.915;  -11.630;  576.000
1045.279;   24.819;  -14.200;  674.920
1045.827;   27.035;  -12.510;  892.400
1046.374;   23.167;  -14.960;  515.420
1046.922;   23.083;  -11.850;  590.580
1047.470;   24.732;  -13.770;  691.300
1048.018;   24.504;  -15.380;  647.960
1048.565;   25.691;  -14.010;  708.600
1049.113;   22.973;  -14.620;  557.000
1049.660;   23.063;  -14.940;  629.660
1050.208;   24.230;  -14.540;  675.640
1050.755;   23.368;  -13.710;  606.580
1051.303;   23.524;  -11.880;  686.820
1051.850;   23.556;  -12.160;  635.120
1052.397;   20.120;  -15.110;  473.960
1052.945;   22.398;  -14.770;  617.760
1053.492;   23.496;  -12.320;  741.840
1054.039;   23.568;  -13.290;  720.180
1054.586;   21.528;  -15.210;  557.240
1055.133;   22.243;  -12.920;  693.140
1055.680;   22.502;  -12.610;  646.620
1056.227;   21.182;  -12.620;  542.780
1056.774;   23.278;  -13.010;  794.980
1057.321;   20.509;  -16.180;  523.260
1057.868;   21.249;  -11.230;  651.320
1058.415;   20.966;  -10.890;  651.980
1058.961;   21.358;  -12.530;  678.940
1059.508;   21.013;  -14.120;  643.820
1060.055;   20.651;  -13.340;  581.780
1060.601;   20.932;  -12.920;  624.300
1061.148;   20.559;  -14.430;  616.820
1061.694;   20.395;  -14.140;  592.580
1062.241;   20.139;  -12.550;  596.320
1062.787;   20.803;  -13.370;  663.140
1063.334;   22.497;  -12.260;  808.560
1063.880;   20.476;  -10.800;  668.360
1064.426;   20.442;   -9.920;  706.820
1064.972;   19.362;  -12.970;  601.340
1065.518;   18.146;  -14.440;  566.640
1066.065;   19.164;  -12.680;  624.460
1066.611;   17.502;  -13.520;  598.800
1067.157;   18.691;  -11.100;  641.860
1067.703;   19.172;  -14.100;  668.480
1068.249;   19.346;  -13.750;  605.220
1068.794;   19.019;  -11.070;  626.880
1069.340;   17.709;  -13.210;  578.960
1069.886;   18.105;  -14.850;  590.700
1070.432;   17.498;  -14.580;  541.720
1070.977;   17.709;  -12.930;  601.080
1071.523;   17.858;  -11.970;  573.060
1072.068;   17.091;  -13.730;  582.000
1072.614;   16.974;  -14.550;  527.760
1073.160;   18.034;  -13.690;  687.040
1073.705;   16.198;  -14.780;  572.520
1074.250;   17.013;  -15.430;  559.900
1074.796;   17.794;  -11.620;  655.160
1075.341;   17.078;  -11.580;  664.100
1075.886;   17.447;  -13.190;  594.240
1076.431;   17.039;  -13.630;  649.880
1076.976;   16.407;  -11.670;  639.220
1077.521;   15.538;  -11.600;  583.080
1078.067;   15.554;  -13.920;  579.400
1078.612;   15.874;  -12.910;  661.620
1079.156;   16.075;  -15.340;  601.540
1079.701;   16.398;  -12.560;  693.260
1080.246;   16.408;  -12.490;  696.300
1080.791;   15.586;  -14.550;  625.020
1081.336;   15.923;  -15.210;  659.320
1081.880;   16.125;  -11.280;  649.680
1082.425;   14.781;  -12.830;  573.480
1082.970;   16.892;  -11.680;  717.040
1083.514;   14.899;  -15.500;  597.000
1084.059;   14.431;  -11.770;  586.720
1084.603;   14.187;  -13.480;  565.840
1085.147;   14.922;  -13.940;  645.220
1085.692;   14.905;  -13.170;  716.800
1086.236;   12.861;  -15.740;  503.140
1086.780;   15.388;  -10.750;  751.440
1087.325;   14.474;  -14.900;  654.620
1087.869;   14.606;  -15.160;  610.700
1088.413;   15.411;  -11.030;  705.040
1088.957;   12.643;  -15.210;  543.400
1089.501;   14.901;  -12.310;  766.640
1090.045;   14.289;  -12.790;  726.480
1090.589;   11.951;  -14.040;  569.920
1091.133;   13.341;  -12.800;  673.340
1091.676;   12.828;  -13.600;  591.940
1092.220;   12.958;  -12.960;  600.920
1092.764;   14.049;  -10.830;  706.960
1093.307;   13.157;  -12.390;  673.780
1093.851;   11.767;  -15.850;  556.540
1094.395;   13.561;  -12.980;  683.140
1094.938;   12.559;  -13.670;  632.520
1095.482;   11.638;  -12.740;  559.800
1096.025;   13.254;  -13.340;  710.880
1096.568;   12.889;  -10.500;  779.280
1097.112;   10.389;  -13.500;  508.180
1097.655;   12.172;  -13.060;  603.000
1098.198;   10.810;  -13.240;  600.180
1098.741;   10.658;  -15.490;  612.860
1099.285;   12.151;  -13.410;  657.300
1099.828;    9.001;  -15.640;  439.400
1100.371;   10.799;  -13.980;  608.160
1100.914;   12.037;  -13.990;  682.660
1101.457;   11.251;  -15.030;  679.900
1101.999;   10.034;  -12.480;  584.680
1102.542;   11.198;  -12.410;  641.440
1103.085;   10.746;  -14.730;  658.500
1103.628;   11.619;  -12.190;  762.060
1104.170;    9.815;  -12.360;  588.280
1104.713;   10.408;  -13.350;  646.700
1105.256;   10.473;  -14.930;  557.440
1105.798;    8.395;  -15.150;  499.980
1106.341;   11.486;  -13.230;  728.900
1106.883;    9.302;  -14.680;  521.340
1107.425;    9.859;  -14.810;  668.180
1107.968;    9.365;  -12.940;  612.380
1108.510;   10.764;  -10.550;  684.960
1109.052;    8.301;  -15.640;  612.620
1109.594;    8.706;  -14.440;  554.440
1110.136;    9.751;  -11.380;  643.220
1110.679;    8.747;  -13.090;  633.080
1111.221;    9.621;  -14.230;  604.460
1111.763;    7.787;  -14.260;  559.220
1112.304;    8.055;  -14.510;  547.140
1112.846;    8.534;  -14.700;  666.240
1113.388;   11.750;  -12.270;  942.180
1113.930;    9.477;  -13.340;  694.200
1114.472;    7.841;  -12.560;  606.540
1115.013;    7.381;  -14.280;  551.280
1115.555;    7.161;  -14.010;  587.100
1116.097;    7.303;  -14.730;  579.480
1116.638;    7.788;  -12.160;  684.600
1117.180;    7.868;  -14.320;  667.740
1117.721;    7.508;  -15.730;  568.580
1118.262;    8.210;  -13.480;  677.960
1118.804;    7.919;  -11.530;  637.340
1119.345;    6.614;  -13.540;  578.400
1119.886;    8.331;  -14.470;  704.040
1120.427;    7.076;  -13.030;  589.020
1120.969;    6.182;  -13.150;  597.920
1121.510;    5.889;  -13.940;  563.060
1122.051;    7.597;  -12.310;  723.580
1122.592;    6.786;  -13.870;  655.420
1123.133;    5.171;  -12.890;  547.940
1123.673;    6.740;  -13.300;  706.480
1124.214;    6.350;  -14.000;  612.460
1124.755;    7.217;  -13.210;  639.460
1125.296;    6.213;  -13.450;  627.320
1125.836;    7.638;  -12.610;  691.500
1126.377;    5.833;  -15.840;  599.660
1126.918;    6.543;  -11.830;  614.980
1127.458;    5.630;  -11.830;  622.220
1127.999;    6.654;  -11.490;  656.980
1128.539;    6.787;  -12.900;  694.240
1129.079;    5.775;  -14.910;  632.720
1129.620;    5.015;  -12.920;  558.100
1130.160;    4.428;  -14.640;  539.480
1130.700;    6.395;  -13.270;  640.840
1131.240;    6.170;  -14.110;  643.700
1131.781;    5.061;  -13.130;  619.680
1132.321;    5.145;  -15.220;  599.120
1132.861;    4.978;  -15.670;  564.200
1133.401;    4.326;  -13.970;  593.940
1133.941;    4.793;  -13.740;  626.280
1134.481;    4.706;  -13.200;  597.580
1135.020;    4.092;  -14.830;  609.160
1135.560;    4.421;  -14.590;  674.940
1136.100;    3.616;  -13.730;  501.160
1136.640;    3.010;  -15.240;  510.480
1137.179;    3.413;  -14.710;  537.960
1137.719;    3.962;  -14.090;  605.400
1138.258;    4.226;  -12.470;  587.360
1138.798;    4.438;  -12.580;  663.780
1139.337;    2.898;  -16.480;  482.840
1139.877;    4.287;  -13.970;  642.360
1140.416;    6.750;   -9.870;  878.060
1140.955;    2.885;  -14.860;  535.380
1141.494;    3.843;  -14.530;  669.280
1142.034;    2.977;  -13.940;  583.520
1142.573;    3.662;  -11.160;  646.280
1143.112;    2.515;  -15.050;  553.480
1143.651;    3.063;  -15.390;  536.480
1144.190;    4.038;  -12.990;  691.640
1144.729;    2.518;  -12.220;  607.420
1145.267;    3.249;  -14.020;  584.900
1145.806;    3.860;  -12.740;  637.040
1146.345;    2.522;  -14.810;  635.020
1146.884;    2.666;  -12.920;  622.500
1147.422;    1.612;  -13.930;  533.060
1147.961;    4.538;  -11.830;  708.460
1148.500;    2.982;  -12.710;  669.720
1149.038;    2.944;  -14.420;  632.500
1149.577;    2.696;  -13.920;  698.640
1150.115;    0.880;  -17.050;  452.280
1150.653;    3.203;  -14.890;  607.340
1151.192;    2.016;  -15.270;  552.920
1151.730;    2.837;  -13.160;  652.560
1152.268;    2.228;  -15.430;  589.520
1152.806;    1.865;  -15.880;  571.180
1153.344;    0.448;  -13.240;  577.640
1153.882;    1.815;  -13.010;  600.060
1154.421;    0.039;  -16.180;  470.620
1154.958;    1.310;  -13.880;  595.240
1155.496;    2.314;  -13.590;  645.280
1156.034;    1.512;  -11.910;  721.880
1156.572;    2.743;  -12.010;  667.060
1157.110;   -0.088;  -16.250;  473.940
1157.647;    2.544;  -15.230;  676.960
1158.185;    0.482;  -13.770;  564.320
1158.723;    0.227;  -15.300;  509.200
1159.260;    1.266;  -13.130;  701.700
1159.798;    2.042;  -11.300;  658.160
1160.335;    0.552;  -13.210;  631.820

