
Integration time [ms]:   3.882
Averaging Nr. [scans]: 1000
Smoothing Nr. [pixels]: 0
Data measured with spectrometer [name]: 7414430SP
Wave   ;Sample   ;Dark     ;Reference
[nm]   ;[counts] ;[counts] ;[counts] 

288.544;  141.197;    7.153;  793.890
289.143;  144.117;    8.402;  681.602
289.742;  144.876;    7.062;  828.814
290.341;  132.435;    0.191;  789.841
290.940;  123.616;    0.321;  730.702
291.538;  123.081;    3.811;  881.108
292.137;  121.712;   -3.438;  792.581
292.736;  125.346;   -2.809;  975.101
293.335;  121.781;   -5.239;  735.086
293.934;  123.053;   -4.939;  781.677
294.532;  122.452;   -2.199; 1031.958
295.131;  107.934;   -6.831;  834.394
295.730;  108.931;   -6.620;  809.588
296.328;  106.376;   -6.471;  783.442
296.927;  106.216;   -6.571;  779.652
297.525;  107.096;   -7.391;  781.236
298.124;   97.275;   -9.402;  654.009
298.722;  102.949;   -5.781;  761.933
299.321;  100.526;   -6.351;  708.597
299.919;   98.902;   -8.661;  751.918
300.518;   95.376;  -11.922;  689.338
301.116;   96.068;   -6.941;  691.381
301.715;   95.895;   -5.471;  730.222
302.313;   96.151;   -8.361;  704.943
302.911;   92.702;   -9.082;  733.830
303.509;   96.975;   -4.571;  925.627
304.108;   93.463;   -7.111;  760.383
304.706;   93.308;   -7.681;  801.664
305.304;   88.734;   -9.162;  796.707
305.902;   93.226;   -6.761;  784.484
306.500;   88.782;   -6.921;  728.200
307.098;   87.665;   -6.491;  746.560
307.696;   85.973;   -6.941;  780.432
308.294;   86.769;   -6.301;  731.359
308.892;   88.268;   -4.771;  759.769
309.490;   84.078;   -5.141;  712.161
310.088;   82.513;   -2.912;  788.444
310.686;   87.109;   -0.421;  821.749
311.284;   81.627;   -3.461;  766.040
311.882;   81.460;   -6.282;  731.225
312.480;   78.526;   -3.632;  697.167
313.078;   80.026;   -2.112;  808.331
313.675;   80.142;   -1.931;  691.600
314.273;   76.129;   -1.442;  797.837
314.871;   74.694;   -3.002;  589.829
315.468;   72.880;   -2.252;  652.090
316.066;   75.540;   -1.091;  694.427
316.664;   68.800;   -4.512;  656.351
317.261;   73.487;   -0.062;  910.128
317.859;   69.243;   -0.952;  768.735
318.456;   69.253;    0.719;  830.096
319.054;   65.941;   -4.002;  787.828
319.651;   64.936;   -4.972;  759.928
320.249;   63.408;   -1.162;  810.188
320.846;   61.467;   -2.651;  714.286
321.443;   60.016;   -3.832;  832.135
322.041;   56.872;   -4.312;  812.315
322.638;   54.077;   -3.872;  701.456
323.235;   55.596;   -4.361;  665.683
323.833;   53.840;   -4.821;  740.354
324.430;   49.347;   -6.971;  615.900
325.027;   50.703;   -4.361;  876.855
325.624;   50.014;   -5.581;  644.532
326.221;   47.690;   -6.601;  689.717
326.818;   46.977;   -7.301;  818.332
327.415;   49.799;   -6.180;  748.828
328.012;   48.623;   -5.920;  690.585
328.609;   47.595;   -8.390;  731.389
329.206;   46.091;   -6.121;  778.621
329.803;   45.117;   -5.241;  737.841
330.400;   48.054;   -7.420;  704.260
330.997;   48.464;   -5.931;  817.147
331.594;   46.797;   -5.641;  788.185
332.191;   52.145;   -6.451;  728.722
332.787;   54.407;   -4.651;  844.463
333.384;   52.353;   -5.472;  763.093
333.981;   51.164;   -6.303;  815.687
334.578;   54.186;   -5.892;  708.378
335.174;   55.562;   -4.102;  731.469
335.771;   54.682;   -8.053;  836.456
336.367;   52.696;   -7.363;  710.631
336.964;   56.170;   -6.243;  793.266
337.561;   54.857;   -5.653;  731.112
338.157;   49.743;   -7.074;  911.916
338.754;   48.964;   -5.474;  796.589
339.350;   46.017;   -5.624;  722.493
339.946;   48.522;   -5.054;  773.135
340.543;   41.822;   -6.695;  846.136
341.139;   35.804;   -6.215;  720.836
341.735;   33.669;   -5.746;  772.593
342.332;   32.466;   -7.335;  691.472
342.928;   33.555;   -4.835;  795.394
343.524;   27.398;   -4.586;  761.684
344.120;   24.159;   -3.946;  738.562
344.716;   27.813;   -4.835;  723.717
345.313;   26.093;   -5.325;  795.342
345.909;   21.605;   -6.535;  627.336
346.505;   22.485;   -4.725;  740.247
347.101;   23.153;   -4.164;  827.864
347.697;   23.852;   -5.274;  785.398
348.293;   18.264;   -7.145;  627.244
348.889;   19.395;   -4.364;  745.914
349.485;   18.633;   -6.404;  688.205
350.081;   19.344;   -7.534;  772.592
350.676;   15.084;   -6.995;  691.606
351.272;   19.008;   -3.544;  809.530
351.868;   18.571;   -5.324;  780.497
352.464;   17.237;   -7.204;  723.932
353.059;   12.051;   -6.894;  646.017
353.655;   15.931;   -3.754;  777.063
354.251;   17.376;   -6.143;  759.845
354.846;   12.077;   -9.464;  740.646
355.442;    9.726;   -7.555;  753.071
356.038;   11.714;   -5.474;  751.708
356.633;   11.460;   -5.914;  728.594
357.229;    9.702;   -8.944;  724.757
357.824;    8.015;   -6.794;  703.600
358.420;    7.185;   -5.754;  679.726
359.015;    7.865;   -5.664;  695.357
359.610;    9.229;   -8.004;  763.920
360.206;    2.881;   -8.815;  603.240
360.801;    5.784;   -8.834;  646.503
361.396;    8.381;   -6.274;  725.975
361.992;    3.919;   -8.574;  668.220
362.587;    1.187;   -9.265;  670.160
363.182;    2.511;   -5.484;  689.631
363.777;    3.437;   -5.164;  738.242
364.372;    4.157;   -6.954;  737.314
364.967;   -0.714;   -7.065;  680.744
365.563;    3.710;   -5.684;  815.567
366.158;    0.505;   -6.484;  685.161
366.753;    1.630;   -8.004;  649.263
367.348;    0.398;  -10.114;  746.056
367.942;   -0.441;   -7.764;  697.298
368.537;   -0.844;   -4.554;  754.245
369.132;   -0.851;   -7.664;  703.428
369.727;   -4.022;   -8.905;  638.079
370.322;   -3.955;   -4.945;  580.186
370.917;   -3.587;   -7.095;  710.646
371.511;    0.064;   -6.574;  861.834
372.106;   -3.314;   -6.515;  776.964
372.701;   -6.685;   -8.225;  585.988
373.296;   -1.562;   -4.494;  863.135
373.890;   -6.702;   -7.965;  647.840
374.485;   -8.466;   -9.745;  691.199
375.079;   -4.255;   -5.554;  738.685
375.674;   -3.257;   -4.724;  812.970
376.268;   -6.845;   -8.365;  691.759
376.863;  -13.012;   -8.126;  580.327
377.457;   -6.344;   -6.045;  662.490
378.052;   -7.951;   -6.835;  764.884
378.646;   -9.044;   -9.375;  741.167
379.240;   -9.209;   -6.185;  721.176
379.835;   -8.865;   -6.135;  636.978
380.429;  -11.147;   -8.365;  562.557
381.023;   -9.919;   -7.935;  779.205
381.617;  -12.965;   -8.325;  680.106
382.212;   -9.492;   -7.405;  685.303
382.806;   -8.031;   -4.155;  760.690
383.400;  -11.990;   -8.945;  672.281
383.994;  -13.251;   -8.365;  664.870
384.588;   -9.316;   -7.824;  697.701
385.182;   -7.948;   -7.984;  726.624
385.776;   -9.009;  -10.404;  706.875
386.370;  -12.100;   -7.335;  681.968
386.964;  -11.672;   -7.485;  684.155
387.558;  -10.321;   -8.174;  598.360
388.152;  -13.471;  -10.415;  681.959
388.745;  -10.815;   -9.595;  814.707
389.339;   -9.749;   -6.454;  747.642
389.933;   -9.213;   -5.804;  695.370
390.527;   -9.359;   -6.854;  859.029
391.120;  -16.134;   -7.665;  595.318
391.714;  -12.648;   -7.245;  711.633
392.308;   -9.646;   -4.514;  780.253
392.901;  -13.556;   -7.935;  642.460
393.495;  -14.572;   -8.585;  595.414
394.089;  -13.029;   -5.245;  760.452
394.682;  -13.264;   -6.305;  697.188
395.275;  -13.838;   -9.335;  719.927
395.869;  -15.372;   -7.375;  667.314
396.462;  -14.461;   -7.055;  616.609
397.056;  -10.414;   -5.434;  776.621
397.649;  -14.323;   -9.525;  731.575
398.242;  -11.252;   -7.574;  712.645
398.836;  -11.162;   -5.134;  766.408
399.429;  -11.959;   -6.544;  631.041
400.022;  -15.865;   -9.215;  665.902
400.615;  -12.521;   -8.105;  805.609
401.208;  -11.442;   -7.614;  691.451
401.802;  -13.859;   -8.085;  699.329
402.395;  -14.643;   -9.575;  683.502
402.988;  -14.952;   -9.285;  696.627
403.581;  -12.139;   -7.514;  646.878
404.174;   -9.685;   -6.404;  686.568
404.767;  -13.218;   -8.775;  638.583
405.360;  -15.815;   -7.415;  621.445
405.953;   -9.815;   -5.624;  759.034
406.545;   -9.886;   -6.474;  725.342
407.138;  -13.303;   -8.445;  618.350
407.731;  -12.102;  -10.044;  613.303
408.324;   -8.119;   -8.484;  660.554
408.917;   -9.367;   -7.624;  681.864
409.509;  -11.650;   -8.304;  740.396
410.102;  -13.111;   -8.495;  643.948
410.695;   -7.248;   -7.824;  665.758
411.287;   -8.237;   -7.754;  599.821
411.880;   -9.798;   -9.294;  585.421
412.472;  -12.851;   -8.814;  613.092
413.065;   -8.850;   -6.674;  629.408
413.657;   -7.695;   -9.664;  576.678
414.250;   -6.442;  -10.264;  646.681
414.842;   -8.182;   -8.664;  676.353
415.434;   -6.291;   -8.584;  570.463
416.027;   -2.582;   -9.423;  652.196
416.619;   -3.840;  -10.764;  713.400
417.211;   -4.446;   -7.404;  599.352
417.804;   -1.550;   -7.383;  628.499
418.396;   -5.283;   -8.334;  607.643
418.988;   -2.578;   -9.633;  659.238
419.580;   -6.381;  -10.554;  568.276
420.172;   -4.900;   -8.683;  536.196
420.764;   -0.403;   -9.713;  672.482
421.356;   -0.351;  -11.303;  636.898
421.948;   -1.720;   -8.453;  677.661
422.540;    2.615;   -5.793;  680.027
423.132;    1.499;   -7.162;  600.641
423.724;   -1.114;   -7.933;  561.267
424.316;    1.438;   -9.083;  621.345
424.908;    4.650;   -8.392;  591.517
425.500;    4.849;   -8.062;  647.978
426.092;    5.844;   -9.692;  648.268
426.683;    5.168;   -8.223;  684.836
427.275;    7.253;   -8.602;  641.471
427.867;    8.637;   -8.382;  668.948
428.458;    9.380;  -10.472;  732.344
429.050;    8.499;   -9.112;  680.749
429.642;   10.341;   -7.752;  743.124
430.233;   10.591;   -8.832;  569.356
430.825;   12.808;   -8.292;  724.809
431.416;    9.270;   -7.522;  698.241
432.008;   12.566;   -9.262;  651.723
432.599;   12.945;   -6.441;  656.073
433.190;   11.624;   -9.222;  637.670
433.782;   10.337;  -11.832;  590.395
434.373;   18.478;   -7.121;  884.765
434.964;   15.666;   -9.141;  602.920
435.556;   13.504;   -9.332;  634.537
436.147;   17.182;   -8.892;  758.490
436.738;   17.065;   -8.151;  701.099
437.329;   22.137;   -8.281;  721.723
437.920;   15.332;   -9.062;  666.688
438.511;   15.567;  -11.182;  564.526
439.103;   20.818;   -7.461;  623.998
439.694;   23.327;   -8.541;  681.583
440.285;   24.434;   -7.351;  764.432
440.876;   22.926;   -8.201;  845.738
441.466;   22.094;  -10.381;  575.162
442.057;   27.177;   -7.620;  665.814
442.648;   26.070;   -8.461;  746.255
443.239;   24.671;   -8.991;  620.477
443.830;   29.360;   -7.910;  704.958
444.421;   30.685;   -7.340;  655.474
445.011;   27.833;   -8.981;  693.619
445.602;   28.255;   -9.341;  743.126
446.193;   28.077;  -11.390;  488.117
446.783;   33.166;  -11.240;  640.397
447.374;   29.255;   -8.471;  692.759
447.964;   29.858;   -8.471;  713.770
448.555;   38.296;   -6.590;  822.742
449.145;   34.297;   -8.200;  662.853
449.736;   35.314;  -11.040;  803.179
450.326;   35.875;   -9.640;  713.626
450.917;   39.867;   -9.480;  675.324
451.507;   38.624;   -8.020;  600.661
452.097;   40.099;  -10.210;  746.267
452.688;   41.651;   -7.810;  742.160
453.278;   41.430;   -9.360;  566.840
453.868;   45.199;   -8.669;  793.550
454.458;   43.293;  -10.950;  651.141
455.048;   44.728;  -10.200;  711.783
455.639;   45.604;   -9.369;  567.096
456.229;   48.872;   -7.739;  710.694
456.819;   51.303;   -8.939;  751.158
457.409;   51.397;   -7.169;  773.993
457.999;   54.210;   -7.779;  737.505
458.589;   53.941;   -7.039;  686.606
459.179;   53.730;   -9.019;  717.658
459.769;   51.165;   -8.909;  627.099
460.358;   57.007;   -8.659;  797.262
460.948;   56.442;   -8.209;  689.503
461.538;   58.465;   -9.879;  660.677
462.128;   57.067;   -9.379;  664.934
462.717;   63.541;   -9.158;  710.326
463.307;   65.663;   -8.638;  705.846
463.897;   62.039;   -8.869;  656.942
464.486;   61.275;   -7.409;  837.128
465.076;   65.753;   -9.618;  733.776
465.666;   68.828;   -7.578;  652.900
466.255;   66.878;   -9.369;  785.651
466.845;   66.105;  -10.049;  666.749
467.434;   69.468;   -8.168;  725.873
468.023;   70.407;   -9.188;  658.357
468.613;   67.832;   -9.849;  713.946
469.202;   72.622;  -12.958;  646.507
469.791;   75.630;   -9.488;  737.811
470.381;   77.608;   -6.468;  742.813
470.970;   78.369;  -10.248;  711.099
471.559;   77.842;  -11.428;  733.291
472.148;   80.964;   -9.738;  675.737
472.738;   83.107;   -7.877;  765.466
473.327;   83.022;  -11.868;  637.529
473.916;   82.579;   -8.578;  737.446
474.505;   86.709;  -11.137;  751.703
475.094;   89.799;   -9.407;  806.570
475.683;   89.504;   -9.977;  797.699
476.272;   90.334;  -10.807;  730.632
476.861;   92.890;  -11.017;  706.754
477.449;   99.210;  -10.316;  728.487
478.038;   93.754;  -10.187;  692.513
478.627;   95.059;  -12.458;  714.852
479.216;  102.153;  -10.127;  769.441
479.805;  104.653;   -6.256;  783.375
480.393;  104.639;   -8.737; 1008.945
480.982;  103.267;   -9.087;  874.501
481.571;  109.471;   -7.806;  858.333
482.159;  109.613;  -10.596;  705.386
482.748;  110.567;  -11.507;  821.385
483.336;  115.134;   -8.366;  858.209
483.925;  115.875;   -7.497;  774.373
484.513;  121.902;   -8.326;  758.962
485.102;  118.446;  -10.277;  810.965
485.690;  127.668;   -8.256; 1011.050
486.278;  129.331;   -7.146;  979.329
486.867;  129.003;   -7.986;  809.662
487.455;  131.525;   -9.926;  898.229
488.043;  132.724;  -10.026;  748.361
488.631;  141.552;   -7.226; 1005.079
489.220;  144.740;   -8.696;  908.626
489.808;  145.539;  -12.276;  741.415
490.396;  152.971;   -9.386;  914.645
490.984;  158.253;   -8.506;  830.161
491.572;  169.109;   -8.226;  940.315
492.160;  175.313;   -9.836;  919.081
492.748;  186.345;  -10.316;  884.341
493.336;  205.530;   -7.146; 1019.693
493.924;  228.508;   -7.965;  958.077
494.512;  255.822;  -10.316; 1066.638
495.100;  292.735;  -10.186; 1103.280
495.687;  344.952;   -7.805; 1206.373
496.275;  408.728;   -9.686; 1150.796
496.863;  487.292;  -11.566; 1281.171
497.451;  583.855;  -11.406; 1386.805
498.038;  717.087;   -8.235; 1556.729
498.626;  832.348;   -7.485; 1741.407
499.214;  993.708;   -8.646; 2016.609
499.801; 1239.822;   -9.936; 2220.633
500.389; 1435.854;   -8.056; 2312.494
500.976; 1616.660;   -6.166; 2744.849
501.564; 1824.994;   -9.126; 3148.565
502.151; 2139.863;  -12.456; 3515.999
502.738; 2562.632;  -10.056; 3971.274
503.326; 2980.461;  -10.605; 4403.796
503.913; 3342.325;  -10.576; 5161.749
504.500; 3854.650;   -9.056; 5986.420
505.088; 4350.313;  -10.136; 6381.201
505.675; 5120.106;   -9.075; 6925.547
506.262; 5651.481;  -11.346; 7619.060
506.849; 6277.744;   -9.376; 8733.969
507.436; 6854.192;   -7.365; 9790.121
508.023; 7231.758;   -8.686; 9985.472
508.610; 7685.655;   -8.846;10434.618
509.197; 8677.521;   -9.077;11198.435
509.784; 9963.008;  -10.246;12391.194
510.371;10476.299;   -9.825;13603.713
510.958;11279.797;  -10.896;14426.586
511.545;12044.369;   -9.006;15243.775
512.132;12857.343;   -8.765;15945.876
512.719;13974.136;   -8.286;16340.369
513.305;16040.983;   -9.256;18011.766
513.892;18360.713;  -11.106;19754.971
514.479;20082.473;   -8.576;20967.805
515.066;21325.520;   -9.046;22299.793
515.652;21797.543;  -10.676;22908.660
516.239;23379.703;  -10.166;23798.875
516.825;23977.629;  -11.266;25567.275
517.412;23514.297;   -7.446;28154.959
517.998;23883.400;  -10.916;28344.111
518.585;23348.572;   -9.166;27134.219
519.171;23274.104;  -10.135;27268.576
519.758;24978.164;   -8.806;28964.129
520.344;28296.742;   -6.716;30664.494
520.930;30017.674;  -10.166;32550.605
521.516;30351.492;   -9.615;35422.895
522.103;31642.484;   -8.656;38280.004
522.689;33961.152;   -9.646;37835.117
523.275;34812.340;  -10.786;37288.613
523.861;35715.188;   -9.266;37281.395
524.447;35574.355;   -8.285;37846.949
525.033;35773.398;   -9.426;38321.949
525.619;35296.402;   -9.836;38579.285
526.205;36223.629;   -8.136;40622.875
526.791;37567.566;   -9.986;42258.836
527.377;39274.520;   -8.236;42966.902
527.963;37594.477;  -12.117;42018.949
528.549;36029.184;   -8.376;42476.828
529.135;37348.723;   -8.696;41854.852
529.721;39224.699;   -9.686;41237.711
530.306;41422.727;   -8.616;41259.445
530.892;44656.492;   -9.396;41506.047
531.478;45306.668;   -9.926;43559.613
532.063;46583.996;  -10.236;47695.563
532.649;49074.914;   -8.257;50808.324
533.235;50595.395;  -11.476;51787.500
533.820;49189.250;   -8.156;52145.035
534.406;47707.383;  -12.257;51133.488
534.991;45670.000;   -8.686;49996.805
535.576;43333.539;   -9.426;48882.852
536.162;43206.855;   -8.436;46942.285
536.747;42017.375;  -10.957;45711.746
537.333;41512.852;  -13.147;48510.180
537.918;44476.938;   -9.027;50439.891
538.503;45469.695;   -8.256;50863.711
539.088;48992.035;  -10.576;50906.922
539.673;51124.773;  -10.907;52621.965
540.259;51277.762;   -9.126;52368.094
540.844;47986.512;   -9.026;50879.109
541.429;49646.664;   -9.597;52077.777
542.014;54043.406;  -11.447;52716.695
542.599;55301.094;   -9.236;52363.281
543.184;53644.914;  -12.267;53187.137
543.769;54833.137;  -10.367;54697.605
544.354;54606.930;  -10.887;53913.914
544.938;47862.117;  -11.687;49680.164
545.523;42937.586;   -8.286;47386.277
546.108;44588.680;   -9.317;49151.949
546.693;46919.035;  -10.187;51384.637
547.278;45901.160;   -9.926;51853.254
547.862;45197.414;   -9.196;51173.750
548.447;44487.754;   -9.657;51691.395
549.031;44770.922;   -9.127;52456.703
549.616;48389.777;  -10.836;52714.516
550.201;51931.172;   -8.507;52414.598
550.785;52351.680;  -10.537;52355.059
551.370;52246.469;  -11.727;54589.453
551.954;52295.988;   -9.457;58267.348
552.538;51708.793;   -8.147;59062.176
553.123;50375.773;   -9.397;58115.285
553.707;48003.352;   -9.558;56556.285
554.291;48488.324;   -9.417;56201.668
554.876;48569.211;   -7.627;55335.762
555.460;46864.520;  -10.457;54155.703
556.044;45038.902;  -10.078;53721.484
556.628;45685.031;   -9.407;53731.016
557.212;45635.230;   -7.957;54312.531
557.796;45700.352;  -11.327;53797.773
558.380;50249.457;  -10.868;56145.984
558.964;50809.461;   -9.637;57277.930
559.548;48715.844;   -8.807;56459.641
560.132;49431.473;  -10.187;54434.543
560.716;48636.688;   -9.868;54800.617
561.300;49654.586;  -10.217;57606.945
561.884;50362.391;   -4.947;58972.445
562.467;49655.449;   -9.588;57327.570
563.051;47962.777;  -11.138;54962.434
563.635;45994.125;   -9.358;52594.473
564.219;45403.668;   -9.797;50610.410
564.802;45705.676;   -9.918;49551.180
565.386;43511.742;  -10.838;48370.953
565.969;42722.434;   -8.037;48178.871
566.553;42290.004;   -5.667;49957.305
567.136;41113.582;   -8.258;50369.594
567.720;40419.570;  -11.278;49492.004
568.303;42799.793;   -9.028;50616.352
568.887;42671.559;   -7.508;50727.148
569.470;41444.414;  -11.068;51698.379
570.053;41283.875;  -10.028;52122.078
570.637;39611.000;  -11.077;52536.438
571.220;39152.129;   -8.747;51186.098
571.803;40994.457;   -8.868;51032.762
572.386;43054.301;  -10.608;49609.887
572.969;42723.242;  -10.548;48285.926
573.552;40358.082;   -7.898;47624.285
574.135;41586.930;   -9.918;45498.641
574.718;37860.074;  -10.328;41970.434
575.301;34897.523;   -9.548;41447.137
575.884;31934.969;   -8.768;40923.836
576.467;35111.066;   -9.858;45267.723
577.050;35345.914;  -11.018;48175.543
577.633;36190.059;  -10.048;47729.328
578.216;35542.203;  -10.268;47579.793
578.799;32981.555;  -11.808;47820.996
579.381;32981.496;   -7.338;48115.551
579.964;35641.992;   -9.728;47333.766
580.547;36855.297;   -8.928;46668.969
581.129;37919.371;   -9.149;44466.141
581.712;38138.141;  -11.359;44164.922
582.294;35535.887;  -10.738;46477.855
582.877;34598.707;   -8.788;48244.254
583.459;35251.949;   -9.859;47437.895
584.042;37409.965;   -9.649;46943.219
584.624;37101.785;  -10.529;46792.227
585.206;35707.465;  -10.298;46557.250
585.789;35350.801;  -11.029;45793.773
586.371;33445.043;   -9.359;43836.391
586.953;32566.047;   -8.799;42972.492
587.536;32093.117;   -8.928;42487.211
588.118;32183.158;   -9.180;42086.414
588.700;31778.213;  -10.519;43389.930
589.282;30752.633;   -8.098;43646.039
589.864;30666.279;   -8.139;43438.109
590.446;32583.203;  -10.509;43151.926
591.028;33230.164;  -11.119;42781.867
591.610;34562.438;  -10.019;42839.098
592.192;34307.629;   -8.838;42820.402
592.774;31285.141;  -11.549;40724.277
593.356;28412.799;  -11.609;39874.789
593.937;27676.578;  -10.019;39980.648
594.519;29977.973;   -7.839;42069.633
595.101;32649.475;  -10.779;42976.031
595.683;33894.047;  -10.049;44084.441
596.264;33379.703;   -9.969;43478.797
596.846;33171.164;   -9.699;43803.672
597.427;32195.689;  -10.970;42986.934
598.009;31578.156;  -13.090;42832.219
598.591;30908.969;   -9.509;42580.086
599.172;31391.943;   -9.019;43061.805
599.753;32100.539;  -13.310;41691.469
600.335;32889.492;  -11.010;40692.520
600.916;32360.992;  -10.309;39982.422
601.498;31306.400;   -8.209;40318.617
602.079;30764.963;  -11.440;40670.609
602.660;32335.637;   -8.690;41450.898
603.241;33613.746;  -12.759;41137.738
603.823;32349.629;  -10.409;38868.797
604.404;31728.934;  -11.790;38182.785
604.985;33388.480;  -10.280;38078.047
605.566;34895.297;   -8.059;38056.633
606.147;32137.391;   -8.960;37020.418
606.728;29957.840;  -10.710;37883.359
607.309;29209.443;  -12.760;38748.273
607.890;27687.121;   -9.959;38850.230
608.471;28122.611;   -9.780;37457.918
609.051;30039.412;   -8.940;36066.457
609.632;31068.906;  -12.070;35991.074
610.213;30834.457;   -9.610;37402.641
610.794;30695.768;   -8.750;38383.363
611.374;31269.918;  -11.100;40562.387
611.955;31790.805;  -12.200;38533.727
612.536;31948.621;  -10.410;36951.789
613.116;31048.227;  -10.010;37197.891
613.697;29299.090;  -10.480;38411.125
614.277;29034.125;  -12.751;38673.938
614.858;28219.926;  -11.600;37075.863
615.438;28422.537;   -8.190;35092.906
616.019;27094.859;   -8.941;33666.301
616.599;28933.018;  -13.540;34189.023
617.179;31807.275;  -10.890;36952.047
617.760;30884.949;   -7.610;39582.574
618.340;28931.617;  -14.441;38943.977
618.920;28599.762;   -9.180;37594.156
619.500;30923.980;  -11.881;37866.938
620.080;32617.609;   -9.870;37869.043
620.660;31365.625;  -13.211;36868.617
621.241;30062.172;  -11.921;36352.309
621.821;29441.525;  -10.271;35459.520
622.401;30294.945;   -8.200;35207.414
622.980;32078.578;  -11.141;35980.422
623.560;31801.830;  -14.321;37351.328
624.140;30235.525;   -9.360;34388.582
624.720;25959.508;   -7.481;32368.764
625.300;23623.014;  -12.730;32638.629
625.880;27626.178;  -11.441;34599.035
626.459;31065.660;  -10.971;36831.738
627.039;34494.082;   -9.011;38299.098
627.619;34793.805;   -8.521;38289.574
628.198;33069.230;   -9.861;37220.695
628.778;32143.129;   -8.841;37632.563
629.357;32322.148;   -9.891;38003.012
629.937;32426.811;  -11.871;38402.039
630.516;31957.268;  -10.641;37868.801
631.096;33996.445;  -11.391;35760.410
631.675;35616.180;   -6.622;35225.219
632.254;32827.129;  -13.002;35130.289
632.834;31472.990;  -11.622;35794.570
633.413;32547.746;   -8.321;35788.922
633.992;30716.939;   -7.732;34532.863
634.571;30796.738;  -10.992;33590.113
635.151;30321.441;  -10.422;34943.863
635.730;31013.643;  -11.511;35352.523
636.309;30790.633;   -7.901;35366.605
636.888;30126.146;  -11.452;36165.637
637.467;29574.439;  -10.672;37515.902
638.046;30287.770;   -9.301;39288.695
638.625;31616.273;  -11.452;38279.699
639.204;32273.262;  -12.262;37741.598
639.782;32700.041;  -11.892;38364.551
640.361;31031.309;  -11.411;36740.621
640.940;25983.479;  -11.501;34950.082
641.519;28365.697;  -10.921;34137.398
642.097;32041.475;  -10.101;35654.258
642.676;30410.219;  -10.821;35637.957
643.255;31649.320;   -8.631;36567.074
643.833;34269.020;  -11.411;37809.434
644.412;36720.734;  -12.021;37337.293
644.990;36927.379;  -12.271;37018.531
645.569;35816.004;   -9.741;36518.469
646.147;33426.230;   -9.051;36186.430
646.726;33349.691;  -13.861;36267.688
647.304;33393.902;   -9.461;36647.625
647.882;33173.500;  -13.171;39286.742
648.461;33475.449;  -11.911;39157.703
649.039;32247.244;   -9.541;35412.883
649.617;31743.775;   -8.901;34744.918
650.195;29527.422;   -8.591;35403.098
650.773;29001.324;  -13.031;35053.797
651.352;28203.484;  -12.211;33756.816
651.930;25926.719;  -11.361;31868.773
652.508;22849.580;   -8.601;33121.551
653.086;25552.059;   -9.991;33564.793
653.663;29818.260;  -11.931;34054.668
654.241;32412.004;  -10.821;35693.309
654.819;33879.180;   -9.341;36422.906
655.397;31598.680;  -10.851;38213.484
655.975;30359.863;  -11.461;39507.625
656.553;30316.518;   -8.841;39498.223
657.130;29650.893;  -10.371;40395.480
657.708;30380.242;  -11.071;39242.020
658.286;29807.855;  -11.141;38920.020
658.863;30844.652;  -10.861;40202.898
659.441;35301.426;  -11.181;39677.938
660.018;35579.254;  -10.851;40413.355
660.596;35090.453;  -12.571;39931.414
661.173;35598.895;  -12.141;39604.531
661.750;35434.004;  -11.571;39700.070
662.328;32843.523;  -10.780;39292.809
662.905;30176.514;  -10.750;38235.648
663.482;27190.596;  -11.320;36212.305
664.060;26465.771;  -10.160;35944.945
664.637;31093.510;  -13.120;35170.785
665.214;33049.234;  -11.500;34197.523
665.791;31155.932;  -12.430;34549.520
666.368;28736.912;   -9.840;35118.578
666.945;27875.877;  -11.290;36019.418
667.522;28510.600;  -13.540;36048.438
668.099;29065.115;  -10.250;36243.914
668.676;27988.654;  -11.270;35958.875
669.253;26931.963;   -8.210;37384.730
669.830;26380.893;   -9.710;36779.629
670.407;26123.107;   -9.700;35231.289
670.984;26878.484;   -9.190;35544.270
671.560;26119.170;   -9.560;35466.867
672.137;25857.080;  -11.820;34280.863
672.714;28673.766;  -12.460;34632.863
673.290;32888.527;  -10.940;35135.422
673.867;33200.578;  -10.510;36114.480
674.443;30114.893;  -12.110;36152.859
675.020;31387.385;  -11.760;35327.238
675.596;32189.025;   -9.380;35795.176
676.173;31032.549;  -11.120;35430.355
676.749;29794.730;  -13.390;33549.516
677.326;29039.598;  -12.600;32210.012
677.902;28084.143;  -10.830;32068.871
678.478;28010.980;  -12.400;32583.891
679.054;29759.328;   -8.610;32088.928
679.631;29851.213;  -11.640;30978.848
680.207;29792.551;   -8.140;33160.887
680.783;30627.645;  -12.300;35570.363
681.359;29588.947;  -10.910;36125.184
681.935;29886.383;  -11.040;35240.922
682.511;30500.371;  -11.130;34429.961
683.087;30614.730;  -11.080;34463.680
683.663;32826.609;  -10.530;34648.898
684.239;32474.947;  -12.120;34546.457
684.815;29875.805;   -8.870;35586.375
685.390;29026.953;   -8.940;35821.895
685.966;29151.678;  -12.109;35085.871
686.542;28279.344;  -13.539;34198.230
687.118;28040.855;  -10.379;32847.707
687.693;28277.439;  -10.189;32794.027
688.269;27070.813;  -12.939;33072.367
688.844;26199.826;   -8.679;33141.664
689.420;27210.236;  -10.919;33965.742
689.995;27567.666;   -7.489;34655.523
690.571;27075.391;  -12.199;33576.742
691.146;27432.412;   -8.979;32657.219
691.722;28871.691;   -9.119;32526.979
692.297;27115.773;  -10.519;33014.617
692.872;26367.682;  -10.629;34012.254
693.448;26719.504;  -12.119;34237.434
694.023;27331.414;   -8.219;34142.672
694.598;25574.254;  -13.209;34132.031
695.173;24882.686;  -11.879;34205.250
695.748;25690.771;  -12.039;32882.488
696.323;25626.898;  -11.779;32864.906
696.898;26578.590;  -10.219;33170.004
697.473;27614.996;  -13.639;32432.984
698.048;27938.082;  -11.239;31649.303
698.623;29897.076;  -10.859;30778.141
699.198;31484.867;  -13.379;31140.119
699.773;32199.768;  -13.409;31764.299
700.348;32782.961;  -12.329;31780.816
700.922;33219.980;   -8.749;32046.375
701.497;33359.629;  -12.449;32603.574
702.072;31723.797;   -8.879;34799.871
702.646;29485.131;  -10.719;35793.172
703.221;28243.172;   -8.469;35201.590
703.795;28174.799;  -11.389;34764.527
704.370;27932.949;  -12.499;34307.367
704.944;27681.150;  -11.449;33509.887
705.519;26970.740;  -10.659;31388.584
706.093;26465.338;  -12.909;31340.104
706.668;27087.336;  -13.509;32630.281
707.242;26656.240;  -10.049;32728.779
707.816;24611.914;  -10.629;32947.238
708.390;24090.998;  -11.829;33277.855
708.965;24611.504;  -11.159;33834.336
709.539;25515.400;  -11.069;33709.273
710.113;24805.680;  -10.908;33044.313
710.687;23141.953;   -9.488;31953.992
711.261;23375.764;  -13.068;30505.949
711.835;26257.541;  -12.748;30262.369
712.409;26951.188;  -10.678;31254.447
712.983;25625.396;  -11.658;32754.986
713.557;25939.736;  -13.718;34018.824
714.131;26395.750;  -13.388;34579.625
714.704;27129.207;   -9.818;33890.262
715.278;28296.387;  -11.818;33531.102
715.852;29491.600;  -11.328;33601.660
716.425;30022.043;   -9.118;33515.117
716.999;30109.061;  -10.188;33185.555
717.573;30094.445;   -9.808;33905.996
718.146;32521.822;  -11.478;35199.293
718.720;32354.957;  -10.998;35060.551
719.293;30466.838;   -9.508;34973.230
719.867;29972.373;  -12.138;36394.449
720.440;28849.996;  -11.288;36663.008
721.013;31365.176;  -11.428;35102.426
721.587;32941.602;  -11.698;33985.266
722.160;34200.262;  -11.608;33524.965
722.733;32910.297;  -11.428;32987.043
723.306;31470.689;  -12.518;33066.301
723.880;31136.586;   -7.408;33399.500
724.453;29873.078;  -11.048;33468.297
725.026;28514.486;  -11.678;33816.637
725.599;27443.195;  -10.978;32797.996
726.172;26613.807;   -8.838;33187.434
726.745;27511.408;  -11.438;35136.613
727.318;28322.016;   -9.828;35751.730
727.891;27096.068;  -10.868;35890.430
728.463;25242.563;  -11.348;34822.090
729.036;23549.539;  -11.608;32895.086
729.609;23489.986;  -14.738;31823.225
730.182;24723.365;   -8.448;31445.283
730.754;25955.389;  -11.228;32373.223
731.327;26313.154;  -12.018;33676.820
731.900;28152.789;  -13.748;33417.000
732.472;28306.199;  -10.928;31978.498
733.045;26655.770;   -9.478;30368.777
733.617;24814.252;  -12.967;30574.215
734.190;23928.217;  -11.707;31280.975
734.762;22935.805;  -11.067;31674.412
735.334;22329.027;  -10.587;31247.291
735.907;21381.846;  -11.947;29876.211
736.479;21951.979;  -11.667;29808.488
737.051;24570.838;  -10.187;30233.547
737.623;26954.873;   -6.887;31469.086
738.195;29858.473;  -12.117;31784.225
738.768;31687.486;  -14.077;32120.523
739.340;30656.570;  -12.207;32094.342
739.912;27303.404;   -8.977;31312.680
740.484;25545.244;  -11.017;31946.238
741.056;26513.662;  -13.517;32984.059
741.628;28464.049;  -11.507;33897.715
742.199;28665.330;   -7.597;33213.016
742.771;29427.422;  -12.227;31369.113
743.343;28795.221;  -12.427;31865.473
743.915;27200.508;   -9.827;32388.631
744.487;26207.342;  -10.007;31079.568
745.058;24445.264;  -11.887;30570.107
745.630;23684.070;  -10.787;29970.127
746.201;23118.256;  -10.887;29186.766
746.773;23206.205;   -9.707;28805.723
747.344;24087.961;  -11.137;29591.223
747.916;24275.010;  -11.887;31412.201
748.487;23660.826;   -9.707;32194.898
749.059;23058.533;  -10.027;32533.719
749.630;22966.746;  -11.787;32158.518
750.201;22066.346;  -12.767;30855.395
750.773;21694.609;  -11.497;28622.555
751.344;22294.771;   -9.937;28405.732
751.915;22702.982;  -11.567;28461.551
752.486;22090.326;  -13.267;27842.850
753.057;20149.607;  -10.627;27845.008
753.628;18769.146;  -11.657;27728.107
754.199;20960.672;  -12.097;27381.086
754.770;22593.438;  -11.447;25882.203
755.341;22556.881;  -11.997;25886.184
755.912;20468.934;  -10.207;26050.861
756.483;18753.842;  -10.937;26798.779
757.054;18587.076;  -11.527;27048.238
757.625;18776.602;  -12.886;26294.838
758.195;19122.664;  -11.226;26142.076
758.766;19182.551;  -12.366;26392.234
759.337;18114.457;  -11.946;26334.594
759.907;18152.053;  -13.856;27579.652
760.478;18981.156;   -9.606;28352.770
761.048;19044.344;  -11.606;27325.088
761.619;19294.656;  -11.036;26460.428
762.189;18707.350;  -12.206;26029.826
762.760;20002.814;   -9.666;26430.145
763.330;20756.461;   -9.796;26670.902
763.900;18789.939;  -10.896;26603.021
764.471;17230.076;  -11.726;25542.740
765.041;17726.336;   -9.656;24358.459
765.611;18666.768;  -11.276;23991.297
766.181;18483.078;  -12.116;24470.236
766.751;17899.320;  -12.376;24845.975
767.321;17817.625;  -11.626;24533.633
767.891;17998.451;  -10.426;24916.492
768.461;16889.855;  -13.456;24776.771
769.031;14992.083;  -11.616;24757.988
769.601;14968.601;  -11.356;24181.088
770.171;15316.185;  -11.586;23670.387
770.741;15729.292;  -12.696;22960.045
771.311;15816.675;  -10.226;22917.523
771.880;15494.133;  -11.146;23562.941
772.450;16114.326;  -11.716;24216.500
773.020;16319.896;  -13.226;24140.398
773.589;16036.925;  -12.586;24414.857
774.159;15794.898;  -10.246;23858.717
774.729;15344.061;  -11.586;22942.135
775.298;14550.403;  -15.926;22324.033
775.867;14674.381;  -10.426;21140.313
776.437;14499.254;  -11.416;20838.092
777.006;13043.049;  -12.766;20599.510
777.576;13122.249;  -13.666;20508.809
778.145;13680.992;  -10.066;20732.947
778.714;13309.574;  -10.276;21062.465
779.283;13527.881;  -12.086;20949.664
779.853;14893.374;  -14.016;20508.623
780.422;15403.382;  -12.376;20649.082
780.991;14422.206;   -9.246;21527.520
781.560;13491.358;   -9.775;22632.658
782.129;13168.390;  -12.495;23048.277
782.698;12811.263;  -11.775;23438.555
783.267;12995.419;  -10.065;23267.734
783.836;13529.153;  -12.455;22415.133
784.404;14236.184;  -13.385;20443.152
784.973;15052.512;  -11.045;19699.150
785.542;14737.749;   -9.505;19763.828
786.111;13749.572;   -9.385;20341.408
786.679;13549.451;  -13.475;20207.967
787.248;13557.875;  -11.245;19516.465
787.817;11798.528;  -12.485;18900.363
788.385;10162.898;  -11.165;17879.121
788.954;10766.563;  -11.755;17658.301
789.522;11475.459;   -9.625;17788.879
790.090;11151.834;   -9.665;18118.277
790.659;10797.344;   -9.295;18338.736
791.227;11784.269;  -12.175;18508.615
791.795;13141.024;  -12.145;17898.254
792.364;13078.726;  -11.575;17295.133
792.932;11801.286;  -11.085;16822.051
793.500;10681.182;  -11.345;17040.148
794.068;10616.110;  -12.565;17179.787
794.636;11679.187;  -12.105;16664.246
795.204;12190.512;  -11.995;16524.545
795.772;11565.498;  -12.615;17274.564
796.340;11136.225;  -12.425;17891.002
796.908;10899.533;  -11.455;17648.561
797.476;10238.702;  -12.165;17064.080
798.044; 9841.084;  -15.795;16672.777
798.612;10041.039;  -10.985;17023.996
799.180;10786.661;  -12.055;16561.615
799.747;11120.191;  -12.525;15962.773
800.315;10013.488;  -14.765;15296.992
800.883; 8826.357;  -12.435;14801.771
801.450; 8726.022;  -11.295;14534.430
802.018; 9147.650;  -11.185;14173.248
802.585; 9091.767;  -11.625;14029.547
803.153; 8122.172;  -10.665;13836.846
803.720; 7654.623;  -10.275;13567.324
804.287; 7559.147;  -12.865;13360.622
804.855; 7816.899;  -12.324;13681.981
805.422; 8118.558;  -11.574;13536.560
805.989; 7960.878;  -11.004;13355.958
806.556; 8155.687;  -12.214;13747.896
807.124; 8546.685;  -13.304;13987.376
807.691; 8243.206;  -12.034;14038.674
808.258; 7620.057;  -11.014;14120.152
808.825; 7523.172;  -11.804;13860.111
809.392; 7454.697;  -11.544;13268.790
809.959; 7339.984;  -14.954;12680.389
810.526; 7622.909;  -10.214;12427.308
811.093; 8050.409;  -10.754;12030.105
811.659; 7754.647;  -12.194;11653.664
812.226; 6650.956;   -9.194;11637.183
812.793; 6311.964;   -9.644;11611.521
813.360; 7096.145;  -11.544;11885.181
813.926; 7925.502;  -12.814;12770.539
814.493; 7873.558;  -11.524;12677.638
815.060; 7564.959;  -12.254;11974.336
815.626; 7117.059;  -12.114;11594.715
816.193; 6799.994;  -11.994;11579.474
816.759; 6694.456;  -11.464;11666.972
817.325; 6395.887;  -10.444;11325.530
817.892; 6087.422;  -11.124;11105.369
818.458; 5946.851;  -11.864;10843.928
819.024; 6210.526;  -10.634;10714.406
819.591; 6309.239;  -10.554;10469.165
820.157; 6550.963;  -13.334;10235.523
820.723; 6815.223;  -13.044;10847.563
821.289; 6966.189;   -9.664;11040.980
821.855; 7166.670;  -10.994;10357.100
822.421; 7221.124;  -11.784; 9978.918
822.987; 7199.828;  -12.554; 9754.177
823.553; 7546.087;  -12.554;10065.755
824.119; 7407.263;   -8.544;10036.294
824.685; 6490.086;  -12.144;10029.192
825.251; 5913.470;  -12.754;10199.230
825.816; 5458.038;  -11.354; 9820.189
826.382; 5156.119;  -11.004; 9297.248
826.948; 5161.560;  -11.004; 9381.347
827.513; 5090.517;  -12.474; 9450.726
828.079; 5084.667;  -13.084; 9472.444
828.645; 5261.954;  -10.813; 9292.643
829.210; 5088.592;  -11.593; 9065.341
829.776; 5010.825;  -12.633; 9132.620
830.341; 4998.020;  -10.473; 9092.878
830.906; 4829.296;   -8.763; 9078.557
831.472; 4582.064;  -13.453; 8534.535
832.037; 4003.173;  -12.173; 8677.874
832.602; 3787.970;  -14.093; 8628.692
833.167; 4058.857;  -13.593; 8879.031
833.733; 4580.945;  -10.793; 9189.790
834.298; 4944.317;  -14.783; 9052.608
834.863; 4542.649;  -11.023; 8895.087
835.428; 4297.782;  -11.113; 8824.266
835.993; 4722.060;   -9.983; 8845.385
836.558; 4966.458;  -13.003; 8888.563
837.123; 4790.420;  -10.733; 8966.582
837.688; 4400.743;   -9.683; 8617.860
838.253; 4225.316;  -12.253; 8590.699
838.817; 4244.287;  -11.643; 8443.797
839.382; 4214.684;  -11.953; 8799.356
839.947; 4287.435;  -11.443; 8810.595
840.511; 4605.564;  -10.843; 8796.394
841.076; 4839.900;  -13.533; 8347.231
841.641; 4651.235;  -11.743; 8224.330
842.205; 4127.608;  -10.013; 8223.349
842.770; 3822.593;  -11.023; 8622.107
843.334; 3918.848;  -14.273; 8410.386
843.898; 4315.303;  -11.323; 8337.465
844.463; 4684.064;  -10.263; 8506.283
845.027; 4845.734;  -10.353; 8280.962
845.591; 4784.781;  -12.163; 8231.141
846.156; 4631.040;  -12.263; 7969.179
846.720; 4622.936;  -11.553; 7768.278
847.284; 4429.435;  -12.393; 7630.957
847.848; 3662.374;  -12.623; 7472.395
848.412; 3085.200;  -11.863; 7437.394
848.976; 3025.720;  -10.203; 7674.592
849.540; 3212.759;  -10.603; 7836.011
850.104; 3402.252;  -12.423; 7913.669
850.668; 3429.446;  -14.613; 7694.508
851.232; 3440.837;  -12.873; 7756.887
851.796; 3650.002;  -14.192; 7926.545
852.359; 3838.261;  -13.652; 7827.844
852.923; 3763.335;  -11.402; 7641.163
853.487; 3459.219;  -12.022; 7342.501
854.050; 3296.403;  -15.202; 7042.820
854.614; 3313.455;  -14.592; 7151.338
855.177; 3302.250;  -12.572; 7105.077
855.741; 3321.346;   -9.932; 6989.675
856.304; 3264.438;  -12.192; 6596.634
856.868; 3148.519;  -13.462; 6356.272
857.431; 3142.964;  -11.542; 6468.571
857.995; 3215.278;  -12.062; 6373.210
858.558; 3024.932;  -11.142; 6324.448
859.121; 2886.318;  -11.742; 6408.327
859.684; 2939.080;  -10.332; 6347.886
860.247; 3043.798;  -11.962; 6321.264
860.810; 3102.373;  -12.332; 6301.903
861.374; 2993.536;  -10.292; 6607.881
861.937; 2834.483;  -12.062; 6408.200
862.500; 2851.711;  -11.702; 6572.639
863.062; 2976.445;  -13.852; 6387.297
863.625; 3047.911;  -12.972; 6190.836
864.188; 3022.644;  -10.292; 5807.254
864.751; 2965.490;  -12.382; 5682.413
865.314; 2757.459;  -13.232; 5547.492
865.876; 2454.839;  -12.772; 5500.150
866.439; 2214.950;  -11.952; 5415.909
867.002; 2267.392;   -9.332; 5501.567
867.564; 2584.660;  -11.712; 5413.946
868.127; 2745.614;  -12.012; 5160.325
868.689; 2424.469;  -11.882; 5133.183
869.252; 2073.152;  -11.572; 5252.382
869.814; 1979.409;  -10.692; 5297.141
870.377; 2035.117;  -12.392; 5390.919
870.939; 2111.291;  -10.582; 5599.898
871.501; 2160.194;  -12.782; 5248.336
872.063; 2197.413;  -15.612; 4854.235
872.626; 2254.308;  -13.922; 4817.074
873.188; 2224.987;  -13.832; 4987.732
873.750; 2159.258;  -10.962; 4868.651
874.312; 2204.504;  -11.022; 4779.330
874.874; 2259.079;  -13.152; 4866.348
875.436; 2191.607;  -13.401; 4718.887
875.998; 2083.173;   -8.891; 4660.005
876.560; 1991.452;  -12.591; 4462.964
877.122; 1929.023;  -14.531; 4145.042
877.683; 1887.488;  -10.781; 4056.481
878.245; 1791.431;  -14.281; 3950.740
878.807; 1726.894;  -10.311; 4058.958
879.369; 1679.195;  -13.201; 3954.677
879.930; 1642.885;  -12.061; 3941.495
880.492; 1641.912;   -9.181; 4067.014
881.053; 1656.478;  -12.051; 3859.633
881.615; 1613.167;  -11.501; 3776.071
882.176; 1509.545;  -12.221; 3734.750
882.738; 1402.609;   -8.931; 3678.489
883.299; 1340.840;  -13.571; 3405.407
883.860; 1359.992;  -12.331; 3351.106
884.422; 1310.250;  -10.201; 3394.044
884.983; 1177.490;  -12.521; 3166.443
885.544; 1056.366;  -12.291; 3189.802
886.105; 1001.105;  -12.991; 3160.360
886.666;  986.882;  -12.901; 3093.059
887.227;  979.436;  -12.061; 2941.957
887.788;  948.714;  -11.641; 2974.836
888.349;  901.192;  -14.691; 2721.214
888.910;  855.607;   -9.681; 2696.493
889.471;  849.465;   -9.971; 2560.172
890.032;  859.820;  -13.151; 2558.190
890.593;  838.704;  -12.051; 2567.669
891.153;  795.561;  -12.841; 2460.307
891.714;  767.295;  -13.561; 2372.046
892.275;  737.293;  -12.401; 2309.505
892.835;  701.114;  -13.191; 2382.543
893.396;  664.895;  -12.551; 2295.502
893.956;  643.726;  -11.981; 2162.420
894.517;  625.972;  -12.221; 2125.439
895.077;  589.944;  -12.021; 2086.978
895.638;  531.855;  -10.891; 2126.316
896.198;  477.484;  -13.171; 1838.275
896.758;  441.710;  -11.891; 1892.813
897.319;  417.482;  -12.491; 1792.232
897.879;  402.656;  -12.401; 1762.751
898.439;  376.229;  -13.431; 1661.149
898.999;  358.092;  -11.340; 1781.468
899.559;  349.822;  -13.930; 1703.347
900.119;  330.551;  -13.730; 1537.525
900.679;  311.926;   -9.210; 1638.384
901.239;  296.354;  -10.860; 1527.902
901.799;  279.306;  -11.450; 1456.441
902.359;  261.438;  -13.800; 1357.140
902.919;  254.892;  -12.130; 1331.118
903.479;  255.689;  -12.650; 1317.257
904.038;  250.082;  -16.110; 1262.595
904.598;  236.055;  -13.690; 1152.034
905.158;  224.021;  -10.290; 1240.893
905.717;  216.405;  -10.670; 1233.691
906.277;  216.143;  -14.040; 1217.330
906.836;  216.076;  -13.510; 1222.408
907.396;  211.301;  -11.530; 1193.047
907.955;  200.414;  -13.190; 1182.526
908.515;  188.989;  -12.950; 1099.364
909.074;  180.968;  -12.390; 1092.863
909.633;  176.140;  -10.340; 1069.121
910.192;  174.035;  -11.170; 1196.460
910.752;  169.868;  -14.200; 1029.960
911.311;  165.156;  -13.810; 1009.780
911.870;  161.642;  -12.750;  971.460
912.429;  161.586;  -12.380; 1094.080
912.988;  159.761;  -11.930; 1081.060
913.547;  153.217;  -10.990;  940.380
914.106;  150.018;  -11.200;  999.420
914.665;  147.894;  -13.150;  984.020
915.224;  146.836;  -13.310; 1035.760
915.782;  144.617;  -13.340;  922.560
916.341;  144.083;  -10.710; 1049.840
916.900;  141.954;  -12.980;  925.260
917.458;  139.619;  -13.060;  884.220
918.017;  138.881;  -10.900;  942.600
918.576;  136.738;  -11.630;  904.440
919.134;  136.537;  -12.860;  837.980
919.693;  137.753;  -15.160;  893.060
920.251;  136.820;  -13.470;  876.500
920.809;  135.868;  -13.700;  839.580
921.368;  136.315;  -13.420;  885.360
921.926;  137.670;  -14.710;  842.940
922.484;  137.000;  -12.560;  903.360
923.042;  135.487;  -11.930;  880.340
923.601;  136.443;  -10.270;  998.680
924.159;  136.340;  -12.960;  935.560
924.717;  134.969;  -13.040;  841.080
925.275;  137.166;  -12.560;  903.240
925.833;  137.354;  -13.040;  779.320
926.391;  140.193;  -13.360;  938.380
926.949;  138.334;  -13.940;  857.680
927.506;  138.640;   -9.400;  903.500
928.064;  138.592;  -10.940;  877.580
928.622;  137.352;  -13.180;  880.100
929.180;  138.159;  -12.730;  814.180
929.737;  139.249;  -12.840;  808.540
930.295;  142.509;  -11.810;  928.480
930.853;  145.953;  -13.650;  849.100
931.410;  148.565;  -13.580;  821.120
931.968;  148.885;  -12.020;  940.660
932.525;  149.399;  -13.320;  909.380
933.082;  151.770;  -13.800;  811.440
933.640;  156.713;  -11.380;  925.900
934.197;  158.063;  -11.480;  886.360
934.754;  162.549;  -13.220;  897.780
935.312;  161.221;  -14.950;  863.340
935.869;  158.902;  -10.940; 1012.980
936.426;  153.751;  -12.100;  872.800
936.983;  154.241;  -12.930;  889.020
937.540;  155.140;  -14.250;  838.280
938.097;  160.109;  -12.600;  940.120
938.654;  165.209;  -11.260;  898.860
939.211;  168.587;  -13.020;  952.480
939.768;  170.785;  -15.760;  915.420
940.324;  172.044;  -13.920;  904.200
940.881;  166.657;  -11.620;  878.500
941.438;  163.880;   -9.870; 1021.200
941.995;  161.304;  -13.920;  992.560
942.551;  159.970;  -12.830;  875.620
943.108;  161.775;  -11.980;  937.920
943.664;  164.695;  -13.740;  869.340
944.221;  170.317;  -12.670; 1088.140
944.777;  169.047;  -13.250;  869.680
945.334;  167.286;  -13.000;  884.840
945.890;  167.669;  -13.020;  946.480
946.446;  167.957;  -13.880;  947.020
947.003;  170.562;  -12.660;  964.940
947.559;  170.259;   -8.730; 1063.040
948.115;  166.934;  -11.960; 1026.540
948.671;  163.921;  -12.360;  967.300
949.227;  160.787;  -12.700;  859.560
949.783;  156.501;  -13.450;  858.900
950.339;  155.379;  -10.620;  991.000
950.895;  153.885;  -14.770; 1023.840
951.451;  150.450;  -13.650;  925.280
952.007;  150.689;  -11.180;  998.540
952.563;  149.062;  -11.680;  937.780
953.118;  149.627;  -13.280;  904.940
953.674;  151.348;  -12.510;  935.780
954.230;  151.347;  -12.220;  949.640
954.785;  147.224;  -12.190;  936.640
955.341;  142.032;  -12.270;  998.160
955.897;  137.212;  -14.900;  834.660
956.452;  136.936;  -12.520;  953.840
957.008;  136.571;   -9.410; 1083.640
957.563;  135.460;  -11.280; 1009.540
958.118;  132.975;  -13.470;  877.700
958.674;  134.507;  -12.190;  946.780
959.229;  136.937;  -12.760; 1013.980
959.784;  141.665;  -15.710;  832.400
960.339;  148.388;  -12.540; 1001.280
960.894;  148.210;  -11.680;  963.760
961.449;  144.563;  -11.410;  859.960
962.004;  143.640;  -10.430; 1212.840
962.559;  138.061;  -14.040;  860.140
963.114;  134.521;  -14.270;  742.480
963.669;  135.092;  -11.320;  915.500
964.224;  134.755;  -14.620;  874.340
964.779;  131.998;  -14.150;  828.420
965.334;  131.038;  -10.850; 1017.860
965.888;  130.680;  -14.530;  875.360
966.443;  133.014;  -13.520;  972.380
966.998;  128.466;  -13.370;  819.460
967.552;  125.869;   -9.960;  908.380
968.107;  121.166;  -12.360;  868.300
968.661;  122.519;  -12.270;  922.440
969.216;  121.358;  -12.140;  856.280
969.770;  121.873;  -11.860;  917.200
970.324;  120.422;  -12.170;  923.140
970.879;  119.959;  -14.160;  947.180
971.433;  117.698;  -12.940;  952.720
971.987;  114.171;  -10.180;  895.340
972.541;  113.510;  -12.130;  917.100
973.095;  113.136;  -14.980; 1009.460
973.649;  112.675;  -14.480;  809.480
974.203;  112.923;  -13.530;  829.040
974.757;  115.658;  -12.060;  855.220
975.311;  113.193;  -13.240;  872.600
975.865;  110.707;  -12.550;  881.820
976.419;  108.763;  -13.180;  857.400
976.973;  107.466;  -14.100;  849.620
977.526;  107.795;  -13.330;  949.920
978.080;  103.450;  -15.390;  796.780
978.634;  104.135;  -11.670;  921.320
979.187;  101.437;  -10.640;  905.400
979.741;  101.310;  -13.330; 1018.380
980.294;   98.245;  -14.480;  789.160
980.848;   95.296;  -13.420;  717.220
981.401;   94.404;  -12.360;  816.540
981.955;   92.606;  -12.480;  844.300
982.508;   89.478;  -14.000;  746.340
983.061;   88.700;  -10.440;  915.260
983.615;   85.144;  -14.340;  798.800
984.168;   83.822;  -14.950;  770.080
984.721;   82.222;  -13.270;  880.760
985.274;   80.593;  -12.240;  867.500
985.827;   78.195;  -12.720;  834.220
986.380;   73.806;  -14.920;  721.340
986.933;   74.665;  -12.860;  864.800
987.486;   73.351;  -10.440;  861.920
988.039;   72.673;  -11.820;  863.100
988.591;   71.046;  -13.760;  893.260
989.144;   69.482;  -14.080;  737.260
989.697;   69.723;  -13.440;  758.740
990.250;   70.852;  -12.050;  858.100
990.802;   70.170;  -14.550;  755.860
991.355;   69.517;  -10.770;  974.880
991.907;   66.906;  -11.710;  864.320
992.460;   64.295;  -12.650;  753.760
993.012;   63.710;  -13.860;  749.540
993.565;   61.227;  -14.310;  711.360
994.117;   61.750;   -9.920;  950.780
994.669;   58.559;  -13.420;  701.320
995.221;   58.023;  -14.200;  791.920
995.774;   57.931;  -13.400;  787.580
996.326;   55.815;  -11.850;  740.220
996.878;   56.295;  -12.230;  838.420
997.430;   54.410;  -14.260;  699.860
997.982;   54.188;  -11.430;  750.140
998.534;   53.785;  -11.590;  739.060
999.086;   52.225;  -11.960;  738.220
999.638;   51.871;  -13.640;  661.380
1000.190;   51.164;  -13.660;  699.320
1000.741;   49.608;   -9.980;  742.700
1001.293;   49.848;  -11.860;  686.020
1001.845;   49.263;  -14.280;  676.640
1002.396;   49.305;  -12.270;  743.400
1002.948;   48.655;  -13.670;  737.400
1003.500;   47.921;  -12.010;  723.780
1004.051;   49.232;  -11.890;  907.580
1004.603;   48.376;  -11.220;  791.820
1005.154;   43.520;  -13.210;  608.980
1005.705;   42.813;  -11.850;  723.960
1006.257;   43.748;  -13.670;  707.220
1006.808;   42.128;  -12.060;  685.460
1007.359;   41.775;  -10.250;  763.240
1007.910;   39.740;  -13.440;  646.640
1008.461;   40.291;  -13.170;  732.940
1009.013;   38.703;  -14.590;  588.340
1009.564;   40.032;  -12.100;  793.520
1010.115;   37.158;  -14.000;  597.040
1010.665;   38.091;  -15.020;  602.160
1011.216;   38.318;  -12.560;  667.920
1011.767;   36.786;  -11.330;  697.920
1012.318;   38.024;  -11.450;  736.980
1012.869;   37.030;  -11.000;  679.000
1013.419;   36.600;  -11.760;  603.120
1013.970;   35.796;  -11.800;  666.640
1014.521;   35.430;  -14.750;  620.620
1015.071;   36.356;  -14.430;  670.380
1015.622;   35.921;  -14.170;  635.460
1016.172;   34.648;  -11.700;  596.820
1016.723;   33.856;  -13.230;  614.380
1017.273;   34.542;  -16.120;  604.160
1017.823;   34.848;  -13.360;  650.340
1018.374;   33.725;  -13.710;  611.760
1018.924;   33.821;  -11.050;  716.880
1019.474;   35.021;  -14.120;  718.880
1020.024;   32.967;  -12.990;  657.580
1020.574;   33.268;  -12.010;  726.160
1021.124;   32.787;  -12.080;  673.580
1021.674;   31.867;  -15.860;  559.120
1022.224;   33.414;  -11.710;  708.940
1022.774;   31.877;  -13.030;  668.820
1023.324;   32.831;  -11.000;  753.520
1023.874;   34.407;  -13.270;  875.760
1024.423;   32.006;  -14.570;  613.700
1024.973;   31.595;  -12.620;  610.760
1025.523;   30.197;  -12.630;  620.960
1026.072;   31.059;  -14.110;  606.420
1026.622;   30.095;  -15.390;  675.740
1027.172;   30.421;   -9.090;  715.660
1027.721;   29.408;  -12.250;  601.220
1028.270;   30.381;  -15.590;  663.400
1028.820;   30.387;  -13.840;  638.080
1029.369;   29.038;  -13.170;  612.700
1029.918;   29.121;  -14.080;  649.840
1030.468;   28.986;  -13.860;  564.780
1031.017;   28.938;  -12.970;  634.800
1031.566;   27.842;  -12.320;  608.900
1032.115;   29.291;  -13.140;  694.500
1032.664;   28.664;  -14.560;  596.480
1033.213;   28.657;  -11.620;  735.420
1033.762;   27.783;  -13.190;  635.620
1034.311;   27.279;  -13.460;  677.220
1034.860;   27.835;  -15.770;  691.000
1035.408;   28.061;  -13.100;  722.720
1035.957;   28.252;  -12.880;  719.540
1036.506;   25.284;  -13.640;  530.800
1037.055;   28.937;  -12.420;  844.320
1037.603;   27.313;  -13.740;  664.000
1038.152;   25.382;  -13.840;  534.760
1038.700;   25.545;  -10.770;  585.740
1039.249;   26.431;  -13.520;  681.220
1039.797;   26.500;  -13.060;  633.360
1040.345;   26.191;  -11.760;  705.420
1040.894;   25.043;  -10.790;  625.300
1041.442;   25.835;  -15.420;  632.200
1041.990;   25.035;  -14.550;  559.160
1042.538;   23.206;  -15.620;  536.180
1043.087;   23.687;  -14.940;  570.860
1043.635;   25.744;  -12.100;  670.500
1044.183;   24.656;  -13.200;  586.400
1044.731;   23.801;  -11.630;  576.000
1045.279;   23.612;  -14.200;  674.920
1045.827;   26.617;  -12.510;  892.400
1046.374;   22.594;  -14.960;  515.420
1046.922;   22.259;  -11.850;  590.580
1047.470;   23.505;  -13.770;  691.300
1048.018;   23.660;  -15.380;  647.960
1048.565;   24.582;  -14.010;  708.600
1049.113;   21.953;  -14.620;  557.000
1049.660;   21.996;  -14.940;  629.660
1050.208;   23.331;  -14.540;  675.640
1050.755;   22.335;  -13.710;  606.580
1051.303;   22.587;  -11.880;  686.820
1051.850;   22.409;  -12.160;  635.120
1052.397;   20.367;  -15.110;  473.960
1052.945;   21.665;  -14.770;  617.760
1053.492;   22.588;  -12.320;  741.840
1054.039;   22.147;  -13.290;  720.180
1054.586;   20.840;  -15.210;  557.240
1055.133;   21.867;  -12.920;  693.140
1055.680;   22.244;  -12.610;  646.620
1056.227;   20.113;  -12.620;  542.780
1056.774;   23.191;  -13.010;  794.980
1057.321;   20.003;  -16.180;  523.260
1057.868;   20.456;  -11.230;  651.320
1058.415;   20.284;  -10.890;  651.980
1058.961;   20.860;  -12.530;  678.940
1059.508;   19.883;  -14.120;  643.820
1060.055;   19.503;  -13.340;  581.780
1060.601;   20.672;  -12.920;  624.300
1061.148;   19.871;  -14.430;  616.820
1061.694;   19.117;  -14.140;  592.580
1062.241;   19.256;  -12.550;  596.320
1062.787;   19.457;  -13.370;  663.140
1063.334;   21.782;  -12.260;  808.560
1063.880;   19.697;  -10.800;  668.360
1064.426;   19.667;   -9.920;  706.820
1064.972;   17.829;  -12.970;  601.340
1065.518;   17.344;  -14.440;  566.640
1066.065;   18.763;  -12.680;  624.460
1066.611;   17.372;  -13.520;  598.800
1067.157;   18.096;  -11.100;  641.860
1067.703;   18.358;  -14.100;  668.480
1068.249;   18.124;  -13.750;  605.220
1068.794;   17.875;  -11.070;  626.880
1069.340;   16.716;  -13.210;  578.960
1069.886;   17.152;  -14.850;  590.700
1070.432;   16.512;  -14.580;  541.720
1070.977;   16.400;  -12.930;  601.080
1071.523;   16.074;  -11.970;  573.060
1072.068;   16.712;  -13.730;  582.000
1072.614;   16.615;  -14.550;  527.760
1073.160;   16.807;  -13.690;  687.040
1073.705;   15.209;  -14.780;  572.520
1074.250;   16.443;  -15.430;  559.900
1074.796;   17.443;  -11.620;  655.160
1075.341;   16.898;  -11.580;  664.100
1075.886;   15.932;  -13.190;  594.240
1076.431;   16.775;  -13.630;  649.880
1076.976;   15.796;  -11.670;  639.220
1077.521;   15.540;  -11.600;  583.080
1078.067;   15.261;  -13.920;  579.400
1078.612;   15.468;  -12.910;  661.620
1079.156;   15.221;  -15.340;  601.540
1079.701;   15.396;  -12.560;  693.260
1080.246;   15.509;  -12.490;  696.300
1080.791;   14.866;  -14.550;  625.020
1081.336;   15.031;  -15.210;  659.320
1081.880;   14.851;  -11.280;  649.680
1082.425;   13.782;  -12.830;  573.480
1082.970;   15.675;  -11.680;  717.040
1083.514;   14.071;  -15.500;  597.000
1084.059;   13.519;  -11.770;  586.720
1084.603;   13.510;  -13.480;  565.840
1085.147;   14.092;  -13.940;  645.220
1085.692;   15.248;  -13.170;  716.800
1086.236;   12.865;  -15.740;  503.140
1086.780;   14.521;  -10.750;  751.440
1087.325;   14.272;  -14.900;  654.620
1087.869;   13.800;  -15.160;  610.700
1088.413;   13.809;  -11.030;  705.040
1088.957;   12.525;  -15.210;  543.400
1089.501;   14.925;  -12.310;  766.640
1090.045;   14.221;  -12.790;  726.480
1090.589;   11.373;  -14.040;  569.920
1091.133;   12.136;  -12.800;  673.340
1091.676;   12.824;  -13.600;  591.940
1092.220;   12.782;  -12.960;  600.920
1092.764;   13.002;  -10.830;  706.960
1093.307;   12.352;  -12.390;  673.780
1093.851;   11.295;  -15.850;  556.540
1094.395;   12.185;  -12.980;  683.140
1094.938;   11.237;  -13.670;  632.520
1095.482;   11.523;  -12.740;  559.800
1096.025;   12.222;  -13.340;  710.880
1096.568;   12.854;  -10.500;  779.280
1097.112;    9.168;  -13.500;  508.180
1097.655;   10.974;  -13.060;  603.000
1098.198;   10.212;  -13.240;  600.180
1098.741;   10.914;  -15.490;  612.860
1099.285;   10.775;  -13.410;  657.300
1099.828;    9.060;  -15.640;  439.400
1100.371;   10.667;  -13.980;  608.160
1100.914;   11.186;  -13.990;  682.660
1101.457;   10.116;  -15.030;  679.900
1101.999;    9.179;  -12.480;  584.680
1102.542;   10.641;  -12.410;  641.440
1103.085;    9.750;  -14.730;  658.500
1103.628;   10.568;  -12.190;  762.060
1104.170;    8.532;  -12.360;  588.280
1104.713;   10.171;  -13.350;  646.700
1105.256;    9.771;  -14.930;  557.440
1105.798;    8.406;  -15.150;  499.980
1106.341;   10.884;  -13.230;  728.900
1106.883;    9.476;  -14.680;  521.340
1107.425;   10.091;  -14.810;  668.180
1107.968;    8.002;  -12.940;  612.380
1108.510;    9.760;  -10.550;  684.960
1109.052;    8.040;  -15.640;  612.620
1109.594;    8.715;  -14.440;  554.440
1110.136;    9.539;  -11.380;  643.220
1110.679;    7.873;  -13.090;  633.080
1111.221;    9.682;  -14.230;  604.460
1111.763;    7.943;  -14.260;  559.220
1112.304;    7.614;  -14.510;  547.140
1112.846;    8.132;  -14.700;  666.240
1113.388;   11.819;  -12.270;  942.180
1113.930;    8.521;  -13.340;  694.200
1114.472;    7.928;  -12.560;  606.540
1115.013;    6.313;  -14.280;  551.280
1115.555;    6.666;  -14.010;  587.100
1116.097;    6.672;  -14.730;  579.480
1116.638;    7.076;  -12.160;  684.600
1117.180;    7.496;  -14.320;  667.740
1117.721;    6.989;  -15.730;  568.580
1118.262;    8.100;  -13.480;  677.960
1118.804;    7.292;  -11.530;  637.340
1119.345;    6.712;  -13.540;  578.400
1119.886;    7.923;  -14.470;  704.040
1120.427;    6.137;  -13.030;  589.020
1120.969;    5.654;  -13.150;  597.920
1121.510;    5.042;  -13.940;  563.060
1122.051;    7.178;  -12.310;  723.580
1122.592;    6.344;  -13.870;  655.420
1123.133;    4.378;  -12.890;  547.940
1123.673;    6.629;  -13.300;  706.480
1124.214;    6.360;  -14.000;  612.460
1124.755;    6.853;  -13.210;  639.460
1125.296;    5.325;  -13.450;  627.320
1125.836;    6.704;  -12.610;  691.500
1126.377;    5.475;  -15.840;  599.660
1126.918;    6.437;  -11.830;  614.980
1127.458;    4.920;  -11.830;  622.220
1127.999;    5.285;  -11.490;  656.980
1128.539;    6.294;  -12.900;  694.240
1129.079;    5.799;  -14.910;  632.720
1129.620;    4.158;  -12.920;  558.100
1130.160;    3.443;  -14.640;  539.480
1130.700;    5.393;  -13.270;  640.840
1131.240;    5.720;  -14.110;  643.700
1131.781;    4.524;  -13.130;  619.680
1132.321;    3.796;  -15.220;  599.120
1132.861;    3.727;  -15.670;  564.200
1133.401;    3.414;  -13.970;  593.940
1133.941;    4.162;  -13.740;  626.280
1134.481;    3.521;  -13.200;  597.580
1135.020;    2.859;  -14.830;  609.160
1135.560;    4.810;  -14.590;  674.940
1136.100;    3.017;  -13.730;  501.160
1136.640;    2.722;  -15.240;  510.480
1137.179;    3.021;  -14.710;  537.960
1137.719;    4.269;  -14.090;  605.400
1138.258;    3.239;  -12.470;  587.360
1138.798;    4.701;  -12.580;  663.780
1139.337;    2.673;  -16.480;  482.840
1139.877;    3.979;  -13.970;  642.360
1140.416;    5.504;   -9.870;  878.060
1140.955;    1.854;  -14.860;  535.380
1141.494;    4.214;  -14.530;  669.280
1142.034;    2.806;  -13.940;  583.520
1142.573;    4.271;  -11.160;  646.280
1143.112;    2.437;  -15.050;  553.480
1143.651;    2.562;  -15.390;  536.480
1144.190;    4.076;  -12.990;  691.640
1144.729;    2.280;  -12.220;  607.420
1145.267;    2.475;  -14.020;  584.900
1145.806;    3.763;  -12.740;  637.040
1146.345;    2.605;  -14.810;  635.020
1146.884;    1.790;  -12.920;  622.500
1147.422;    1.477;  -13.930;  533.060
1147.961;    3.657;  -11.830;  708.460
1148.500;    3.696;  -12.710;  669.720
1149.038;    2.698;  -14.420;  632.500
1149.577;    2.395;  -13.920;  698.640
1150.115;    0.636;  -17.050;  452.280
1150.653;    2.047;  -14.890;  607.340
1151.192;    1.879;  -15.270;  552.920
1151.730;    1.065;  -13.160;  652.560
1152.268;    1.756;  -15.430;  589.520
1152.806;    1.404;  -15.880;  571.180
1153.344;    0.074;  -13.240;  577.640
1153.882;    0.853;  -13.010;  600.060
1154.421;   -0.302;  -16.180;  470.620
1154.958;    1.034;  -13.880;  595.240
1155.496;    1.709;  -13.590;  645.280
1156.034;    0.716;  -11.910;  721.880
1156.572;    1.552;  -12.010;  667.060
1157.110;   -0.428;  -16.250;  473.940
1157.647;    1.842;  -15.230;  676.960
1158.185;   -0.428;  -13.770;  564.320
1158.723;   -0.820;  -15.300;  509.200
1159.260;    1.943;  -13.130;  701.700
1159.798;    1.671;  -11.300;  658.160
1160.335;    0.339;  -13.210;  631.820

