
Integration time [ms]:   3.276
Averaging Nr. [scans]: 1000
Smoothing Nr. [pixels]: 0
Data measured with spectrometer [name]: 7414430SP
Wave   ;Sample   ;Dark     ;Reference
[nm]   ;[counts] ;[counts] ;[counts] 

288.544;  150.388;    7.793;  793.890
289.143;  154.729;    7.462;  681.602
289.742;  154.354;    8.602;  828.814
290.341;  140.552;    1.321;  789.841
290.940;  129.586;   -0.709;  730.702
291.538;  131.177;    0.881;  881.108
292.137;  130.103;    0.122;  792.581
292.736;  135.162;   -1.929;  975.101
293.335;  131.413;   -8.229;  735.086
293.934;  131.369;   -5.279;  781.677
294.532;  130.005;   -1.369; 1031.958
295.131;  116.068;   -7.641;  834.394
295.730;  116.379;   -8.420;  809.588
296.328;  115.902;   -5.611;  783.442
296.927;  116.972;   -5.781;  779.652
297.525;  118.019;   -6.361;  781.236
298.124;  107.414;  -11.382;  654.009
298.722;  110.897;   -7.641;  761.933
299.321;  109.750;   -6.811;  708.597
299.919;  107.634;   -6.991;  751.918
300.518;  104.407;  -10.362;  689.338
301.116;  105.914;   -9.581;  691.381
301.715;  105.174;   -4.891;  730.222
302.313;  104.668;   -8.801;  704.943
302.911;   99.982;   -8.522;  733.830
303.509;  105.606;   -6.171;  925.627
304.108;  103.240;   -7.311;  760.383
304.706;  101.976;   -8.321;  801.664
305.304;   97.301;  -10.222;  796.707
305.902;  102.391;   -6.021;  784.484
306.500;   97.882;   -4.971;  728.200
307.098;   96.590;   -7.061;  746.560
307.696;   94.253;   -8.801;  780.432
308.294;   94.580;   -6.411;  731.359
308.892;   97.260;   -2.901;  759.769
309.490;   93.093;   -5.041;  712.161
310.088;   91.305;   -5.002;  788.444
310.686;   95.923;   -2.041;  821.749
311.284;   91.966;   -2.351;  766.040
311.882;   88.894;   -4.422;  731.225
312.480;   85.847;   -4.192;  697.167
313.078;   87.275;   -1.172;  808.331
313.675;   87.935;   -2.601;  691.600
314.273;   83.161;   -1.312;  797.837
314.871;   83.295;   -3.942;  589.829
315.468;   81.614;   -2.802;  652.090
316.066;   83.347;   -0.701;  694.427
316.664;   76.783;   -4.362;  656.351
317.261;   80.111;   -2.872;  910.128
317.859;   76.551;   -2.022;  768.735
318.456;   76.601;   -0.531;  830.096
319.054;   72.560;   -3.912;  787.828
319.651;   71.375;   -4.752;  759.928
320.249;   70.581;   -2.602;  810.188
320.846;   67.842;   -0.821;  714.286
321.443;   65.365;   -4.642;  832.135
322.041;   62.544;   -5.002;  812.315
322.638;   60.246;   -3.982;  701.456
323.235;   61.319;   -3.411;  665.683
323.833;   58.613;   -7.361;  740.354
324.430;   54.500;   -8.611;  615.900
325.027;   55.810;   -4.061;  876.855
325.624;   55.186;   -4.031;  644.532
326.221;   52.472;   -7.481;  689.717
326.818;   51.940;   -5.281;  818.332
327.415;   54.998;   -7.460;  748.828
328.012;   54.377;   -5.510;  690.585
328.609;   53.314;   -7.880;  731.389
329.206;   51.885;   -8.331;  778.621
329.803;   50.657;   -5.121;  737.841
330.400;   54.666;   -4.510;  704.260
330.997;   55.689;   -6.441;  817.147
331.594;   54.000;   -8.831;  788.185
332.191;   58.538;   -7.621;  728.722
332.787;   61.781;   -4.591;  844.463
333.384;   61.039;   -7.412;  763.093
333.981;   59.309;   -8.293;  815.687
334.578;   62.084;   -7.052;  708.378
335.174;   65.324;   -3.102;  731.469
335.771;   64.180;   -5.943;  836.456
336.367;   61.423;   -7.393;  710.631
336.964;   65.352;   -4.063;  793.266
337.561;   62.916;   -3.813;  731.112
338.157;   58.388;   -4.654;  911.916
338.754;   55.604;   -7.934;  796.589
339.350;   54.263;   -4.414;  722.493
339.946;   55.482;   -4.664;  773.135
340.543;   48.541;   -6.375;  846.136
341.139;   42.581;   -9.815;  720.836
341.735;   41.344;   -4.526;  772.593
342.332;   39.307;   -4.895;  691.472
342.928;   39.395;   -4.295;  795.394
343.524;   34.109;   -5.476;  761.684
344.120;   31.078;   -5.856;  738.562
344.716;   33.553;   -2.155;  723.717
345.313;   31.549;   -6.275;  795.342
345.909;   26.492;   -8.815;  627.336
346.505;   27.887;   -5.305;  740.247
347.101;   29.147;   -2.674;  827.864
347.697;   29.154;   -4.344;  785.398
348.293;   23.369;   -9.975;  627.244
348.889;   24.556;   -5.774;  745.914
349.485;   23.705;   -5.004;  688.205
350.081;   24.510;   -4.704;  772.592
350.676;   19.480;   -6.635;  691.606
351.272;   23.929;   -4.504;  809.530
351.868;   23.331;   -3.914;  780.497
352.464;   20.912;   -9.044;  723.932
353.059;   17.498;   -8.314;  646.017
353.655;   21.093;   -7.024;  777.063
354.251;   21.792;   -5.343;  759.845
354.846;   15.982;   -8.604;  740.646
355.442;   14.197;   -6.945;  753.071
356.038;   15.660;   -7.564;  751.708
356.633;   16.150;   -5.814;  728.594
357.229;   14.145;   -7.364;  724.757
357.824;   12.003;   -8.024;  703.600
358.420;   11.284;   -9.384;  679.726
359.015;   12.695;   -5.104;  695.357
359.610;   13.256;   -6.854;  763.920
360.206;    6.600;  -10.185;  603.240
360.801;    9.638;   -7.054;  646.503
361.396;   11.978;   -5.034;  725.975
361.992;    7.253;   -8.284;  668.220
362.587;    5.038;   -8.625;  670.160
363.182;    7.367;   -7.674;  689.631
363.777;    8.038;   -5.164;  738.242
364.372;    7.142;   -8.604;  737.314
364.967;    3.189;   -9.055;  680.744
365.563;    7.688;   -6.114;  815.567
366.158;    5.435;   -5.814;  685.161
366.753;    5.114;   -7.854;  649.263
367.348;    3.604;   -7.804;  746.056
367.942;    3.614;   -7.954;  697.298
368.537;    2.720;   -4.984;  754.245
369.132;    3.160;   -8.564;  703.428
369.727;   -1.580;   -8.855;  638.079
370.322;    0.529;   -6.245;  580.186
370.917;    0.367;   -6.425;  710.646
371.511;    3.134;   -6.294;  861.834
372.106;   -0.188;   -7.685;  776.964
372.701;   -3.560;   -7.335;  585.988
373.296;    1.933;   -4.564;  863.135
373.890;   -3.038;  -10.235;  647.840
374.485;   -4.560;   -7.885;  691.199
375.079;   -0.986;   -7.324;  738.685
375.674;    0.716;   -3.494;  812.970
376.268;   -3.816;   -8.525;  691.759
376.863;  -10.256;  -10.086;  580.327
377.457;   -3.231;   -7.025;  662.490
378.052;   -5.250;   -3.585;  764.884
378.646;   -5.735;   -7.595;  741.167
379.240;   -7.658;   -8.335;  721.176
379.835;   -5.127;   -5.785;  636.978
380.429;   -7.615;   -4.335;  562.557
381.023;   -7.052;   -6.805;  779.205
381.617;   -9.662;   -9.195;  680.106
382.212;   -6.924;   -6.905;  685.303
382.806;   -5.372;   -3.745;  760.690
383.400;   -9.612;   -7.745;  672.281
383.994;  -10.547;   -9.765;  664.870
384.588;   -6.075;   -6.564;  697.701
385.182;   -5.399;   -5.344;  726.624
385.776;   -6.724;   -8.514;  706.875
386.370;  -10.149;   -9.555;  681.968
386.964;   -9.506;   -8.715;  684.155
387.558;   -7.250;   -6.174;  598.360
388.152;  -10.696;   -8.725;  681.959
388.745;   -9.549;   -7.965;  814.707
389.339;   -7.232;   -5.924;  747.642
389.933;   -6.383;   -5.524;  695.370
390.527;   -7.628;   -7.114;  859.029
391.120;  -13.721;  -10.725;  595.318
391.714;  -10.830;   -8.035;  711.633
392.308;   -7.235;   -3.574;  780.253
392.901;  -10.547;   -7.245;  642.460
393.495;  -12.694;   -9.285;  595.414
394.089;  -10.651;   -5.895;  760.452
394.682;  -11.685;   -4.295;  697.188
395.275;  -11.262;   -9.875;  719.927
395.869;  -13.133;   -8.485;  667.314
396.462;  -11.031;   -7.455;  616.609
397.056;   -7.763;   -5.424;  776.621
397.649;  -12.070;   -6.605;  731.575
398.242;   -9.900;   -8.224;  712.645
398.836;   -8.763;   -7.474;  766.408
399.429;  -10.292;   -7.094;  631.041
400.022;  -13.094;   -9.475;  665.902
400.615;  -10.896;   -7.145;  805.609
401.208;   -8.623;   -7.174;  691.451
401.802;  -11.900;   -5.515;  699.329
402.395;  -11.675;   -9.875;  683.502
402.988;  -13.399;   -8.845;  696.627
403.581;   -9.818;   -8.874;  646.878
404.174;   -8.070;   -5.324;  686.568
404.767;  -10.874;   -9.575;  638.583
405.360;  -13.026;  -10.965;  621.445
405.953;   -7.843;   -8.764;  759.034
406.545;   -7.102;   -7.514;  725.342
407.138;  -11.148;  -10.025;  618.350
407.731;  -10.126;  -10.034;  613.303
408.324;   -6.235;   -9.374;  660.554
408.917;   -6.906;   -6.534;  681.864
409.509;   -8.711;   -8.004;  740.396
410.102;  -10.653;   -9.875;  643.948
410.695;   -4.989;   -8.604;  665.758
411.287;   -5.747;   -6.794;  599.821
411.880;   -6.710;   -9.334;  585.421
412.472;  -10.202;  -10.254;  613.092
413.065;   -7.152;   -6.714;  629.408
413.657;   -5.267;   -7.234;  576.678
414.250;   -4.716;  -10.544;  646.681
414.842;   -6.567;   -9.744;  676.353
415.434;   -5.043;   -6.994;  570.463
416.027;   -0.144;   -5.893;  652.196
416.619;   -2.554;   -7.264;  713.400
417.211;   -2.889;  -10.374;  599.352
417.804;    0.836;   -7.993;  628.499
418.396;   -3.564;   -7.234;  607.643
418.988;   -0.365;   -9.443;  659.238
419.580;   -4.041;  -10.724;  568.276
420.172;   -1.662;  -10.323;  536.196
420.764;    1.888;   -8.793;  672.482
421.356;    0.470;  -11.143;  636.898
421.948;    0.097;   -8.293;  677.661
422.540;    5.036;   -7.893;  680.027
423.132;    4.402;   -7.082;  600.641
423.724;    2.003;   -8.653;  561.267
424.316;    3.809;  -10.213;  621.345
424.908;    6.143;   -9.762;  591.517
425.500;    7.221;   -5.572;  647.978
426.092;    7.928;   -8.422;  648.268
426.683;    6.731;   -9.283;  684.836
427.275;    9.595;   -7.852;  641.471
427.867;   11.350;   -5.272;  668.948
428.458;   11.774;   -7.682;  732.344
429.050;    9.749;  -10.612;  680.749
429.642;   12.860;   -9.882;  743.124
430.233;   13.972;   -6.962;  569.356
430.825;   14.690;   -6.842;  724.809
431.416;   11.145;   -9.672;  698.241
432.008;   14.772;   -6.552;  651.723
432.599;   15.882;   -6.891;  656.073
433.190;   13.221;  -10.912;  637.670
433.782;   12.209;  -11.172;  590.395
434.373;   19.878;   -6.061;  884.765
434.964;   18.717;   -8.251;  602.920
435.556;   16.666;   -9.722;  634.537
436.147;   19.293;   -9.082;  758.490
436.738;   19.153;   -8.041;  701.099
437.329;   24.313;   -7.341;  721.723
437.920;   17.112;   -8.162;  666.688
438.511;   17.869;  -11.802;  564.526
439.103;   24.099;  -10.191;  623.998
439.694;   25.908;   -7.601;  681.583
440.285;   26.992;   -8.541;  764.432
440.876;   25.334;   -9.751;  845.738
441.466;   24.210;   -9.401;  575.162
442.057;   29.237;   -7.760;  665.814
442.648;   27.945;   -9.971;  746.255
443.239;   27.280;  -11.001;  620.477
443.830;   32.115;   -7.990;  704.958
444.421;   34.041;   -7.910;  655.474
445.011;   30.706;   -8.131;  693.619
445.602;   29.972;   -7.111;  743.126
446.193;   31.467;  -10.920;  488.117
446.783;   35.893;   -6.500;  640.397
447.374;   31.716;   -8.671;  692.759
447.964;   32.678;  -10.781;  713.770
448.555;   40.499;   -9.650;  822.742
449.145;   37.493;   -8.660;  662.853
449.736;   38.132;   -8.990;  803.179
450.326;   38.480;   -9.500;  713.626
450.917;   43.245;   -8.680;  675.324
451.507;   42.365;   -7.520;  600.661
452.097;   42.857;   -8.590;  746.267
452.688;   44.208;  -11.340;  742.160
453.278;   43.681;  -10.100;  566.840
453.868;   47.778;   -6.019;  793.550
454.458;   46.783;   -9.440;  651.141
455.048;   46.629;  -10.560;  711.783
455.639;   48.590;  -11.799;  567.096
456.229;   51.658;   -6.899;  710.694
456.819;   54.517;   -7.389;  751.158
457.409;   53.954;  -11.119;  773.993
457.999;   56.874;   -9.289;  737.505
458.589;   56.782;   -6.139;  686.606
459.179;   56.721;   -8.729;  717.658
459.769;   54.654;   -9.789;  627.099
460.358;   59.673;  -10.259;  797.262
460.948;   60.167;   -7.299;  689.503
461.538;   61.590;  -10.289;  660.677
462.128;   59.598;  -11.269;  664.934
462.717;   65.916;   -9.368;  710.326
463.307;   68.699;   -7.908;  705.846
463.897;   65.209;   -9.599;  656.942
464.486;   65.022;   -9.769;  837.128
465.076;   69.354;   -8.048;  733.776
465.666;   72.488;   -9.358;  652.900
466.255;   70.158;   -7.919;  785.651
466.845;   68.878;  -11.689;  666.749
467.434;   72.890;   -7.818;  725.873
468.023;   73.190;   -7.678;  658.357
468.613;   71.324;  -10.939;  713.946
469.202;   75.036;  -10.118;  646.507
469.791;   80.270;   -9.108;  737.811
470.381;   82.405;   -6.058;  742.813
470.970;   81.612;  -10.428;  711.099
471.559;   80.917;  -10.268;  733.291
472.148;   85.191;   -8.448;  675.737
472.738;   86.730;   -6.917;  765.466
473.327;   86.796;  -11.978;  637.529
473.916;   85.452;  -11.888;  737.446
474.505;   90.596;   -9.437;  751.703
475.094;   93.777;   -6.747;  806.570
475.683;   93.465;   -9.367;  797.699
476.272;   94.916;  -12.637;  730.632
476.861;   96.993;  -10.027;  706.754
477.449;  104.024;   -8.716;  728.487
478.038;   97.949;   -9.577;  692.513
478.627;   99.360;   -9.718;  714.852
479.216;  105.870;   -8.947;  769.441
479.805;  108.624;   -6.256;  783.375
480.393;  108.684;   -7.937; 1008.945
480.982;  108.226;   -7.717;  874.501
481.571;  114.808;   -9.266;  858.333
482.159;  115.012;   -7.636;  705.386
482.748;  115.251;   -9.667;  821.385
483.336;  119.765;  -10.376;  858.209
483.925;  121.066;   -7.147;  774.373
484.513;  127.260;   -7.996;  758.962
485.102;  124.510;  -10.027;  810.965
485.690;  131.899;  -10.446; 1011.050
486.278;  135.594;   -8.446;  979.329
486.867;  135.752;   -6.356;  809.662
487.455;  137.656;   -9.136;  898.229
488.043;  139.408;  -10.646;  748.361
488.631;  148.084;   -7.456; 1005.079
489.220;  153.148;   -6.636;  908.626
489.808;  153.393;  -11.036;  741.415
490.396;  161.912;  -10.246;  914.645
490.984;  168.351;   -8.556;  830.161
491.572;  178.211;   -5.886;  940.315
492.160;  184.997;   -9.486;  919.081
492.748;  197.813;  -10.976;  884.341
493.336;  222.043;   -8.776; 1019.693
493.924;  250.759;   -5.465;  958.077
494.512;  281.584;   -9.986; 1066.638
495.100;  320.826;  -10.636; 1103.280
495.687;  380.014;  -10.885; 1206.373
496.275;  450.989;   -8.126; 1150.796
496.863;  525.124;  -10.586; 1281.171
497.451;  633.470;  -11.926; 1386.805
498.038;  777.297;  -10.885; 1556.729
498.626;  895.349;   -6.315; 1741.407
499.214; 1058.193;   -7.326; 2016.609
499.801; 1270.086;  -11.906; 2220.633
500.389; 1527.699;  -10.466; 2312.494
500.976; 1850.542;   -5.236; 2744.849
501.564; 2320.887;   -8.936; 3148.565
502.151; 2700.332;  -13.176; 3515.999
502.738; 3145.463;  -10.646; 3971.274
503.326; 3584.137;   -9.525; 4403.796
503.913; 4023.878;  -10.856; 5161.749
504.500; 4433.920;  -11.586; 5986.420
505.088; 4834.669;  -10.336; 6381.201
505.675; 5407.168;   -6.355; 6925.547
506.262; 6141.562;   -9.046; 7619.060
506.849; 6938.744;  -10.416; 8733.969
507.436; 7533.669;  -10.305; 9790.121
508.023; 8127.418;   -5.496; 9985.472
508.610; 8355.300;   -7.856;10434.618
509.197; 9043.496;  -10.097;11198.435
509.784;10490.825;  -10.886;12391.194
510.371;11759.838;   -9.315;13603.713
510.958;12590.899;   -9.936;14426.586
511.545;13383.082;   -9.326;15243.775
512.132;14247.565;  -10.075;15945.876
512.719;14774.104;   -7.796;16340.369
513.305;16022.470;  -10.606;18011.766
513.892;16710.395;  -11.486;19754.971
514.479;17945.816;   -9.126;20967.805
515.066;19610.959;   -6.026;22299.793
515.652;21319.328;   -8.466;22908.660
516.239;22607.313;  -10.886;23798.875
516.825;23531.066;  -11.496;25567.275
517.412;24594.648;   -5.796;28154.959
517.998;25361.566;  -10.506;28344.111
518.585;25379.674;  -10.076;27134.219
519.171;26078.471;   -8.315;27268.576
519.758;28075.746;   -8.596;28964.129
520.344;30242.668;   -8.466;30664.494
520.930;30015.119;  -11.006;32550.605
521.516;31056.072;  -10.495;35422.895
522.103;33017.547;   -5.526;38280.004
522.689;33635.680;   -8.746;37835.117
523.275;33279.660;  -11.376;37288.613
523.861;35246.426;  -11.156;37281.395
524.447;37115.816;   -8.135;37846.949
525.033;36825.703;   -7.896;38321.949
525.619;37052.543;  -12.476;38579.285
526.205;38580.680;   -9.516;40622.875
526.791;41403.766;   -6.926;42258.836
527.377;41338.504;   -8.346;42966.902
527.963;42314.629;   -8.717;42018.949
528.549;41538.152;  -11.016;42476.828
529.135;40278.977;   -8.536;41854.852
529.721;39047.102;   -9.666;41237.711
530.306;38393.281;  -10.066;41259.445
530.892;38238.297;  -11.356;41506.047
531.478;39110.473;   -6.596;43559.613
532.063;42512.473;   -8.836;47695.563
532.649;43965.531;  -10.047;50808.324
533.235;44645.594;   -9.746;51787.500
533.820;44770.176;   -6.566;52145.035
534.406;46204.359;  -10.817;51133.488
534.991;46136.219;   -9.416;49996.805
535.576;44348.414;   -9.036;48882.852
536.162;45237.984;   -6.156;46942.285
536.747;46469.793;  -11.607;45711.746
537.333;49382.965;  -11.787;48510.180
537.918;52386.301;  -12.437;50439.891
538.503;51849.816;   -7.196;50863.711
539.088;48314.430;  -10.556;50906.922
539.673;48319.809;   -8.767;52621.965
540.259;48926.793;  -10.026;52368.094
540.844;46276.953;   -7.416;50879.109
541.429;47932.055;   -9.467;52077.777
542.014;49997.762;   -9.527;52716.695
542.599;49141.559;   -9.946;52363.281
543.184;46085.133;   -7.927;53187.137
543.769;47118.578;   -9.297;54697.605
544.354;47442.992;  -10.127;53913.914
544.938;46011.102;   -9.267;49680.164
545.523;47774.008;   -6.506;47386.277
546.108;50837.063;   -9.787;49151.949
546.693;52642.133;  -11.587;51384.637
547.278;52802.137;  -10.986;51853.254
547.862;49814.520;   -8.206;51173.750
548.447;45249.875;  -10.067;51691.395
549.031;44165.324;   -9.637;52456.703
549.616;48899.191;   -9.926;52714.516
550.201;49005.934;   -6.347;52414.598
550.785;50405.688;   -7.917;52355.059
551.370;49454.395;  -10.867;54589.453
551.954;48676.773;   -9.047;58267.348
552.538;49540.441;   -7.827;59062.176
553.123;47980.773;  -10.287;58115.285
553.707;45426.180;  -12.178;56556.285
554.291;46776.605;   -8.717;56201.668
554.876;49967.840;   -7.457;55335.762
555.460;50079.758;  -10.387;54155.703
556.044;50253.105;   -9.618;53721.484
556.628;48140.297;  -11.567;53731.016
557.212;47117.602;   -8.097;54312.531
557.796;46051.371;  -11.077;53797.773
558.380;46298.949;  -11.108;56145.984
558.964;46277.238;   -9.057;57277.930
559.548;47231.102;   -6.977;56459.641
560.132;45197.621;  -11.457;54434.543
560.716;43526.637;  -11.378;54800.617
561.300;44680.230;   -9.577;57606.945
561.884;45908.113;   -7.127;58972.445
562.467;43896.453;   -7.118;57327.570
563.051;43053.840;  -13.358;54962.434
563.635;44616.113;  -10.178;52594.473
564.219;45268.082;   -7.837;50610.410
564.802;45872.844;  -11.398;49551.180
565.386;45428.773;  -12.788;48370.953
565.969;44810.289;   -9.077;48178.871
566.553;43490.508;   -6.207;49957.305
567.136;44324.961;   -8.568;50369.594
567.720;41149.211;  -11.868;49492.004
568.303;38918.059;   -8.268;50616.352
568.887;38762.938;   -8.698;50727.148
569.470;39491.332;   -6.808;51698.379
570.053;38740.453;  -13.188;52122.078
570.637;36301.023;  -12.037;52536.438
571.220;36022.879;   -8.577;51186.098
571.803;37063.137;   -8.498;51032.762
572.386;39420.602;  -10.498;49609.887
572.969;42043.820;   -9.388;48285.926
573.552;40234.242;   -8.338;47624.285
574.135;38677.699;   -8.518;45498.641
574.718;35973.531;  -13.628;41970.434
575.301;35317.598;  -10.893;41447.137
575.884;34661.664;   -8.158;40923.836
576.467;35753.496;  -10.328;45267.723
577.050;37096.012;  -13.058;48175.543
577.633;38445.320;   -9.458;47729.328
578.216;37780.293;   -8.928;47579.793
578.799;36912.953;   -9.358;47820.996
579.381;35885.621;  -11.388;48115.551
579.964;33591.418;  -11.718;47333.766
580.547;35653.434;   -8.588;46668.969
581.129;36375.988;   -8.859;44466.141
581.712;37136.547;  -10.729;44164.922
582.294;37601.203;  -11.118;46477.855
582.877;37699.242;   -5.218;48244.254
583.459;35829.984;   -8.679;47437.895
584.042;33686.113;  -10.709;46943.219
584.624;33567.605;  -11.669;46792.227
585.206;33306.602;   -8.218;46557.250
585.789;33654.438;  -10.569;45793.773
586.371;36045.238;  -11.859;43836.391
586.953;36799.430;  -10.719;42972.492
587.536;37850.500;   -7.198;42487.211
588.118;38501.574;   -8.720;42086.414
588.700;34463.043;  -10.439;43389.930
589.282;33331.531;   -9.198;43646.039
589.864;34183.797;   -9.199;43438.109
590.446;35487.965;  -11.319;43151.926
591.028;35429.504;  -11.159;42781.867
591.610;34041.344;  -11.779;42839.098
592.192;31308.580;   -7.668;42820.402
592.774;29978.547;  -11.949;40724.277
593.356;29032.701;  -12.129;39874.789
593.937;27989.688;  -10.669;39980.648
594.519;30244.865;   -6.509;42069.633
595.101;32402.541;  -10.849;42976.031
595.683;32453.391;  -11.679;44084.441
596.264;33273.391;   -9.049;43478.797
596.846;33040.613;   -8.849;43803.672
597.427;32882.738;   -9.570;42986.934
598.009;34030.945;  -12.620;42832.219
598.591;34511.754;  -10.039;42580.086
599.172;34349.129;  -10.369;43061.805
599.753;34642.926;   -9.140;41691.469
600.335;35811.254;  -11.430;40692.520
600.916;33822.734;   -9.939;39982.422
601.498;31636.873;   -8.479;40318.617
602.079;30117.195;  -10.920;40670.609
602.660;29770.803;  -11.480;41450.898
603.241;31572.203;  -11.699;41137.738
603.823;30191.268;   -9.579;38868.797
604.404;29282.262;  -10.620;38182.785
604.985;31080.139;  -10.450;38078.047
605.566;31242.514;   -9.129;38056.633
606.147;31266.400;   -7.510;37020.418
606.728;32792.012;  -10.660;37883.359
607.309;31447.617;  -11.740;38748.273
607.890;31246.545;   -9.759;38850.230
608.471;30679.635;   -8.250;37457.918
609.051;29981.137;   -9.240;36066.457
609.632;28720.324;  -12.120;35991.074
610.213;28922.598;   -9.110;37402.641
610.794;29871.975;   -8.030;38383.363
611.374;29737.725;   -8.110;40562.387
611.955;30482.971;  -13.560;38533.727
612.536;31970.475;  -11.400;36951.789
613.116;31663.988;   -8.070;37197.891
613.697;32010.898;  -10.830;38411.125
614.277;30166.477;  -11.641;38673.938
614.858;30808.354;  -13.310;37075.863
615.438;30376.697;   -7.460;35092.906
616.019;28238.621;   -7.601;33666.301
616.599;28457.410;  -12.020;34189.023
617.179;30019.514;  -11.780;36952.047
617.760;31160.590;   -8.570;39582.574
618.340;32089.170;  -11.471;38943.977
618.920;32967.668;  -11.170;37594.156
619.500;32820.848;  -11.071;37866.938
620.080;31907.521;   -7.750;37869.043
620.660;33089.176;  -12.711;36868.617
621.241;34926.695;  -10.211;36352.309
621.821;35336.008;  -10.961;35459.520
622.401;33972.840;   -7.720;35207.414
622.980;32832.031;   -8.981;35980.422
623.560;31448.820;   -9.331;37351.328
624.140;30169.410;   -9.850;34388.582
624.720;25334.502;   -7.451;32368.764
625.300;21872.814;   -9.070;32638.629
625.880;25299.844;  -12.601;34599.035
626.459;29417.025;  -11.751;36831.738
627.039;32237.775;   -9.281;38299.098
627.619;32121.436;   -8.801;38289.574
628.198;30548.809;  -12.071;37220.695
628.778;29632.553;   -9.461;37632.563
629.357;30416.902;   -8.491;38003.012
629.937;30639.334;   -9.721;38402.039
630.516;30047.074;   -9.951;37868.801
631.096;29788.916;  -11.731;35760.410
631.675;31943.373;   -8.572;35225.219
632.254;37160.816;  -11.282;35130.289
632.834;36765.570;  -13.322;35794.570
633.413;35150.484;  -10.301;35788.922
633.992;32734.965;   -8.582;34532.863
634.571;33113.043;   -8.352;33590.113
635.151;35709.711;  -11.912;34943.863
635.730;34333.602;  -10.511;35352.523
636.309;30938.041;   -7.731;35366.605
636.888;28328.166;   -9.952;36165.637
637.467;28684.730;  -11.672;37515.902
638.046;30149.260;   -8.901;39288.695
638.625;33028.336;   -7.912;38279.699
639.204;32980.641;  -10.022;37741.598
639.782;31948.838;  -12.252;38364.551
640.361;28168.965;  -10.041;36740.621
640.940;25438.447;  -11.161;34950.082
641.519;26097.623;   -9.701;34137.398
642.097;28965.891;  -11.271;35654.258
642.676;31952.611;   -8.651;35637.957
643.255;33171.695;   -8.711;36567.074
643.833;32384.473;   -9.581;37809.434
644.412;32362.996;  -13.711;37337.293
644.990;31264.232;  -11.811;37018.531
645.569;30967.967;   -9.411;36518.469
646.147;30534.070;  -10.291;36186.430
646.726;30637.070;  -12.401;36267.688
647.304;31712.389;  -10.411;36647.625
647.882;33019.219;   -9.651;39286.742
648.461;34646.059;   -9.631;39157.703
649.039;33178.828;  -11.881;35412.883
649.617;32235.279;   -9.661;34744.918
650.195;31458.768;   -9.301;35403.098
650.773;30088.461;  -10.511;35053.797
651.352;27692.912;  -11.521;33756.816
651.930;25205.180;  -12.211;31868.773
652.508;23554.773;   -9.171;33121.551
653.086;27394.793;   -9.371;33564.793
653.663;30491.537;  -13.161;34054.668
654.241;29218.371;  -13.031;35693.309
654.819;30718.541;   -9.371;36422.906
655.397;30600.389;  -10.511;38213.484
655.975;29985.002;  -10.371;39507.625
656.553;29655.584;  -10.051;39498.223
657.130;28376.359;  -10.061;40395.480
657.708;27720.000;   -9.561;39242.020
658.286;27829.135;  -11.511;38920.020
658.863;28992.857;  -10.261;40202.898
659.441;32199.766;   -7.531;39677.938
660.018;32196.846;   -9.501;40413.355
660.596;30851.742;  -13.301;39931.414
661.173;32507.469;  -11.211;39604.531
661.750;33067.531;   -9.951;39700.070
662.328;31832.955;   -9.390;39292.809
662.905;30717.844;  -11.330;38235.648
663.482;26495.598;   -9.050;36212.305
664.060;24456.371;   -8.240;35944.945
664.637;27345.783;  -10.050;35170.785
665.214;28774.496;  -11.760;34197.523
665.791;30431.680;  -10.530;34549.520
666.368;29875.014;   -9.690;35118.578
666.945;30261.260;   -9.320;36019.418
667.522;31653.447;  -11.860;36048.438
668.099;31418.887;  -10.770;36243.914
668.676;30072.217;   -6.260;35958.875
669.253;28826.754;   -7.000;37384.730
669.830;29078.004;  -10.190;36779.629
670.407;28976.326;   -9.550;35231.289
670.984;28806.225;   -9.260;35544.270
671.560;29602.426;   -9.280;35466.867
672.137;28994.656;  -11.810;34280.863
672.714;30078.320;  -11.490;34632.863
673.290;31422.145;   -7.740;35135.422
673.867;31311.723;  -10.660;36114.480
674.443;31160.244;  -12.230;36152.859
675.020;29212.754;  -10.450;35327.238
675.596;30113.924;   -9.260;35795.176
676.173;30770.826;  -10.780;35430.355
676.749;30246.416;  -13.690;33549.516
677.326;29873.246;  -11.980;32210.012
677.902;29661.775;   -8.630;32068.871
678.478;29057.104;  -10.730;32583.891
679.054;28163.240;  -10.520;32088.928
679.631;28585.541;  -11.920;30978.848
680.207;30086.320;   -7.490;33160.887
680.783;31695.490;   -9.860;35570.363
681.359;30904.281;  -13.380;36125.184
681.935;30648.938;  -12.480;35240.922
682.511;30404.357;   -7.900;34429.961
683.087;30644.746;   -7.710;34463.680
683.663;29901.148;  -11.480;34648.898
684.239;28480.672;  -14.090;34546.457
684.815;27728.652;   -7.560;35586.375
685.390;27697.162;   -9.910;35821.895
685.966;28295.168;  -11.159;35085.871
686.542;30899.594;  -11.169;34198.230
687.118;33283.793;   -5.959;32847.707
687.693;33775.844;  -10.329;32794.027
688.269;33537.348;  -12.059;33072.367
688.844;31785.340;  -10.909;33141.664
689.420;29799.895;   -8.019;33965.742
689.995;28042.859;   -8.399;34655.523
690.571;26716.414;  -10.949;33576.742
691.146;26686.176;   -9.619;32657.219
691.722;26495.736;   -8.999;32526.979
692.297;26097.342;  -11.589;33014.617
692.872;27361.209;  -11.739;34012.254
693.448;27146.627;  -11.059;34237.434
694.023;26104.098;  -10.139;34142.672
694.598;28045.930;   -9.029;34132.031
695.173;28904.705;  -13.319;34205.250
695.748;27956.975;  -10.169;32882.488
696.323;27911.570;   -8.339;32864.906
696.898;28098.465;   -8.169;33170.004
697.473;28140.748;  -12.309;32432.984
698.048;27355.018;  -10.989;31649.303
698.623;27006.320;   -9.329;30778.141
699.198;28459.359;   -9.849;31140.119
699.773;29935.811;  -12.329;31764.299
700.348;28764.588;  -10.389;31780.816
700.922;28645.416;   -9.269;32046.375
701.497;29608.348;   -9.329;32603.574
702.072;29849.848;  -10.789;34799.871
702.646;28496.328;  -10.839;35793.172
703.221;26337.582;   -9.099;35201.590
703.795;28279.629;  -10.939;34764.527
704.370;28835.635;  -12.859;34307.367
704.944;28838.916;  -11.559;33509.887
705.519;29371.197;   -7.939;31388.584
706.093;30607.137;  -10.499;31340.104
706.668;31171.207;  -11.289;32630.281
707.242;30106.783;  -11.509;32728.779
707.816;28866.623;   -9.639;32947.238
708.390;27406.447;  -11.429;33277.855
708.965;27702.750;  -11.869;33834.336
709.539;27500.650;  -11.689;33709.273
710.113;27594.008;  -10.478;33044.313
710.687;27225.326;  -10.228;31953.992
711.261;25888.557;  -13.698;30505.949
711.835;25857.938;  -13.378;30262.369
712.409;26203.211;   -9.698;31254.447
712.983;28116.350;  -11.898;32754.986
713.557;29469.033;  -15.138;34018.824
714.131;29324.734;  -14.098;34579.625
714.704;28182.920;   -9.958;33890.262
715.278;25654.293;  -10.028;33531.102
715.852;24386.625;  -11.148;33601.660
716.425;25472.428;   -9.068;33515.117
716.999;26564.527;  -10.038;33185.555
717.573;27371.688;   -9.798;33905.996
718.146;28360.271;  -12.378;35199.293
718.720;28504.592;  -11.918;35060.551
719.293;28385.059;   -8.088;34973.230
719.867;31277.328;  -10.888;36394.449
720.440;31204.824;  -11.938;36663.008
721.013;29461.080;  -12.818;35102.426
721.587;27813.197;  -10.298;33985.266
722.160;26578.967;  -10.048;33524.965
722.733;25594.230;  -12.108;32987.043
723.306;25860.404;  -10.818;33066.301
723.880;27996.648;   -8.908;33399.500
724.453;30322.113;   -9.878;33468.297
725.026;29638.326;  -11.188;33816.637
725.599;26817.535;  -11.678;32797.996
726.172;26601.662;   -9.618;33187.434
726.745;27470.930;   -8.258;35136.613
727.318;28644.541;  -12.978;35751.730
727.891;29475.264;  -12.148;35890.430
728.463;29120.707;   -8.968;34822.090
729.036;27727.875;  -10.188;32895.086
729.609;28163.570;  -11.788;31823.225
730.182;25475.379;  -11.788;31445.283
730.754;23201.631;  -10.268;32373.223
731.327;23560.182;   -9.998;33676.820
731.900;23936.678;  -12.228;33417.000
732.472;24687.092;  -13.848;31978.498
733.045;26268.893;   -8.698;30368.777
733.617;26264.129;  -10.607;30574.215
734.190;26515.211;  -11.507;31280.975
734.762;24336.111;  -13.647;31674.412
735.334;22396.551;   -9.767;31247.291
735.907;22606.266;   -9.897;29876.211
736.479;22849.510;  -11.637;29808.488
737.051;22648.234;   -9.567;30233.547
737.623;23214.916;   -8.187;31469.086
738.195;23489.096;  -11.187;31784.225
738.768;25498.906;  -12.337;32120.523
739.340;26507.980;  -12.227;32094.342
739.912;25666.516;  -11.057;31312.680
740.484;24223.689;  -10.207;31946.238
741.056;22623.334;  -10.047;32984.059
741.628;23811.076;  -13.627;33897.715
742.199;25938.559;   -7.177;33213.016
742.771;24597.162;  -10.797;31369.113
743.343;22560.750;  -11.997;31865.473
743.915;21635.314;  -12.867;32388.631
744.487;21649.516;   -7.617;31079.568
745.058;21723.236;   -9.557;30570.107
745.630;22286.896;   -9.877;29970.127
746.201;23627.475;  -14.177;29186.766
746.773;24573.441;   -9.237;28805.723
747.344;24321.375;   -9.847;29591.223
747.916;22375.330;  -11.657;31412.201
748.487;22184.113;  -10.587;32194.898
749.059;23471.814;   -8.707;32533.719
749.630;24291.508;  -10.537;32158.518
750.201;23504.527;  -11.687;30855.395
750.773;21775.707;  -11.647;28622.555
751.344;21414.289;   -7.147;28405.732
751.915;22341.326;   -9.757;28461.551
752.486;22599.189;  -12.427;27842.850
753.057;20560.926;  -12.227;27845.008
753.628;19283.777;  -10.417;27728.107
754.199;20121.762;  -11.767;27381.086
754.770;21082.371;  -11.187;25882.203
755.341;21251.576;  -10.507;25886.184
755.912;21553.617;   -9.387;26050.861
756.483;21210.600;  -10.647;26798.779
757.054;19496.240;  -11.837;27048.238
757.625;18076.309;  -12.716;26294.838
758.195;17805.699;   -9.666;26142.076
758.766;17456.199;   -8.656;26392.234
759.337;17985.066;  -12.856;26334.594
759.907;19341.645;  -13.366;27579.652
760.478;20262.912;   -8.576;28352.770
761.048;19892.139;  -10.526;27325.088
761.619;18983.469;  -11.116;26460.428
762.189;19031.578;  -12.136;26029.826
762.760;19912.477;   -9.456;26430.145
763.330;21047.051;   -7.136;26670.902
763.900;20718.846;  -11.786;26603.021
764.471;18377.484;  -11.546;25542.740
765.041;16980.684;   -8.096;24358.459
765.611;16730.438;   -8.876;23991.297
766.181;16986.336;  -12.196;24470.236
766.751;18167.525;  -11.636;24845.975
767.321;18057.254;  -10.156;24533.633
767.891;16041.001;  -11.766;24916.492
768.461;15372.059;  -14.936;24776.771
769.031;15848.365;  -12.356;24757.988
769.601;17569.688;   -7.526;24181.088
770.171;17768.717;  -10.766;23670.387
770.741;16849.789;  -13.176;22960.045
771.311;16820.002;  -10.616;22917.523
771.880;17397.172;   -9.576;23562.941
772.450;17363.324;  -10.336;24216.500
773.020;17328.486;  -13.516;24140.398
773.589;16496.719;  -13.466;24414.857
774.159;15772.470;   -8.686;23858.717
774.729;15355.301;   -9.476;22942.135
775.298;15010.512;  -13.666;22324.033
775.867;14583.993;  -11.716;21140.313
776.437;14763.423;   -9.906;20838.092
777.006;14570.183;  -12.166;20599.510
777.576;14222.193;  -12.356;20508.809
778.145;14107.196;  -11.646;20732.947
778.714;14131.588;   -8.226;21062.465
779.283;13666.050;   -9.556;20949.664
779.853;13147.868;  -14.116;20508.623
780.422;13541.884;  -11.506;20649.082
780.991;13123.168;   -9.556;21527.520
781.560;11827.206;   -9.095;22632.658
782.129;11584.645;  -12.135;23048.277
782.698;11591.684;  -10.865;23438.555
783.267;11212.605;   -9.335;23267.734
783.836;11149.214;  -11.045;22415.133
784.404;12143.958;  -13.865;20443.152
784.973;12838.398;  -13.095;19699.150
785.542;12886.747;  -11.575;19763.828
786.111;12663.010;   -9.705;20341.408
786.679;12175.815;  -12.105;20207.967
787.248;11942.077;  -12.455;19516.465
787.817;11781.938;  -11.535;18900.363
788.385;11442.150;   -9.765;17879.121
788.954;10905.215;  -14.005;17658.301
789.522;10298.528;  -11.955;17788.879
790.090;10699.217;  -10.135;18118.277
790.659;11286.757;  -10.975;18338.736
791.227;10898.012;  -13.375;18508.615
791.795;11236.703;  -12.375;17898.254
792.364;11557.389;  -10.725;17295.133
792.932;11945.233;   -9.715;16822.051
793.500;12239.133;  -12.675;17040.148
794.068;12456.510;  -13.495;17179.787
794.636;12628.713;  -10.885;16664.246
795.204;11912.307;  -11.045;16524.545
795.772;11874.857;  -13.175;17274.564
796.340;11452.481;  -12.445;17891.002
796.908;11221.798;   -9.735;17648.561
797.476;11059.785;   -9.815;17064.080
798.044;10603.056;  -13.985;16672.777
798.612; 9872.291;  -13.115;17023.996
799.180; 9504.860;  -10.185;16561.615
799.747; 9346.118;   -9.055;15962.773
800.315; 9075.291;  -12.385;15296.992
800.883; 8886.657;  -15.035;14801.771
801.450; 9093.150;  -10.365;14534.430
802.018; 9228.163;   -9.855;14173.248
802.585; 9219.589;  -11.905;14029.547
803.153; 9178.252;  -11.585;13836.846
803.720; 8983.906;   -9.095;13567.324
804.287; 8479.494;   -9.135;13360.622
804.855; 7991.067;  -11.604;13681.981
805.422; 7877.682;  -11.794;13536.560
805.989; 7981.321;  -10.734;13355.958
806.556; 8203.521;  -10.444;13747.896
807.124; 8445.958;  -12.764;13987.376
807.691; 8401.924;  -12.964;14038.674
808.258; 8218.647;  -11.134;14120.152
808.825; 7876.305;   -9.854;13860.111
809.392; 7975.414;  -10.504;13268.790
809.959; 7545.949;  -13.054;12680.389
810.526; 7051.525;   -8.294;12427.308
811.093; 7005.726;   -8.394;12030.105
811.659; 7596.767;  -12.304;11653.664
812.226; 8156.508;  -13.944;11637.183
812.793; 7912.808;  -10.484;11611.521
813.360; 7300.009;  -10.144;11885.181
813.926; 6998.007;  -11.684;12770.539
814.493; 6810.957;  -13.644;12677.638
815.060; 6438.848;   -9.724;11974.336
815.626; 6351.884;   -9.854;11594.715
816.193; 6683.208;  -13.254;11579.474
816.759; 6729.374;  -13.204;11666.972
817.325; 6745.907;   -9.434;11325.530
817.892; 7058.807;  -10.134;11105.369
818.458; 7481.511;  -13.474;10843.928
819.024; 7160.376;  -11.854;10714.406
819.591; 6885.012;  -10.244;10469.165
820.157; 6705.654;  -10.704;10235.523
820.723; 6222.204;  -12.324;10847.563
821.289; 5918.846;   -9.444;11040.980
821.855; 5864.326;   -8.374;10357.100
822.421; 5838.001;  -10.234; 9978.918
822.987; 5789.302;  -13.294; 9754.177
823.553; 5407.458;  -10.884;10065.755
824.119; 5197.307;   -8.884;10036.294
824.685; 5348.202;   -6.784;10029.192
825.251; 5481.956;  -12.004;10199.230
825.816; 5417.780;  -11.474; 9820.189
826.382; 5125.927;   -9.174; 9297.248
826.948; 5235.266;   -9.214; 9381.347
827.513; 5632.980;  -10.774; 9450.726
828.079; 5521.300;  -11.924; 9472.444
828.645; 4946.758;  -10.543; 9292.643
829.210; 4754.949;  -10.533; 9065.341
829.776; 4722.418;  -10.753; 9132.620
830.341; 4616.711;  -10.173; 9092.878
830.906; 4760.515;  -10.743; 9078.557
831.472; 5090.545;  -11.113; 8534.535
832.037; 4931.701;  -10.603; 8677.874
832.602; 4453.610;  -13.323; 8628.692
833.167; 4212.431;  -10.823; 8879.031
833.733; 4149.879;  -10.113; 9189.790
834.298; 4269.518;  -13.583; 9052.608
834.863; 4401.956;  -12.703; 8895.087
835.428; 4419.944;  -10.523; 8824.266
835.993; 4266.735;   -6.963; 8845.385
836.558; 4085.134;  -10.763; 8888.563
837.123; 4147.507;   -9.903; 8966.582
837.688; 4390.271;   -9.913; 8617.860
838.253; 4640.578;  -10.283; 8590.699
838.817; 4822.664;  -12.963; 8443.797
839.382; 4762.790;  -14.243; 8799.356
839.947; 4466.608;  -10.733; 8810.595
840.511; 4165.183;   -9.383; 8796.394
841.076; 3791.519;  -12.563; 8347.231
841.641; 3823.333;  -12.953; 8224.330
842.205; 3917.967;   -7.043; 8223.349
842.770; 3944.205;   -8.163; 8622.107
843.334; 4069.262;  -12.503; 8410.386
843.898; 4032.895;  -11.693; 8337.465
844.463; 4032.847;  -10.203; 8506.283
845.027; 3843.943;   -9.533; 8280.962
845.591; 3674.461;  -13.443; 8231.141
846.156; 3684.496;  -13.143; 7969.179
846.720; 3598.505;   -9.433; 7768.278
847.284; 3488.241;  -11.033; 7630.957
847.848; 3352.644;  -10.403; 7472.395
848.412; 3261.161;  -11.553; 7437.394
848.976; 3308.283;   -8.393; 7674.592
849.540; 3230.633;   -8.713; 7836.011
850.104; 3269.882;  -12.463; 7913.669
850.668; 3615.992;  -12.973; 7694.508
851.232; 3785.731;  -10.793; 7756.887
851.796; 3657.415;  -10.662; 7926.545
852.359; 3349.739;  -13.082; 7827.844
852.923; 3169.223;  -12.192; 7641.163
853.487; 3023.604;  -11.912; 7342.501
854.050; 3010.560;  -10.892; 7042.820
854.614; 3159.961;  -13.992; 7151.338
855.177; 3273.762;  -11.732; 7105.077
855.741; 3309.659;   -8.962; 6989.675
856.304; 3208.146;   -9.442; 6596.634
856.868; 3186.179;  -14.192; 6356.272
857.431; 3293.260;  -12.702; 6468.571
857.995; 3420.281;   -9.942; 6373.210
858.558; 3450.389;   -9.112; 6324.448
859.121; 3187.229;  -12.932; 6408.327
859.684; 3006.976;  -13.442; 6347.886
860.247; 3100.567;  -10.632; 6321.264
860.810; 3138.566;  -11.272; 6301.903
861.374; 2904.317;   -9.832; 6607.881
861.937; 2644.717;  -11.762; 6408.200
862.500; 2633.206;   -9.722; 6572.639
863.062; 2780.535;  -10.512; 6387.297
863.625; 2916.159;  -11.232; 6190.836
864.188; 3068.565;  -14.112; 5807.254
864.751; 3156.280;  -11.302; 5682.413
865.314; 3083.926;  -10.112; 5547.492
865.876; 2867.540;  -12.182; 5500.150
866.439; 2822.917;  -10.722; 5415.909
867.002; 2785.407;   -9.252; 5501.567
867.564; 2599.922;   -9.572; 5413.946
868.127; 2400.474;  -13.142; 5160.325
868.689; 2283.807;  -12.902; 5133.183
869.252; 2178.138;   -9.732; 5252.382
869.814; 2080.278;   -9.432; 5297.141
870.377; 2079.252;  -11.552; 5390.919
870.939; 2140.467;   -9.052; 5599.898
871.501; 2217.149;  -10.982; 5248.336
872.063; 2234.828;  -12.292; 4854.235
872.626; 2172.574;  -14.912; 4817.074
873.188; 2161.762;  -13.112; 4987.732
873.750; 2136.905;  -13.442; 4868.651
874.312; 2047.701;   -9.402; 4779.330
874.874; 1965.524;  -11.062; 4866.348
875.436; 1890.213;  -13.931; 4718.887
875.998; 1885.470;   -9.561; 4660.005
876.560; 1909.686;  -11.321; 4462.964
877.122; 1850.321;  -12.221; 4145.042
877.683; 1749.510;  -12.191; 4056.481
878.245; 1675.037;  -12.101; 3950.740
878.807; 1712.182;   -8.971; 4058.958
879.369; 1732.453;  -12.071; 3954.677
879.930; 1644.177;  -14.621; 3941.495
880.492; 1580.285;  -10.311; 4067.014
881.053; 1551.687;  -10.901; 3859.633
881.615; 1459.626;  -14.411; 3776.071
882.176; 1366.894;  -13.761; 3734.750
882.738; 1315.961;   -9.181; 3678.489
883.299; 1290.031;  -11.791; 3405.407
883.860; 1273.265;  -13.121; 3351.106
884.422; 1258.144;  -11.211; 3394.044
884.983; 1219.167;  -10.091; 3166.443
885.544; 1154.638;   -8.461; 3189.802
886.105; 1085.285;  -12.361; 3160.360
886.666; 1021.332;  -14.141; 3093.059
887.227;  961.328;  -11.361; 2941.957
887.788;  899.907;  -11.401; 2974.836
888.349;  832.501;  -13.791; 2721.214
888.910;  823.823;  -13.191; 2696.493
889.471;  827.432;   -9.881; 2560.172
890.032;  809.247;   -9.881; 2558.190
890.593;  783.433;  -10.371; 2567.669
891.153;  756.644;  -13.301; 2460.307
891.714;  713.155;  -11.431; 2372.046
892.275;  680.609;  -11.291; 2309.505
892.835;  651.309;  -11.471; 2382.543
893.396;  603.247;  -11.541; 2295.502
893.956;  548.307;  -11.181; 2162.420
894.517;  507.470;  -11.741; 2125.439
895.077;  498.508;  -11.671; 2086.978
895.638;  501.144;  -11.311; 2126.316
896.198;  472.969;   -9.831; 1838.275
896.758;  432.010;   -8.421; 1892.813
897.319;  402.647;  -12.351; 1792.232
897.879;  387.913;  -13.511; 1762.751
898.439;  365.574;  -12.001; 1661.149
898.999;  341.133;  -10.180; 1781.468
899.559;  330.455;  -12.030; 1703.347
900.119;  325.612;  -15.710; 1537.525
900.679;  322.094;   -8.900; 1638.384
901.239;  307.477;   -8.340; 1527.902
901.799;  298.000;  -13.910; 1456.441
902.359;  291.658;  -13.460; 1357.140
902.919;  284.973;  -11.490; 1331.118
903.479;  273.922;  -12.110; 1317.257
904.038;  253.533;  -11.720; 1262.595
904.598;  239.410;  -13.610; 1152.034
905.158;  234.614;  -11.040; 1240.893
905.717;  229.336;  -10.900; 1233.691
906.277;  219.005;  -15.080; 1217.330
906.836;  209.801;  -13.380; 1222.408
907.396;  202.166;  -10.780; 1193.047
907.955;  194.957;   -8.500; 1182.526
908.515;  189.154;  -12.760; 1099.364
909.074;  183.222;  -11.900; 1092.863
909.633;  177.929;   -8.950; 1069.121
910.192;  173.831;   -8.770; 1196.460
910.752;  167.769;  -12.390; 1029.960
911.311;  164.282;  -13.680; 1009.780
911.870;  161.632;  -12.370;  971.460
912.429;  162.082;  -10.900; 1094.080
912.988;  161.411;  -11.690; 1081.060
913.547;  156.960;  -13.240;  940.380
914.106;  152.998;  -11.990;  999.420
914.665;  149.522;   -9.990;  984.020
915.224;  148.574;  -12.880; 1035.760
915.782;  148.780;  -12.350;  922.560
916.341;  148.675;   -9.110; 1049.840
916.900;  143.769;   -9.270;  925.260
917.458;  142.544;  -13.240;  884.220
918.017;  141.533;  -13.550;  942.600
918.576;  141.463;  -12.320;  904.440
919.134;  139.359;  -11.490;  837.980
919.693;  137.626;  -13.670;  893.060
920.251;  136.574;  -15.470;  876.500
920.809;  135.393;  -11.290;  839.580
921.368;  135.794;  -10.210;  885.360
921.926;  134.496;  -12.140;  842.940
922.484;  133.635;  -13.080;  903.360
923.042;  132.976;  -11.720;  880.340
923.601;  135.337;   -7.480;  998.680
924.159;  133.978;  -11.570;  935.560
924.717;  130.380;  -13.840;  841.080
925.275;  129.940;  -10.640;  903.240
925.833;  129.797;  -11.540;  779.320
926.391;  130.845;  -12.960;  938.380
926.949;  129.090;  -14.130;  857.680
927.506;  129.475;  -11.750;  903.500
928.064;  130.013;  -10.250;  877.580
928.622;  129.524;  -13.030;  880.100
929.180;  128.826;  -13.400;  814.180
929.737;  129.959;  -10.700;  808.540
930.295;  132.753;  -10.070;  928.480
930.853;  134.695;  -11.960;  849.100
931.410;  134.780;  -13.120;  821.120
931.968;  134.560;  -10.770;  940.660
932.525;  133.864;  -10.680;  909.380
933.082;  134.491;  -13.130;  811.440
933.640;  136.263;  -13.210;  925.900
934.197;  134.151;  -11.060;  886.360
934.754;  134.735;   -9.580;  897.780
935.312;  137.651;  -14.000;  863.340
935.869;  141.634;  -10.710; 1012.980
936.426;  141.570;   -9.860;  872.800
936.983;  143.111;   -9.710;  889.020
937.540;  143.312;  -13.990;  838.280
938.097;  142.198;  -14.040;  940.120
938.654;  141.832;  -10.310;  898.860
939.211;  144.585;  -10.560;  952.480
939.768;  147.491;  -13.900;  915.420
940.324;  150.381;  -14.760;  904.200
940.881;  152.357;  -10.370;  878.500
941.438;  154.266;   -8.260; 1021.200
941.995;  150.877;  -12.540;  992.560
942.551;  146.876;  -14.670;  875.620
943.108;  146.330;  -10.450;  937.920
943.664;  148.772;  -10.750;  869.340
944.221;  152.050;  -11.550; 1088.140
944.777;  149.192;  -14.770;  869.680
945.334;  149.494;  -12.820;  884.840
945.890;  150.338;  -10.130;  946.480
946.446;  151.572;  -13.470;  947.020
947.003;  153.419;  -12.120;  964.940
947.559;  156.035;   -9.980; 1063.040
948.115;  155.400;   -9.080; 1026.540
948.671;  153.358;  -10.830;  967.300
949.227;  149.967;  -12.440;  859.560
949.783;  148.589;  -12.910;  858.900
950.339;  149.957;  -10.270;  991.000
950.895;  150.590;  -13.630; 1023.840
951.451;  150.110;  -15.100;  925.280
952.007;  149.326;  -11.330;  998.540
952.563;  148.920;  -10.580;  937.780
953.118;  147.067;  -13.440;  904.940
953.674;  146.602;  -12.710;  935.780
954.230;  146.487;  -10.350;  949.640
954.785;  145.086;   -9.190;  936.640
955.341;  142.809;  -11.200;  998.160
955.897;  141.492;  -16.560;  834.660
956.452;  143.379;  -12.570;  953.840
957.008;  143.139;   -7.970; 1083.640
957.563;  141.045;  -11.940; 1009.540
958.118;  134.333;  -13.450;  877.700
958.674;  135.623;  -12.030;  946.780
959.229;  137.044;   -9.410; 1013.980
959.784;  134.632;  -12.000;  832.400
960.339;  133.787;  -14.780; 1001.280
960.894;  130.856;   -9.860;  963.760
961.449;  127.695;   -9.970;  859.960
962.004;  127.488;  -10.900; 1212.840
962.559;  121.914;  -13.150;  860.140
963.114;  119.316;  -13.740;  742.480
963.669;  118.796;   -9.820;  915.500
964.224;  117.766;  -13.890;  874.340
964.779;  116.187;  -12.600;  828.420
965.334;  117.142;  -10.950; 1017.860
965.888;  116.297;  -11.170;  875.360
966.443;  119.396;  -12.540;  972.380
966.998;  117.916;  -15.780;  819.460
967.552;  117.824;   -9.760;  908.380
968.107;  113.762;   -9.060;  868.300
968.661;  115.168;  -11.950;  922.440
969.216;  115.891;  -12.800;  856.280
969.770;  115.894;  -11.210;  917.200
970.324;  114.381;  -11.610;  923.140
970.879;  112.091;  -11.370;  947.180
971.433;  108.186;  -12.540;  952.720
971.987;  103.836;  -11.320;  895.340
972.541;  100.601;  -10.720;  917.100
973.095;  100.477;   -9.680; 1009.460
973.649;   98.800;  -11.440;  809.480
974.203;   97.852;  -11.210;  829.040
974.757;   97.953;  -10.240;  855.220
975.311;   98.476;  -13.720;  872.600
975.865;   97.507;  -13.770;  881.820
976.419;   96.443;  -11.690;  857.400
976.973;   95.910;   -9.510;  849.620
977.526;   97.427;  -12.620;  949.920
978.080;   96.154;  -12.010;  796.780
978.634;   97.150;  -10.170;  921.320
979.187;   96.151;   -9.020;  905.400
979.741;   92.924;   -9.820; 1018.380
980.294;   89.275;  -14.870;  789.160
980.848;   86.643;  -12.380;  717.220
981.401;   88.162;  -10.350;  816.540
981.955;   90.737;  -13.720;  844.300
982.508;   89.784;  -11.490;  746.340
983.061;   89.865;  -10.000;  915.260
983.615;   86.069;  -11.480;  798.800
984.168;   83.322;  -13.220;  770.080
984.721;   82.971;  -13.960;  880.760
985.274;   81.764;  -10.870;  867.500
985.827;   79.659;   -9.790;  834.220
986.380;   78.646;  -13.120;  721.340
986.933;   77.283;  -12.450;  864.800
987.486;   75.957;  -10.210;  861.920
988.039;   74.988;   -8.430;  863.100
988.591;   73.103;  -10.520;  893.260
989.144;   70.719;  -14.860;  737.260
989.697;   70.089;  -13.080;  758.740
990.250;   70.296;  -10.150;  858.100
990.802;   69.193;  -13.430;  755.860
991.355;   69.711;  -12.750;  974.880
991.907;   67.716;  -12.040;  864.320
992.460;   65.722;  -11.330;  753.760
993.012;   65.169;  -13.610;  749.540
993.565;   63.987;  -13.460;  711.360
994.117;   66.109;   -9.360;  950.780
994.669;   62.460;  -11.300;  701.320
995.221;   61.020;  -13.540;  791.920
995.774;   58.595;  -13.430;  787.580
996.326;   57.763;  -12.520;  740.220
996.878;   57.341;  -10.950;  838.420
997.430;   55.080;  -14.300;  699.860
997.982;   54.148;  -13.760;  750.140
998.534;   54.008;  -11.530;  739.060
999.086;   52.580;  -10.310;  738.220
999.638;   50.875;  -12.530;  661.380
1000.190;   50.999;  -11.840;  699.320
1000.741;   50.111;  -10.260;  742.700
1001.293;   50.189;   -8.860;  686.020
1001.845;   48.668;  -13.700;  676.640
1002.396;   48.284;  -12.100;  743.400
1002.948;   48.225;  -12.760;  737.400
1003.500;   46.093;  -10.380;  723.780
1004.051;   47.346;  -11.900;  907.580
1004.603;   45.282;  -12.250;  791.820
1005.154;   42.045;  -13.210;  608.980
1005.705;   41.783;  -10.950;  723.960
1006.257;   40.910;  -13.880;  707.220
1006.808;   40.390;  -12.840;  685.460
1007.359;   39.972;  -10.570;  763.240
1007.910;   38.569;   -9.620;  646.640
1008.461;   38.692;  -13.630;  732.940
1009.013;   37.036;  -17.200;  588.340
1009.564;   38.858;  -10.200;  793.520
1010.115;   36.576;  -12.570;  597.040
1010.665;   35.262;  -15.150;  602.160
1011.216;   36.057;  -14.480;  667.920
1011.767;   35.924;  -11.340;  697.920
1012.318;   34.958;   -9.780;  736.980
1012.869;   34.680;  -12.380;  679.000
1013.419;   34.225;  -15.560;  603.120
1013.970;   34.414;  -11.010;  666.640
1014.521;   34.334;  -11.610;  620.620
1015.071;   34.511;  -13.450;  670.380
1015.622;   33.442;  -13.870;  635.460
1016.172;   33.121;  -11.610;  596.820
1016.723;   32.884;  -12.120;  614.380
1017.273;   32.511;  -13.620;  604.160
1017.823;   32.416;  -14.140;  650.340
1018.374;   32.179;  -12.800;  611.760
1018.924;   32.210;  -12.340;  716.880
1019.474;   32.198;  -11.410;  718.880
1020.024;   30.672;  -14.770;  657.580
1020.574;   32.263;   -9.780;  726.160
1021.124;   31.225;   -8.560;  673.580
1021.674;   30.758;  -15.190;  559.120
1022.224;   31.573;  -13.530;  708.940
1022.774;   31.001;  -13.280;  668.820
1023.324;   31.240;  -10.690;  753.520
1023.874;   32.413;  -10.240;  875.760
1024.423;   30.349;  -12.540;  613.700
1024.973;   30.046;  -10.010;  610.760
1025.523;   29.786;  -10.550;  620.960
1026.072;   28.375;  -13.560;  606.420
1026.622;   28.957;  -15.120;  675.740
1027.172;   30.239;  -11.260;  715.660
1027.721;   28.551;  -11.410;  601.220
1028.270;   29.394;  -13.530;  663.400
1028.820;   28.264;  -13.680;  638.080
1029.369;   28.318;  -13.520;  612.700
1029.918;   28.258;  -10.980;  649.840
1030.468;   27.640;  -13.530;  564.780
1031.017;   28.040;  -13.170;  634.800
1031.566;   26.539;  -12.200;  608.900
1032.115;   27.590;   -9.960;  694.500
1032.664;   26.560;  -13.210;  596.480
1033.213;   27.090;  -12.500;  735.420
1033.762;   26.975;  -11.910;  635.620
1034.311;   26.415;   -9.640;  677.220
1034.860;   26.833;  -13.310;  691.000
1035.408;   26.907;  -11.830;  722.720
1035.957;   26.975;  -12.000;  719.540
1036.506;   24.189;  -11.690;  530.800
1037.055;   27.265;  -10.990;  844.320
1037.603;   25.672;  -15.120;  664.000
1038.152;   23.763;  -12.450;  534.760
1038.700;   24.686;  -10.560;  585.740
1039.249;   25.022;  -11.080;  681.220
1039.797;   24.743;  -12.540;  633.360
1040.345;   24.794;  -11.920;  705.420
1040.894;   24.358;  -11.410;  625.300
1041.442;   24.488;  -14.320;  632.200
1041.990;   23.019;  -16.240;  559.160
1042.538;   22.543;  -11.680;  536.180
1043.087;   22.823;  -10.760;  570.860
1043.635;   24.612;  -11.850;  670.500
1044.183;   22.635;  -15.480;  586.400
1044.731;   23.091;  -11.770;  576.000
1045.279;   22.644;  -13.090;  674.920
1045.827;   23.558;  -12.440;  892.400
1046.374;   22.088;  -13.840;  515.420
1046.922;   21.096;  -13.220;  590.580
1047.470;   22.625;  -10.230;  691.300
1048.018;   22.679;  -14.590;  647.960
1048.565;   22.883;  -12.050;  708.600
1049.113;   21.105;  -11.650;  557.000
1049.660;   21.364;  -10.510;  629.660
1050.208;   21.421;  -13.310;  675.640
1050.755;   20.484;  -15.900;  606.580
1051.303;   21.767;  -11.430;  686.820
1051.850;   20.435;   -8.480;  635.120
1052.397;   18.835;  -15.010;  473.960
1052.945;   19.925;  -13.960;  617.760
1053.492;   21.576;  -13.150;  741.840
1054.039;   21.246;   -9.630;  720.180
1054.586;   19.918;  -13.680;  557.240
1055.133;   20.796;  -14.570;  693.140
1055.680;   20.434;  -13.820;  646.620
1056.227;   19.497;  -11.730;  542.780
1056.774;   21.101;  -12.480;  794.980
1057.321;   19.105;  -13.930;  523.260
1057.868;   19.380;  -11.690;  651.320
1058.415;   19.312;   -9.520;  651.980
1058.961;   19.091;  -13.160;  678.940
1059.508;   19.274;  -12.920;  643.820
1060.055;   18.934;  -11.920;  581.780
1060.601;   19.136;  -11.500;  624.300
1061.148;   18.519;  -14.330;  616.820
1061.694;   17.810;  -16.870;  592.580
1062.241;   18.635;  -10.330;  596.320
1062.787;   17.940;  -10.620;  663.140
1063.334;   20.002;  -10.110;  808.560
1063.880;   17.831;  -13.400;  668.360
1064.426;   18.410;  -10.680;  706.820
1064.972;   17.439;   -9.920;  601.340
1065.518;   16.140;  -10.980;  566.640
1066.065;   18.216;  -14.890;  624.460
1066.611;   16.844;  -12.870;  598.800
1067.157;   17.189;  -12.950;  641.860
1067.703;   17.587;  -13.540;  668.480
1068.249;   17.370;  -13.540;  605.220
1068.794;   16.734;  -12.600;  626.880
1069.340;   16.422;  -10.620;  578.960
1069.886;   17.288;  -12.830;  590.700
1070.432;   15.368;  -14.870;  541.720
1070.977;   15.837;  -11.980;  601.080
1071.523;   16.033;   -8.200;  573.060
1072.068;   16.473;  -12.330;  582.000
1072.614;   15.296;  -16.370;  527.760
1073.160;   16.472;  -11.100;  687.040
1073.705;   14.843;  -10.480;  572.520
1074.250;   14.656;  -14.520;  559.900
1074.796;   16.146;  -11.460;  655.160
1075.341;   16.065;  -11.950;  664.100
1075.886;   15.063;  -11.460;  594.240
1076.431;   14.595;  -13.770;  649.880
1076.976;   13.918;  -12.680;  639.220
1077.521;   14.162;  -13.170;  583.080
1078.067;   13.699;  -10.860;  579.400
1078.612;   14.484;  -13.920;  661.620
1079.156;   13.858;  -13.880;  601.540
1079.701;   15.734;  -13.120;  693.260
1080.246;   14.571;   -9.940;  696.300
1080.791;   14.176;  -14.740;  625.020
1081.336;   13.872;  -13.750;  659.320
1081.880;   14.131;  -13.400;  649.680
1082.425;   12.909;  -12.220;  573.480
1082.970;   14.434;  -11.610;  717.040
1083.514;   12.706;  -13.580;  597.000
1084.059;   12.670;  -12.810;  586.720
1084.603;   12.346;  -12.320;  565.840
1085.147;   13.144;  -13.190;  645.220
1085.692;   14.279;  -12.480;  716.800
1086.236;   12.689;  -13.020;  503.140
1086.780;   13.755;   -9.190;  751.440
1087.325;   13.559;  -12.480;  654.620
1087.869;   12.580;  -12.450;  610.700
1088.413;   13.264;  -12.240;  705.040
1088.957;   11.354;   -9.020;  543.400
1089.501;   13.104;  -10.320;  766.640
1090.045;   12.443;  -12.720;  726.480
1090.589;   10.349;  -13.690;  569.920
1091.133;   12.349;  -10.020;  673.340
1091.676;   11.824;  -12.330;  591.940
1092.220;   12.002;  -14.970;  600.920
1092.764;   12.453;  -12.430;  706.960
1093.307;   11.483;   -9.800;  673.780
1093.851;   10.533;  -14.970;  556.540
1094.395;   11.286;  -15.310;  683.140
1094.938;   11.123;  -10.370;  632.520
1095.482;   11.210;  -11.050;  559.800
1096.025;   12.060;  -11.840;  710.880
1096.568;   11.359;  -12.840;  779.280
1097.112;    9.007;  -14.700;  508.180
1097.655;   11.366;   -8.720;  603.000
1098.198;    9.496;  -13.610;  600.180
1098.741;    9.138;  -13.350;  612.860
1099.285;   10.377;  -11.230;  657.300
1099.828;    8.498;  -11.840;  439.400
1100.371;   10.066;  -10.840;  608.160
1100.914;   10.352;  -14.190;  682.660
1101.457;    9.741;  -11.240;  679.900
1101.999;    9.178;  -11.270;  584.680
1102.542;    9.322;  -11.480;  641.440
1103.085;    9.230;  -11.750;  658.500
1103.628;    9.750;  -11.400;  762.060
1104.170;    8.942;  -10.490;  588.280
1104.713;    9.183;  -10.600;  646.700
1105.256;    9.128;  -14.360;  557.440
1105.798;    7.916;  -13.210;  499.980
1106.341;    9.164;  -10.270;  728.900
1106.883;    8.613;  -12.200;  521.340
1107.425;    8.166;  -13.110;  668.180
1107.968;    8.093;  -12.840;  612.380
1108.510;    8.667;   -6.480;  684.960
1109.052;    6.622;  -13.940;  612.620
1109.594;    7.745;  -13.690;  554.440
1110.136;    9.188;  -11.880;  643.220
1110.679;    7.084;   -9.500;  633.080
1111.221;    8.142;  -14.160;  604.460
1111.763;    7.021;  -13.980;  559.220
1112.304;    6.907;  -13.880;  547.140
1112.846;    7.708;  -12.210;  666.240
1113.388;   10.052;  -11.390;  942.180
1113.930;    7.273;  -14.540;  694.200
1114.472;    7.027;  -12.640;  606.540
1115.013;    5.306;  -11.620;  551.280
1115.555;    6.549;  -13.640;  587.100
1116.097;    4.997;  -15.380;  579.480
1116.638;    7.092;  -12.640;  684.600
1117.180;    6.599;   -9.850;  667.740
1117.721;    6.123;  -13.690;  568.580
1118.262;    7.132;  -12.680;  677.960
1118.804;    7.038;  -12.530;  637.340
1119.345;    5.847;  -11.690;  578.400
1119.886;    7.144;  -13.380;  704.040
1120.427;    5.373;  -14.070;  589.020
1120.969;    5.641;  -13.500;  597.920
1121.510;    4.889;  -11.480;  563.060
1122.051;    5.636;  -12.830;  723.580
1122.592;    5.293;  -14.290;  655.420
1123.133;    5.214;  -12.400;  547.940
1123.673;    6.038;  -10.130;  706.480
1124.214;    5.134;  -12.930;  612.460
1124.755;    5.867;  -14.380;  639.460
1125.296;    5.790;  -14.000;  627.320
1125.836;    6.475;  -10.070;  691.500
1126.377;    4.498;  -12.640;  599.660
1126.918;    5.699;  -12.960;  614.980
1127.458;    4.403;  -13.350;  622.220
1127.999;    4.795;  -10.750;  656.980
1128.539;    5.051;  -12.350;  694.240
1129.079;    4.173;  -14.860;  632.720
1129.620;    3.811;  -13.840;  558.100
1130.160;    3.525;  -12.330;  539.480
1130.700;    5.034;  -14.530;  640.840
1131.240;    5.281;  -12.530;  643.700
1131.781;    4.763;  -14.450;  619.680
1132.321;    4.386;   -9.790;  599.120
1132.861;    2.953;  -14.860;  564.200
1133.401;    2.190;  -14.290;  593.940
1133.941;    3.842;  -11.750;  626.280
1134.481;    3.193;   -9.920;  597.580
1135.020;    2.956;  -12.290;  609.160
1135.560;    3.131;  -11.650;  674.940
1136.100;    2.488;  -16.270;  501.160
1136.640;    2.446;  -10.890;  510.480
1137.179;    2.941;  -14.180;  537.960
1137.719;    2.822;  -16.250;  605.400
1138.258;    2.728;  -14.230;  587.360
1138.798;    4.092;   -9.090;  663.780
1139.337;    1.741;  -15.130;  482.840
1139.877;    2.976;  -13.680;  642.360
1140.416;    5.011;  -11.320;  878.060
1140.955;    1.753;  -10.860;  535.380
1141.494;    2.653;  -12.920;  669.280
1142.034;    2.889;  -13.930;  583.520
1142.573;    3.198;  -11.440;  646.280
1143.112;    1.795;  -12.000;  553.480
1143.651;    1.939;  -13.670;  536.480
1144.190;    3.091;  -12.730;  691.640
1144.729;    2.793;  -14.560;  607.420
1145.267;    2.180;  -11.830;  584.900
1145.806;    3.059;  -12.230;  637.040
1146.345;    1.665;  -14.130;  635.020
1146.884;    1.579;  -11.590;  622.500
1147.422;    1.230;  -12.550;  533.060
1147.961;    2.944;  -11.180;  708.460
1148.500;    2.449;  -11.510;  669.720
1149.038;    2.627;  -11.640;  632.500
1149.577;    2.953;  -10.130;  698.640
1150.115;    0.129;  -13.970;  452.280
1150.653;    1.832;  -14.520;  607.340
1151.192;    0.954;  -12.810;  552.920
1151.730;    1.221;   -9.100;  652.560
1152.268;    0.716;  -12.220;  589.520
1152.806;    0.727;  -14.140;  571.180
1153.344;    0.462;  -12.350;  577.640
1153.882;    0.923;   -8.980;  600.060
1154.421;   -0.722;  -15.190;  470.620
1154.958;    0.191;  -15.210;  595.240
1155.496;    1.585;  -12.850;  645.280
1156.034;    0.728;   -9.940;  721.880
1156.572;    2.027;  -13.570;  667.060
1157.110;   -0.714;  -14.590;  473.940
1157.647;    0.695;  -13.030;  676.960
1158.185;   -0.449;  -12.140;  564.320
1158.723;   -0.908;  -14.390;  509.200
1159.260;    0.520;  -14.090;  701.700
1159.798;    0.378;  -11.920;  658.160
1160.335;    0.213;  -11.110;  631.820

