
Integration time [ms]:   3.276
Averaging Nr. [scans]: 1000
Smoothing Nr. [pixels]: 0
Data measured with spectrometer [name]: 7414430SP
Wave   ;Sample   ;Dark     ;Reference
[nm]   ;[counts] ;[counts] ;[counts] 

288.544;  148.347;    7.793;  793.890
289.143;  152.288;    7.462;  681.602
289.742;  152.804;    8.602;  828.814
290.341;  137.576;    1.321;  789.841
290.940;  125.600;   -0.709;  730.702
291.538;  126.652;    0.881;  881.108
292.137;  127.575;    0.122;  792.581
292.736;  133.039;   -1.929;  975.101
293.335;  129.089;   -8.229;  735.086
293.934;  128.943;   -5.279;  781.677
294.532;  128.298;   -1.369; 1031.958
295.131;  114.368;   -7.641;  834.394
295.730;  114.922;   -8.420;  809.588
296.328;  112.926;   -5.611;  783.442
296.927;  114.310;   -5.781;  779.652
297.525;  115.028;   -6.361;  781.236
298.124;  105.229;  -11.382;  654.009
298.722;  108.630;   -7.641;  761.933
299.321;  106.221;   -6.811;  708.597
299.919;  105.409;   -6.991;  751.918
300.518;  101.994;  -10.362;  689.338
301.116;  103.545;   -9.581;  691.381
301.715;  103.027;   -4.891;  730.222
302.313;  102.612;   -8.801;  704.943
302.911;   97.997;   -8.522;  733.830
303.509;  102.548;   -6.171;  925.627
304.108;  101.124;   -7.311;  760.383
304.706;   99.951;   -8.321;  801.664
305.304;   94.233;  -10.222;  796.707
305.902;   99.674;   -6.021;  784.484
306.500;   96.006;   -4.971;  728.200
307.098;   94.775;   -7.061;  746.560
307.696;   91.697;   -8.801;  780.432
308.294;   92.387;   -6.411;  731.359
308.892;   95.356;   -2.901;  759.769
309.490;   90.394;   -5.041;  712.161
310.088;   89.020;   -5.002;  788.444
310.686;   93.377;   -2.041;  821.749
311.284;   89.657;   -2.351;  766.040
311.882;   87.610;   -4.422;  731.225
312.480;   83.414;   -4.192;  697.167
313.078;   85.487;   -1.172;  808.331
313.675;   86.103;   -2.601;  691.600
314.273;   82.006;   -1.312;  797.837
314.871;   80.056;   -3.942;  589.829
315.468;   78.446;   -2.802;  652.090
316.066;   81.874;   -0.701;  694.427
316.664;   74.244;   -4.362;  656.351
317.261;   77.674;   -2.872;  910.128
317.859;   73.353;   -2.022;  768.735
318.456;   74.350;   -0.531;  830.096
319.054;   70.641;   -3.912;  787.828
319.651;   69.854;   -4.752;  759.928
320.249;   68.022;   -2.602;  810.188
320.846;   65.695;   -0.821;  714.286
321.443;   63.593;   -4.642;  832.135
322.041;   60.833;   -5.002;  812.315
322.638;   57.825;   -3.982;  701.456
323.235;   59.941;   -3.411;  665.683
323.833;   57.310;   -7.361;  740.354
324.430;   51.483;   -8.611;  615.900
325.027;   53.023;   -4.061;  876.855
325.624;   52.528;   -4.031;  644.532
326.221;   50.361;   -7.481;  689.717
326.818;   49.994;   -5.281;  818.332
327.415;   52.728;   -7.460;  748.828
328.012;   52.409;   -5.510;  690.585
328.609;   50.826;   -7.880;  731.389
329.206;   48.636;   -8.331;  778.621
329.803;   48.217;   -5.121;  737.841
330.400;   51.870;   -4.510;  704.260
330.997;   52.759;   -6.441;  817.147
331.594;   52.072;   -8.831;  788.185
332.191;   56.577;   -7.621;  728.722
332.787;   60.773;   -4.591;  844.463
333.384;   59.353;   -7.412;  763.093
333.981;   57.098;   -8.293;  815.687
334.578;   59.826;   -7.052;  708.378
335.174;   63.292;   -3.102;  731.469
335.771;   61.642;   -5.943;  836.456
336.367;   59.020;   -7.393;  710.631
336.964;   62.040;   -4.063;  793.266
337.561;   60.388;   -3.813;  731.112
338.157;   56.441;   -4.654;  911.916
338.754;   53.502;   -7.934;  796.589
339.350;   52.504;   -4.414;  722.493
339.946;   54.509;   -4.664;  773.135
340.543;   46.213;   -6.375;  846.136
341.139;   40.793;   -9.815;  720.836
341.735;   38.133;   -4.526;  772.593
342.332;   37.152;   -4.895;  691.472
342.928;   37.385;   -4.295;  795.394
343.524;   31.636;   -5.476;  761.684
344.120;   28.615;   -5.856;  738.562
344.716;   31.094;   -2.155;  723.717
345.313;   29.277;   -6.275;  795.342
345.909;   24.370;   -8.815;  627.336
346.505;   26.383;   -5.305;  740.247
347.101;   26.219;   -2.674;  827.864
347.697;   27.391;   -4.344;  785.398
348.293;   21.876;   -9.975;  627.244
348.889;   21.473;   -5.774;  745.914
349.485;   21.361;   -5.004;  688.205
350.081;   22.750;   -4.704;  772.592
350.676;   17.630;   -6.635;  691.606
351.272;   21.626;   -4.504;  809.530
351.868;   21.783;   -3.914;  780.497
352.464;   18.863;   -9.044;  723.932
353.059;   15.270;   -8.314;  646.017
353.655;   17.793;   -7.024;  777.063
354.251;   19.746;   -5.343;  759.845
354.846;   14.151;   -8.604;  740.646
355.442;   11.762;   -6.945;  753.071
356.038;   13.615;   -7.564;  751.708
356.633;   13.307;   -5.814;  728.594
357.229;   12.163;   -7.364;  724.757
357.824;   10.321;   -8.024;  703.600
358.420;    9.441;   -9.384;  679.726
359.015;   10.108;   -5.104;  695.357
359.610;   10.190;   -6.854;  763.920
360.206;    4.911;  -10.185;  603.240
360.801;    7.438;   -7.054;  646.503
361.396;   10.102;   -5.034;  725.975
361.992;    5.326;   -8.284;  668.220
362.587;    2.769;   -8.625;  670.160
363.182;    4.525;   -7.674;  689.631
363.777;    5.140;   -5.164;  738.242
364.372;    5.082;   -8.604;  737.314
364.967;    1.301;   -9.055;  680.744
365.563;    5.465;   -6.114;  815.567
366.158;    3.184;   -5.814;  685.161
366.753;    2.921;   -7.854;  649.263
367.348;    1.004;   -7.804;  746.056
367.942;    1.267;   -7.954;  697.298
368.537;    0.731;   -4.984;  754.245
369.132;    0.702;   -8.564;  703.428
369.727;   -2.758;   -8.855;  638.079
370.322;   -1.707;   -6.245;  580.186
370.917;   -2.217;   -6.425;  710.646
371.511;    0.728;   -6.294;  861.834
372.106;   -3.249;   -7.685;  776.964
372.701;   -5.551;   -7.335;  585.988
373.296;   -0.502;   -4.564;  863.135
373.890;   -4.590;  -10.235;  647.840
374.485;   -7.023;   -7.885;  691.199
375.079;   -3.981;   -7.324;  738.685
375.674;   -2.043;   -3.494;  812.970
376.268;   -6.555;   -8.525;  691.759
376.863;  -12.542;  -10.086;  580.327
377.457;   -6.384;   -7.025;  662.490
378.052;   -7.399;   -3.585;  764.884
378.646;   -8.618;   -7.595;  741.167
379.240;   -9.288;   -8.335;  721.176
379.835;   -7.973;   -5.785;  636.978
380.429;   -9.818;   -4.335;  562.557
381.023;  -10.166;   -6.805;  779.205
381.617;  -13.330;   -9.195;  680.106
382.212;   -9.243;   -6.905;  685.303
382.806;   -8.538;   -3.745;  760.690
383.400;  -12.561;   -7.745;  672.281
383.994;  -13.743;   -9.765;  664.870
384.588;   -9.609;   -6.564;  697.701
385.182;   -8.280;   -5.344;  726.624
385.776;   -9.427;   -8.514;  706.875
386.370;  -13.050;   -9.555;  681.968
386.964;  -12.458;   -8.715;  684.155
387.558;   -9.857;   -6.174;  598.360
388.152;  -13.221;   -8.725;  681.959
388.745;  -11.764;   -7.965;  814.707
389.339;  -10.346;   -5.924;  747.642
389.933;   -9.237;   -5.524;  695.370
390.527;   -9.905;   -7.114;  859.029
391.120;  -16.088;  -10.725;  595.318
391.714;  -13.473;   -8.035;  711.633
392.308;  -10.270;   -3.574;  780.253
392.901;  -13.798;   -7.245;  642.460
393.495;  -16.062;   -9.285;  595.414
394.089;  -13.956;   -5.895;  760.452
394.682;  -14.182;   -4.295;  697.188
395.275;  -14.767;   -9.875;  719.927
395.869;  -15.882;   -8.485;  667.314
396.462;  -14.128;   -7.455;  616.609
397.056;  -10.711;   -5.424;  776.621
397.649;  -15.619;   -6.605;  731.575
398.242;  -13.048;   -8.224;  712.645
398.836;  -12.074;   -7.474;  766.408
399.429;  -13.140;   -7.094;  631.041
400.022;  -16.618;   -9.475;  665.902
400.615;  -14.031;   -7.145;  805.609
401.208;  -12.445;   -7.174;  691.451
401.802;  -14.740;   -5.515;  699.329
402.395;  -15.925;   -9.875;  683.502
402.988;  -16.782;   -8.845;  696.627
403.581;  -13.522;   -8.874;  646.878
404.174;  -11.380;   -5.324;  686.568
404.767;  -13.095;   -9.575;  638.583
405.360;  -16.735;  -10.965;  621.445
405.953;  -12.145;   -8.764;  759.034
406.545;  -10.870;   -7.514;  725.342
407.138;  -15.100;  -10.025;  618.350
407.731;  -13.989;  -10.034;  613.303
408.324;   -9.689;   -9.374;  660.554
408.917;  -10.983;   -6.534;  681.864
409.509;  -12.061;   -8.004;  740.396
410.102;  -14.727;   -9.875;  643.948
410.695;   -9.148;   -8.604;  665.758
411.287;   -9.482;   -6.794;  599.821
411.880;  -10.475;   -9.334;  585.421
412.472;  -13.482;  -10.254;  613.092
413.065;  -11.339;   -6.714;  629.408
413.657;   -9.042;   -7.234;  576.678
414.250;   -8.994;  -10.544;  646.681
414.842;  -10.795;   -9.744;  676.353
415.434;   -8.484;   -6.994;  570.463
416.027;   -4.462;   -5.893;  652.196
416.619;   -6.485;   -7.264;  713.400
417.211;   -7.300;  -10.374;  599.352
417.804;   -3.551;   -7.993;  628.499
418.396;   -7.810;   -7.234;  607.643
418.988;   -5.124;   -9.443;  659.238
419.580;   -8.346;  -10.724;  568.276
420.172;   -6.436;  -10.323;  536.196
420.764;   -2.331;   -8.793;  672.482
421.356;   -2.612;  -11.143;  636.898
421.948;   -4.250;   -8.293;  677.661
422.540;    0.857;   -7.893;  680.027
423.132;    0.066;   -7.082;  600.641
423.724;   -2.782;   -8.653;  561.267
424.316;   -1.299;  -10.213;  621.345
424.908;    2.021;   -9.762;  591.517
425.500;    2.584;   -5.572;  647.978
426.092;    3.757;   -8.422;  648.268
426.683;    1.980;   -9.283;  684.836
427.275;    4.930;   -7.852;  641.471
427.867;    6.578;   -5.272;  668.948
428.458;    7.185;   -7.682;  732.344
429.050;    5.185;  -10.612;  680.749
429.642;    7.542;   -9.882;  743.124
430.233;    7.975;   -6.962;  569.356
430.825;    9.385;   -6.842;  724.809
431.416;    7.039;   -9.672;  698.241
432.008;    9.792;   -6.552;  651.723
432.599;   11.110;   -6.891;  656.073
433.190;    7.149;  -10.912;  637.670
433.782;    7.356;  -11.172;  590.395
434.373;   14.907;   -6.061;  884.765
434.964;   12.897;   -8.251;  602.920
435.556;   11.549;   -9.722;  634.537
436.147;   14.351;   -9.082;  758.490
436.738;   13.555;   -8.041;  701.099
437.329;   19.261;   -7.341;  721.723
437.920;   12.375;   -8.162;  666.688
438.511;   12.594;  -11.802;  564.526
439.103;   17.814;  -10.191;  623.998
439.694;   20.392;   -7.601;  681.583
440.285;   21.658;   -8.541;  764.432
440.876;   18.639;   -9.751;  845.738
441.466;   18.096;   -9.401;  575.162
442.057;   23.662;   -7.760;  665.814
442.648;   22.899;   -9.971;  746.255
443.239;   20.645;  -11.001;  620.477
443.830;   25.602;   -7.990;  704.958
444.421;   27.057;   -7.910;  655.474
445.011;   24.688;   -8.131;  693.619
445.602;   23.322;   -7.111;  743.126
446.193;   25.676;  -10.920;  488.117
446.783;   30.223;   -6.500;  640.397
447.374;   25.263;   -8.671;  692.759
447.964;   25.706;  -10.781;  713.770
448.555;   33.886;   -9.650;  822.742
449.145;   31.609;   -8.660;  662.853
449.736;   31.642;   -8.990;  803.179
450.326;   31.776;   -9.500;  713.626
450.917;   36.259;   -8.680;  675.324
451.507;   35.522;   -7.520;  600.661
452.097;   36.682;   -8.590;  746.267
452.688;   36.883;  -11.340;  742.160
453.278;   36.513;  -10.100;  566.840
453.868;   40.893;   -6.019;  793.550
454.458;   39.563;   -9.440;  651.141
455.048;   39.596;  -10.560;  711.783
455.639;   40.917;  -11.799;  567.096
456.229;   44.437;   -6.899;  710.694
456.819;   46.393;   -7.389;  751.158
457.409;   46.638;  -11.119;  773.993
457.999;   48.793;   -9.289;  737.505
458.589;   48.736;   -6.139;  686.606
459.179;   48.879;   -8.729;  717.658
459.769;   46.951;   -9.789;  627.099
460.358;   51.736;  -10.259;  797.262
460.948;   52.057;   -7.299;  689.503
461.538;   53.866;  -10.289;  660.677
462.128;   51.099;  -11.269;  664.934
462.717;   57.460;   -9.368;  710.326
463.307;   60.751;   -7.908;  705.846
463.897;   55.987;   -9.599;  656.942
464.486;   55.947;   -9.769;  837.128
465.076;   60.405;   -8.048;  733.776
465.666;   63.849;   -9.358;  652.900
466.255;   62.143;   -7.919;  785.651
466.845;   60.479;  -11.689;  666.749
467.434;   63.299;   -7.818;  725.873
468.023;   64.612;   -7.678;  658.357
468.613;   62.900;  -10.939;  713.946
469.202;   67.178;  -10.118;  646.507
469.791;   70.519;   -9.108;  737.811
470.381;   72.495;   -6.058;  742.813
470.970;   73.031;  -10.428;  711.099
471.559;   72.527;  -10.268;  733.291
472.148;   74.649;   -8.448;  675.737
472.738;   77.971;   -6.917;  765.466
473.327;   77.613;  -11.978;  637.529
473.916;   76.408;  -11.888;  737.446
474.505;   80.544;   -9.437;  751.703
475.094;   83.642;   -6.747;  806.570
475.683;   83.993;   -9.367;  797.699
476.272;   84.154;  -12.637;  730.632
476.861;   86.617;  -10.027;  706.754
477.449;   93.215;   -8.716;  728.487
478.038;   87.856;   -9.577;  692.513
478.627;   88.633;   -9.718;  714.852
479.216;   94.954;   -8.947;  769.441
479.805;   98.678;   -6.256;  783.375
480.393;   98.493;   -7.937; 1008.945
480.982;   97.282;   -7.717;  874.501
481.571;  103.486;   -9.266;  858.333
482.159;  104.034;   -7.636;  705.386
482.748;  104.216;   -9.667;  821.385
483.336;  108.405;  -10.376;  858.209
483.925;  108.615;   -7.147;  774.373
484.513;  116.340;   -7.996;  758.962
485.102;  113.820;  -10.027;  810.965
485.690;  120.446;  -10.446; 1011.050
486.278;  122.779;   -8.446;  979.329
486.867;  124.795;   -6.356;  809.662
487.455;  126.031;   -9.136;  898.229
488.043;  126.907;  -10.646;  748.361
488.631;  134.672;   -7.456; 1005.079
489.220;  139.621;   -6.636;  908.626
489.808;  141.155;  -11.036;  741.415
490.396;  148.354;  -10.246;  914.645
490.984;  153.052;   -8.556;  830.161
491.572;  164.793;   -5.886;  940.315
492.160;  171.691;   -9.486;  919.081
492.748;  184.714;  -10.976;  884.341
493.336;  208.710;   -8.776; 1019.693
493.924;  237.198;   -5.465;  958.077
494.512;  271.107;   -9.986; 1066.638
495.100;  313.495;  -10.636; 1103.280
495.687;  373.627;  -10.885; 1206.373
496.275;  437.430;   -8.126; 1150.796
496.863;  502.058;  -10.586; 1281.171
497.451;  602.816;  -11.926; 1386.805
498.038;  753.162;  -10.885; 1556.729
498.626;  889.399;   -6.315; 1741.407
499.214; 1041.111;   -7.326; 2016.609
499.801; 1253.449;  -11.906; 2220.633
500.389; 1528.962;  -10.466; 2312.494
500.976; 1897.872;   -5.236; 2744.849
501.564; 2324.685;   -8.936; 3148.565
502.151; 2727.336;  -13.176; 3515.999
502.738; 3240.008;  -10.646; 3971.274
503.326; 3651.026;   -9.525; 4403.796
503.913; 4125.745;  -10.856; 5161.749
504.500; 4433.124;  -11.586; 5986.420
505.088; 4833.417;  -10.336; 6381.201
505.675; 5389.837;   -6.355; 6925.547
506.262; 5986.200;   -9.046; 7619.060
506.849; 6722.604;  -10.416; 8733.969
507.436; 7181.275;  -10.305; 9790.121
508.023; 7480.060;   -5.496; 9985.472
508.610; 7835.047;   -7.856;10434.618
509.197; 8653.227;  -10.097;11198.435
509.784;10225.876;  -10.886;12391.194
510.371;11488.459;   -9.315;13603.713
510.958;12325.409;   -9.936;14426.586
511.545;12869.734;   -9.326;15243.775
512.132;13170.551;  -10.075;15945.876
512.719;13693.197;   -7.796;16340.369
513.305;15131.118;  -10.606;18011.766
513.892;16042.547;  -11.486;19754.971
514.479;17279.205;   -9.126;20967.805
515.066;18281.139;   -6.026;22299.793
515.652;19125.996;   -8.466;22908.660
516.239;20482.211;  -10.886;23798.875
516.825;20800.289;  -11.496;25567.275
517.412;21261.551;   -5.796;28154.959
517.998;22440.082;  -10.506;28344.111
518.585;23124.367;  -10.076;27134.219
519.171;23052.838;   -8.315;27268.576
519.758;24256.342;   -8.596;28964.129
520.344;25232.482;   -8.466;30664.494
520.930;25443.500;  -11.006;32550.605
521.516;26859.504;  -10.495;35422.895
522.103;29553.219;   -5.526;38280.004
522.689;30739.428;   -8.746;37835.117
523.275;29742.611;  -11.376;37288.613
523.861;29210.313;  -11.156;37281.395
524.447;30617.082;   -8.135;37846.949
525.033;30256.730;   -7.896;38321.949
525.619;29551.164;  -12.476;38579.285
526.205;28462.455;   -9.516;40622.875
526.791;29396.506;   -6.926;42258.836
527.377;31970.332;   -8.346;42966.902
527.963;36789.992;   -8.717;42018.949
528.549;37581.898;  -11.016;42476.828
529.135;35523.215;   -8.536;41854.852
529.721;35116.832;   -9.666;41237.711
530.306;34739.418;  -10.066;41259.445
530.892;35273.918;  -11.356;41506.047
531.478;36194.781;   -6.596;43559.613
532.063;37266.477;   -8.836;47695.563
532.649;37925.691;  -10.047;50808.324
533.235;40541.742;   -9.746;51787.500
533.820;41885.262;   -6.566;52145.035
534.406;41421.328;  -10.817;51133.488
534.991;40530.523;   -9.416;49996.805
535.576;39239.211;   -9.036;48882.852
536.162;39574.457;   -6.156;46942.285
536.747;40047.746;  -11.607;45711.746
537.333;42466.469;  -11.787;48510.180
537.918;43617.043;  -12.437;50439.891
538.503;41142.621;   -7.196;50863.711
539.088;37706.227;  -10.556;50906.922
539.673;37185.957;   -8.767;52621.965
540.259;35522.891;  -10.026;52368.094
540.844;32911.102;   -7.416;50879.109
541.429;35045.145;   -9.467;52077.777
542.014;42172.777;   -9.527;52716.695
542.599;45835.188;   -9.946;52363.281
543.184;43507.027;   -7.927;53187.137
543.769;44017.051;   -9.297;54697.605
544.354;43939.730;  -10.127;53913.914
544.938;44076.250;   -9.267;49680.164
545.523;46089.938;   -6.506;47386.277
546.108;47589.129;   -9.787;49151.949
546.693;49088.074;  -11.587;51384.637
547.278;48560.004;  -10.986;51853.254
547.862;44276.285;   -8.206;51173.750
548.447;40427.301;  -10.067;51691.395
549.031;40146.559;   -9.637;52456.703
549.616;44360.297;   -9.926;52714.516
550.201;44570.855;   -6.347;52414.598
550.785;43440.711;   -7.917;52355.059
551.370;43182.113;  -10.867;54589.453
551.954;44544.305;   -9.047;58267.348
552.538;46636.516;   -7.827;59062.176
553.123;46063.770;  -10.287;58115.285
553.707;44078.688;  -12.178;56556.285
554.291;43961.441;   -8.717;56201.668
554.876;42499.715;   -7.457;55335.762
555.460;42896.887;  -10.387;54155.703
556.044;45691.863;   -9.618;53721.484
556.628;43639.578;  -11.567;53731.016
557.212;44080.809;   -8.097;54312.531
557.796;43004.645;  -11.077;53797.773
558.380;42979.844;  -11.108;56145.984
558.964;42685.254;   -9.057;57277.930
559.548;42480.164;   -6.977;56459.641
560.132;41178.340;  -11.457;54434.543
560.716;40296.285;  -11.378;54800.617
561.300;39867.410;   -9.577;57606.945
561.884;41056.590;   -7.127;58972.445
562.467;40993.223;   -7.118;57327.570
563.051;40791.492;  -13.358;54962.434
563.635;41293.871;  -10.178;52594.473
564.219;42535.871;   -7.837;50610.410
564.802;43012.602;  -11.398;49551.180
565.386;43021.254;  -12.788;48370.953
565.969;42531.828;   -9.077;48178.871
566.553;42538.910;   -6.207;49957.305
567.136;42163.949;   -8.568;50369.594
567.720;38545.199;  -11.868;49492.004
568.303;37338.535;   -8.268;50616.352
568.887;37047.305;   -8.698;50727.148
569.470;37346.008;   -6.808;51698.379
570.053;35594.855;  -13.188;52122.078
570.637;34776.355;  -12.037;52536.438
571.220;34808.168;   -8.577;51186.098
571.803;35415.340;   -8.498;51032.762
572.386;37292.590;  -10.498;49609.887
572.969;40442.191;   -9.388;48285.926
573.552;39283.719;   -8.338;47624.285
574.135;38506.609;   -8.518;45498.641
574.718;35461.020;  -13.628;41970.434
575.301;34167.645;  -10.893;41447.137
575.884;32874.273;   -8.158;40923.836
576.467;33317.355;  -10.328;45267.723
577.050;36091.953;  -13.058;48175.543
577.633;37560.543;   -9.458;47729.328
578.216;36447.648;   -8.928;47579.793
578.799;35697.949;   -9.358;47820.996
579.381;34659.238;  -11.388;48115.551
579.964;33004.531;  -11.718;47333.766
580.547;33653.367;   -8.588;46668.969
581.129;33732.145;   -8.859;44466.141
581.712;33105.789;  -10.729;44164.922
582.294;33719.539;  -11.118;46477.855
582.877;35579.570;   -5.218;48244.254
583.459;34894.129;   -8.679;47437.895
584.042;33472.559;  -10.709;46943.219
584.624;33067.441;  -11.669;46792.227
585.206;31645.387;   -8.218;46557.250
585.789;32249.199;  -10.569;45793.773
586.371;35468.836;  -11.859;43836.391
586.953;35952.523;  -10.719;42972.492
587.536;35946.434;   -7.198;42487.211
588.118;35606.680;   -8.720;42086.414
588.700;33455.086;  -10.439;43389.930
589.282;32885.586;   -9.198;43646.039
589.864;33063.445;   -9.199;43438.109
590.446;33932.270;  -11.319;43151.926
591.028;33575.613;  -11.159;42781.867
591.610;32654.408;  -11.779;42839.098
592.192;29768.977;   -7.668;42820.402
592.774;28673.516;  -11.949;40724.277
593.356;28277.717;  -12.129;39874.789
593.937;28840.471;  -10.669;39980.648
594.519;30845.613;   -6.509;42069.633
595.101;32253.266;  -10.849;42976.031
595.683;32445.902;  -11.679;44084.441
596.264;33777.012;   -9.049;43478.797
596.846;32545.119;   -8.849;43803.672
597.427;31290.947;   -9.570;42986.934
598.009;33198.344;  -12.620;42832.219
598.591;33780.832;  -10.039;42580.086
599.172;33426.117;  -10.369;43061.805
599.753;33663.152;   -9.140;41691.469
600.335;34285.805;  -11.430;40692.520
600.916;32555.395;   -9.939;39982.422
601.498;31639.211;   -8.479;40318.617
602.079;31031.920;  -10.920;40670.609
602.660;30521.564;  -11.480;41450.898
603.241;30292.895;  -11.699;41137.738
603.823;29113.863;   -9.579;38868.797
604.404;29978.234;  -10.620;38182.785
604.985;31016.316;  -10.450;38078.047
605.566;30173.504;   -9.129;38056.633
606.147;30237.248;   -7.510;37020.418
606.728;33004.203;  -10.660;37883.359
607.309;32243.383;  -11.740;38748.273
607.890;31104.875;   -9.759;38850.230
608.471;30538.516;   -8.250;37457.918
609.051;30619.379;   -9.240;36066.457
609.632;29588.160;  -12.120;35991.074
610.213;30066.830;   -9.110;37402.641
610.794;30236.146;   -8.030;38383.363
611.374;28524.086;   -8.110;40562.387
611.955;27876.924;  -13.560;38533.727
612.536;29432.684;  -11.400;36951.789
613.116;30204.930;   -8.070;37197.891
613.697;31276.412;  -10.830;38411.125
614.277;29806.732;  -11.641;38673.938
614.858;30426.486;  -13.310;37075.863
615.438;30654.928;   -7.460;35092.906
616.019;28197.844;   -7.601;33666.301
616.599;28447.926;  -12.020;34189.023
617.179;30506.898;  -11.780;36952.047
617.760;30696.781;   -8.570;39582.574
618.340;32288.109;  -11.471;38943.977
618.920;34060.414;  -11.170;37594.156
619.500;33212.063;  -11.071;37866.938
620.080;32952.719;   -7.750;37869.043
620.660;33723.547;  -12.711;36868.617
621.241;33793.215;  -10.211;36352.309
621.821;32875.844;  -10.961;35459.520
622.401;32786.699;   -7.720;35207.414
622.980;31947.719;   -8.981;35980.422
623.560;30586.697;   -9.331;37351.328
624.140;30389.773;   -9.850;34388.582
624.720;26690.490;   -7.451;32368.764
625.300;22641.900;   -9.070;32638.629
625.880;25135.717;  -12.601;34599.035
626.459;28535.371;  -11.751;36831.738
627.039;31256.783;   -9.281;38299.098
627.619;31293.873;   -8.801;38289.574
628.198;29723.162;  -12.071;37220.695
628.778;30102.260;   -9.461;37632.563
629.357;31292.236;   -8.491;38003.012
629.937;30764.176;   -9.721;38402.039
630.516;29489.238;   -9.951;37868.801
631.096;29607.727;  -11.731;35760.410
631.675;32590.217;   -8.572;35225.219
632.254;37512.063;  -11.282;35130.289
632.834;36997.332;  -13.322;35794.570
633.413;36219.070;  -10.301;35788.922
633.992;33895.707;   -8.582;34532.863
634.571;34986.199;   -8.352;33590.113
635.151;36700.340;  -11.912;34943.863
635.730;34292.363;  -10.511;35352.523
636.309;31099.816;   -7.731;35366.605
636.888;28421.008;   -9.952;36165.637
637.467;28721.703;  -11.672;37515.902
638.046;30998.637;   -8.901;39288.695
638.625;33881.305;   -7.912;38279.699
639.204;33594.887;  -10.022;37741.598
639.782;32329.375;  -12.252;38364.551
640.361;29627.531;  -10.041;36740.621
640.940;26763.090;  -11.161;34950.082
641.519;26004.076;   -9.701;34137.398
642.097;27945.322;  -11.271;35654.258
642.676;31348.973;   -8.651;35637.957
643.255;33085.246;   -8.711;36567.074
643.833;31666.814;   -9.581;37809.434
644.412;32125.516;  -13.711;37337.293
644.990;32216.076;  -11.811;37018.531
645.569;32243.832;   -9.411;36518.469
646.147;30291.270;  -10.291;36186.430
646.726;28979.639;  -12.401;36267.688
647.304;30245.992;  -10.411;36647.625
647.882;31545.270;   -9.651;39286.742
648.461;33452.324;   -9.631;39157.703
649.039;33348.992;  -11.881;35412.883
649.617;33359.445;   -9.661;34744.918
650.195;33177.367;   -9.301;35403.098
650.773;32262.738;  -10.511;35053.797
651.352;30268.766;  -11.521;33756.816
651.930;27175.666;  -12.211;31868.773
652.508;24089.865;   -9.171;33121.551
653.086;27080.230;   -9.371;33564.793
653.663;31242.326;  -13.161;34054.668
654.241;30211.264;  -13.031;35693.309
654.819;30393.518;   -9.371;36422.906
655.397;29376.547;  -10.511;38213.484
655.975;29681.375;  -10.371;39507.625
656.553;30791.637;  -10.051;39498.223
657.130;30202.832;  -10.061;40395.480
657.708;29493.604;   -9.561;39242.020
658.286;29166.957;  -11.511;38920.020
658.863;29612.182;  -10.261;40202.898
659.441;30967.727;   -7.531;39677.938
660.018;30300.752;   -9.501;40413.355
660.596;30101.305;  -13.301;39931.414
661.173;32380.893;  -11.211;39604.531
661.750;32448.383;   -9.951;39700.070
662.328;30847.898;   -9.390;39292.809
662.905;30028.824;  -11.330;38235.648
663.482;26076.076;   -9.050;36212.305
664.060;24329.305;   -8.240;35944.945
664.637;26929.605;  -10.050;35170.785
665.214;28457.939;  -11.760;34197.523
665.791;30176.174;  -10.530;34549.520
666.368;29636.316;   -9.690;35118.578
666.945;30446.066;   -9.320;36019.418
667.522;31185.275;  -11.860;36048.438
668.099;31291.510;  -10.770;36243.914
668.676;31437.639;   -6.260;35958.875
669.253;30340.162;   -7.000;37384.730
669.830;30134.541;  -10.190;36779.629
670.407;29418.998;   -9.550;35231.289
670.984;30463.260;   -9.260;35544.270
671.560;29686.115;   -9.280;35466.867
672.137;27891.064;  -11.810;34280.863
672.714;28757.471;  -11.490;34632.863
673.290;28891.881;   -7.740;35135.422
673.867;28964.094;  -10.660;36114.480
674.443;29839.236;  -12.230;36152.859
675.020;28391.105;  -10.450;35327.238
675.596;29236.764;   -9.260;35795.176
676.173;29908.584;  -10.780;35430.355
676.749;28996.857;  -13.690;33549.516
677.326;28746.031;  -11.980;32210.012
677.902;28846.148;   -8.630;32068.871
678.478;27965.371;  -10.730;32583.891
679.054;28536.916;  -10.520;32088.928
679.631;30657.008;  -11.920;30978.848
680.207;30941.945;   -7.490;33160.887
680.783;31698.885;   -9.860;35570.363
681.359;30726.383;  -13.380;36125.184
681.935;28834.270;  -12.480;35240.922
682.511;27039.867;   -7.900;34429.961
683.087;26921.182;   -7.710;34463.680
683.663;27935.070;  -11.480;34648.898
684.239;28681.998;  -14.090;34546.457
684.815;28763.854;   -7.560;35586.375
685.390;28935.402;   -9.910;35821.895
685.966;29266.936;  -11.159;35085.871
686.542;31423.568;  -11.169;34198.230
687.118;33333.098;   -5.959;32847.707
687.693;33088.543;  -10.329;32794.027
688.269;31802.521;  -12.059;33072.367
688.844;28787.215;  -10.909;33141.664
689.420;27455.904;   -8.019;33965.742
689.995;26543.195;   -8.399;34655.523
690.571;26010.070;  -10.949;33576.742
691.146;26731.219;   -9.619;32657.219
691.722;25830.389;   -8.999;32526.979
692.297;24961.096;  -11.589;33014.617
692.872;26606.264;  -11.739;34012.254
693.448;27020.715;  -11.059;34237.434
694.023;25680.961;  -10.139;34142.672
694.598;27139.584;   -9.029;34132.031
695.173;27035.814;  -13.319;34205.250
695.748;26675.850;  -10.169;32882.488
696.323;26811.682;   -8.339;32864.906
696.898;26191.764;   -8.169;33170.004
697.473;25836.143;  -12.309;32432.984
698.048;26251.270;  -10.989;31649.303
698.623;27055.039;   -9.329;30778.141
699.198;28347.307;   -9.849;31140.119
699.773;29104.432;  -12.329;31764.299
700.348;28337.283;  -10.389;31780.816
700.922;28982.611;   -9.269;32046.375
701.497;29158.215;   -9.329;32603.574
702.072;28955.395;  -10.789;34799.871
702.646;29094.031;  -10.839;35793.172
703.221;28569.404;   -9.099;35201.590
703.795;30485.492;  -10.939;34764.527
704.370;29584.469;  -12.859;34307.367
704.944;28927.564;  -11.559;33509.887
705.519;30385.145;   -7.939;31388.584
706.093;31693.893;  -10.499;31340.104
706.668;31523.482;  -11.289;32630.281
707.242;29841.105;  -11.509;32728.779
707.816;28728.021;   -9.639;32947.238
708.390;27065.258;  -11.429;33277.855
708.965;27401.336;  -11.869;33834.336
709.539;28013.127;  -11.689;33709.273
710.113;28509.082;  -10.478;33044.313
710.687;27815.225;  -10.228;31953.992
711.261;25119.105;  -13.698;30505.949
711.835;24830.523;  -13.378;30262.369
712.409;26180.342;   -9.698;31254.447
712.983;27513.693;  -11.898;32754.986
713.557;28576.428;  -15.138;34018.824
714.131;28534.547;  -14.098;34579.625
714.704;27422.695;   -9.958;33890.262
715.278;24880.518;  -10.028;33531.102
715.852;25243.025;  -11.148;33601.660
716.425;26910.791;   -9.068;33515.117
716.999;26832.930;  -10.038;33185.555
717.573;26888.523;   -9.798;33905.996
718.146;28034.590;  -12.378;35199.293
718.720;28393.893;  -11.918;35060.551
719.293;28699.363;   -8.088;34973.230
719.867;31127.816;  -10.888;36394.449
720.440;31387.715;  -11.938;36663.008
721.013;30428.928;  -12.818;35102.426
721.587;28946.615;  -10.298;33985.266
722.160;26583.295;  -10.048;33524.965
722.733;25521.613;  -12.108;32987.043
723.306;26359.490;  -10.818;33066.301
723.880;27933.469;   -8.908;33399.500
724.453;29963.480;   -9.878;33468.297
725.026;29119.879;  -11.188;33816.637
725.599;25991.715;  -11.678;32797.996
726.172;26340.266;   -9.618;33187.434
726.745;28249.377;   -8.258;35136.613
727.318;29964.164;  -12.978;35751.730
727.891;30451.887;  -12.148;35890.430
728.463;30407.998;   -8.968;34822.090
729.036;29413.443;  -10.188;32895.086
729.609;29562.730;  -11.788;31823.225
730.182;25836.424;  -11.788;31445.283
730.754;23513.135;  -10.268;32373.223
731.327;23736.617;   -9.998;33676.820
731.900;23252.930;  -12.228;33417.000
732.472;24729.236;  -13.848;31978.498
733.045;27916.428;   -8.698;30368.777
733.617;28329.549;  -10.607;30574.215
734.190;27248.307;  -11.507;31280.975
734.762;24323.539;  -13.647;31674.412
735.334;23099.000;   -9.767;31247.291
735.907;23481.760;   -9.897;29876.211
736.479;23371.141;  -11.637;29808.488
737.051;22828.377;   -9.567;30233.547
737.623;23989.230;   -8.187;31469.086
738.195;25139.598;  -11.187;31784.225
738.768;26599.734;  -12.337;32120.523
739.340;26331.188;  -12.227;32094.342
739.912;24747.039;  -11.057;31312.680
740.484;24240.844;  -10.207;31946.238
741.056;23343.145;  -10.047;32984.059
741.628;24494.238;  -13.627;33897.715
742.199;26956.752;   -7.177;33213.016
742.771;26260.402;  -10.797;31369.113
743.343;24057.377;  -11.997;31865.473
743.915;22287.197;  -12.867;32388.631
744.487;22115.412;   -7.617;31079.568
745.058;23085.693;   -9.557;30570.107
745.630;24477.029;   -9.877;29970.127
746.201;25563.732;  -14.177;29186.766
746.773;25589.086;   -9.237;28805.723
747.344;24966.361;   -9.847;29591.223
747.916;23240.174;  -11.657;31412.201
748.487;22405.207;  -10.587;32194.898
749.059;23777.523;   -8.707;32533.719
749.630;24841.906;  -10.537;32158.518
750.201;24153.510;  -11.687;30855.395
750.773;23040.395;  -11.647;28622.555
751.344;23143.504;   -7.147;28405.732
751.915;24152.793;   -9.757;28461.551
752.486;23168.961;  -12.427;27842.850
753.057;20678.461;  -12.227;27845.008
753.628;19577.016;  -10.417;27728.107
754.199;20041.838;  -11.767;27381.086
754.770;20996.645;  -11.187;25882.203
755.341;21177.691;  -10.507;25886.184
755.912;21065.342;   -9.387;26050.861
756.483;20450.365;  -10.647;26798.779
757.054;18960.223;  -11.837;27048.238
757.625;18049.291;  -12.716;26294.838
758.195;17807.490;   -9.666;26142.076
758.766;17513.486;   -8.656;26392.234
759.337;18535.943;  -12.856;26334.594
759.907;20145.180;  -13.366;27579.652
760.478;21141.086;   -8.576;28352.770
761.048;21567.732;  -10.526;27325.088
761.619;21246.607;  -11.116;26460.428
762.189;20282.658;  -12.136;26029.826
762.760;20123.197;   -9.456;26430.145
763.330;20841.648;   -7.136;26670.902
763.900;20062.000;  -11.786;26603.021
764.471;17292.447;  -11.546;25542.740
765.041;16493.172;   -8.096;24358.459
765.611;17604.582;   -8.876;23991.297
766.181;18178.760;  -12.196;24470.236
766.751;18633.752;  -11.636;24845.975
767.321;18480.488;  -10.156;24533.633
767.891;16471.545;  -11.766;24916.492
768.461;15705.805;  -14.936;24776.771
769.031;15861.887;  -12.356;24757.988
769.601;17403.713;   -7.526;24181.088
770.171;17464.076;  -10.766;23670.387
770.741;16860.852;  -13.176;22960.045
771.311;16956.607;  -10.616;22917.523
771.880;17030.830;   -9.576;23562.941
772.450;16507.186;  -10.336;24216.500
773.020;16652.965;  -13.516;24140.398
773.589;16391.510;  -13.466;24414.857
774.159;16024.229;   -8.686;23858.717
774.729;15581.522;   -9.476;22942.135
775.298;14792.027;  -13.666;22324.033
775.867;14278.818;  -11.716;21140.313
776.437;14346.065;   -9.906;20838.092
777.006;14241.981;  -12.166;20599.510
777.576;14339.938;  -12.356;20508.809
778.145;14526.892;  -11.646;20732.947
778.714;14150.840;   -8.226;21062.465
779.283;12931.456;   -9.556;20949.664
779.853;12735.539;  -14.116;20508.623
780.422;13166.326;  -11.506;20649.082
780.991;12571.616;   -9.556;21527.520
781.560;11845.651;   -9.095;22632.658
782.129;11846.697;  -12.135;23048.277
782.698;11524.119;  -10.865;23438.555
783.267;11091.744;   -9.335;23267.734
783.836;10990.774;  -11.045;22415.133
784.404;11497.105;  -13.865;20443.152
784.973;11281.744;  -13.095;19699.150
785.542;10948.420;  -11.575;19763.828
786.111;11007.792;   -9.705;20341.408
786.679;10955.917;  -12.105;20207.967
787.248;10938.766;  -12.455;19516.465
787.817;10545.694;  -11.535;18900.363
788.385; 9919.692;   -9.765;17879.121
788.954; 9107.702;  -14.005;17658.301
789.522; 8875.622;  -11.955;17788.879
790.090; 9599.399;  -10.135;18118.277
790.659; 9964.747;  -10.975;18338.736
791.227; 9474.502;  -13.375;18508.615
791.795; 9821.382;  -12.375;17898.254
792.364;10150.139;  -10.725;17295.133
792.932;10288.515;   -9.715;16822.051
793.500;10236.659;  -12.675;17040.148
794.068;10358.300;  -13.495;17179.787
794.636;10523.875;  -10.885;16664.246
795.204;10138.765;  -11.045;16524.545
795.772; 9933.677;  -13.175;17274.564
796.340; 9514.681;  -12.445;17891.002
796.908; 9365.757;   -9.735;17648.561
797.476; 9312.907;   -9.815;17064.080
798.044; 8841.674;  -13.985;16672.777
798.612; 8135.748;  -13.115;17023.996
799.180; 7941.853;  -10.185;16561.615
799.747; 8025.568;   -9.055;15962.773
800.315; 7933.358;  -12.385;15296.992
800.883; 7675.956;  -15.035;14801.771
801.450; 7574.348;  -10.365;14534.430
802.018; 7559.424;   -9.855;14173.248
802.585; 7639.896;  -11.905;14029.547
803.153; 7765.201;  -11.585;13836.846
803.720; 7700.021;   -9.095;13567.324
804.287; 7347.880;   -9.135;13360.622
804.855; 7030.854;  -11.604;13681.981
805.422; 6922.086;  -11.794;13536.560
805.989; 6804.758;  -10.734;13355.958
806.556; 6941.534;  -10.444;13747.896
807.124; 7381.860;  -12.764;13987.376
807.691; 7511.602;  -12.964;14038.674
808.258; 7491.104;  -11.134;14120.152
808.825; 7355.344;   -9.854;13860.111
809.392; 7383.080;  -10.504;13268.790
809.959; 6936.467;  -13.054;12680.389
810.526; 6587.556;   -8.294;12427.308
811.093; 6610.803;   -8.394;12030.105
811.659; 7203.644;  -12.304;11653.664
812.226; 7670.796;  -13.944;11637.183
812.793; 7425.797;  -10.484;11611.521
813.360; 6876.395;  -10.144;11885.181
813.926; 6424.394;  -11.684;12770.539
814.493; 6221.079;  -13.644;12677.638
815.060; 5863.032;   -9.724;11974.336
815.626; 5852.530;   -9.854;11594.715
816.193; 6317.887;  -13.254;11579.474
816.759; 6530.087;  -13.204;11666.972
817.325; 6812.292;   -9.434;11325.530
817.892; 7183.134;  -10.134;11105.369
818.458; 7597.639;  -13.474;10843.928
819.024; 7323.804;  -11.854;10714.406
819.591; 7008.802;  -10.244;10469.165
820.157; 6803.666;  -10.704;10235.523
820.723; 6476.485;  -12.324;10847.563
821.289; 6296.051;   -9.444;11040.980
821.855; 6298.063;   -8.374;10357.100
822.421; 6473.507;  -10.234; 9978.918
822.987; 6386.404;  -13.294; 9754.177
823.553; 5996.264;  -10.884;10065.755
824.119; 5893.519;   -8.884;10036.294
824.685; 6063.198;   -6.784;10029.192
825.251; 6094.093;  -12.004;10199.230
825.816; 5958.484;  -11.474; 9820.189
826.382; 5804.370;   -9.174; 9297.248
826.948; 6062.404;   -9.214; 9381.347
827.513; 6499.942;  -10.774; 9450.726
828.079; 6339.330;  -11.924; 9472.444
828.645; 5776.805;  -10.543; 9292.643
829.210; 5720.518;  -10.533; 9065.341
829.776; 5670.482;  -10.753; 9132.620
830.341; 5543.375;  -10.173; 9092.878
830.906; 5690.136;  -10.743; 9078.557
831.472; 6066.150;  -11.113; 8534.535
832.037; 5919.128;  -10.603; 8677.874
832.602; 5386.414;  -13.323; 8628.692
833.167; 4907.167;  -10.823; 8879.031
833.733; 4738.869;  -10.113; 9189.790
834.298; 4815.368;  -13.583; 9052.608
834.863; 4752.792;  -12.703; 8895.087
835.428; 4780.968;  -10.523; 8824.266
835.993; 4928.929;   -6.963; 8845.385
836.558; 4873.977;  -10.763; 8888.563
837.123; 4877.248;   -9.903; 8966.582
837.688; 4908.492;   -9.913; 8617.860
838.253; 4996.110;  -10.283; 8590.699
838.817; 5115.117;  -12.963; 8443.797
839.382; 5066.527;  -14.243; 8799.356
839.947; 4809.774;  -10.733; 8810.595
840.511; 4525.428;   -9.383; 8796.394
841.076; 4147.381;  -12.563; 8347.231
841.641; 4107.699;  -12.953; 8224.330
842.205; 4122.599;   -7.043; 8223.349
842.770; 4271.332;   -8.163; 8622.107
843.334; 4623.399;  -12.503; 8410.386
843.898; 4617.907;  -11.693; 8337.465
844.463; 4537.371;  -10.203; 8506.283
845.027; 4218.112;   -9.533; 8280.962
845.591; 4021.248;  -13.443; 8231.141
846.156; 4044.469;  -13.143; 7969.179
846.720; 3918.363;   -9.433; 7768.278
847.284; 3824.361;  -11.033; 7630.957
847.848; 3613.997;  -10.403; 7472.395
848.412; 3433.188;  -11.553; 7437.394
848.976; 3463.980;   -8.393; 7674.592
849.540; 3416.167;   -8.713; 7836.011
850.104; 3474.375;  -12.463; 7913.669
850.668; 3727.798;  -12.973; 7694.508
851.232; 3794.803;  -10.793; 7756.887
851.796; 3636.811;  -10.662; 7926.545
852.359; 3339.215;  -13.082; 7827.844
852.923; 3203.701;  -12.192; 7641.163
853.487; 3078.365;  -11.912; 7342.501
854.050; 3032.693;  -10.892; 7042.820
854.614; 3167.476;  -13.992; 7151.338
855.177; 3307.271;  -11.732; 7105.077
855.741; 3347.365;   -8.962; 6989.675
856.304; 3201.908;   -9.442; 6596.634
856.868; 3160.408;  -14.192; 6356.272
857.431; 3296.050;  -12.702; 6468.571
857.995; 3385.500;   -9.942; 6373.210
858.558; 3433.310;   -9.112; 6324.448
859.121; 3197.995;  -12.932; 6408.327
859.684; 3076.378;  -13.442; 6347.886
860.247; 3185.006;  -10.632; 6321.264
860.810; 3130.684;  -11.272; 6301.903
861.374; 2809.856;   -9.832; 6607.881
861.937; 2528.770;  -11.762; 6408.200
862.500; 2480.535;   -9.722; 6572.639
863.062; 2590.632;  -10.512; 6387.297
863.625; 2689.995;  -11.232; 6190.836
864.188; 2820.180;  -14.112; 5807.254
864.751; 2942.006;  -11.302; 5682.413
865.314; 2887.934;  -10.112; 5547.492
865.876; 2761.396;  -12.182; 5500.150
866.439; 2788.859;  -10.722; 5415.909
867.002; 2689.811;   -9.252; 5501.567
867.564; 2447.863;   -9.572; 5413.946
868.127; 2244.032;  -13.142; 5160.325
868.689; 2231.197;  -12.902; 5133.183
869.252; 2236.945;   -9.732; 5252.382
869.814; 2164.480;   -9.432; 5297.141
870.377; 2153.091;  -11.552; 5390.919
870.939; 2241.326;   -9.052; 5599.898
871.501; 2310.130;  -10.982; 5248.336
872.063; 2345.000;  -12.292; 4854.235
872.626; 2345.857;  -14.912; 4817.074
873.188; 2322.641;  -13.112; 4987.732
873.750; 2236.511;  -13.442; 4868.651
874.312; 2125.346;   -9.402; 4779.330
874.874; 2064.231;  -11.062; 4866.348
875.436; 2022.549;  -13.931; 4718.887
875.998; 2022.938;   -9.561; 4660.005
876.560; 2031.430;  -11.321; 4462.964
877.122; 2041.846;  -12.221; 4145.042
877.683; 2064.198;  -12.191; 4056.481
878.245; 2109.164;  -12.101; 3950.740
878.807; 2148.874;   -8.971; 4058.958
879.369; 1973.575;  -12.071; 3954.677
879.930; 1542.677;  -14.621; 3941.495
880.492; 1185.710;  -10.311; 4067.014
881.053;  959.021;  -10.901; 3859.633
881.615;  867.849;  -14.411; 3776.071
882.176;  899.616;  -13.761; 3734.750
882.738;  989.611;   -9.181; 3678.489
883.299; 1062.975;  -11.791; 3405.407
883.860; 1128.951;  -13.121; 3351.106
884.422; 1170.736;  -11.211; 3394.044
884.983; 1159.041;  -10.091; 3166.443
885.544; 1091.983;   -8.461; 3189.802
886.105; 1037.275;  -12.361; 3160.360
886.666; 1015.522;  -14.141; 3093.059
887.227;  986.212;  -11.361; 2941.957
887.788;  917.777;  -11.401; 2974.836
888.349;  851.261;  -13.791; 2721.214
888.910;  866.147;  -13.191; 2696.493
889.471;  887.310;   -9.881; 2560.172
890.032;  862.760;   -9.881; 2558.190
890.593;  825.185;  -10.371; 2567.669
891.153;  800.570;  -13.301; 2460.307
891.714;  759.696;  -11.431; 2372.046
892.275;  727.299;  -11.291; 2309.505
892.835;  691.217;  -11.471; 2382.543
893.396;  640.287;  -11.541; 2295.502
893.956;  590.778;  -11.181; 2162.420
894.517;  552.254;  -11.741; 2125.439
895.077;  544.626;  -11.671; 2086.978
895.638;  547.611;  -11.311; 2126.316
896.198;  520.993;   -9.831; 1838.275
896.758;  472.896;   -8.421; 1892.813
897.319;  438.286;  -12.351; 1792.232
897.879;  429.692;  -13.511; 1762.751
898.439;  404.568;  -12.001; 1661.149
898.999;  373.792;  -10.180; 1781.468
899.559;  360.360;  -12.030; 1703.347
900.119;  354.974;  -15.710; 1537.525
900.679;  352.932;   -8.900; 1638.384
901.239;  339.813;   -8.340; 1527.902
901.799;  327.878;  -13.910; 1456.441
902.359;  320.756;  -13.460; 1357.140
902.919;  308.896;  -11.490; 1331.118
903.479;  290.778;  -12.110; 1317.257
904.038;  267.158;  -11.720; 1262.595
904.598;  251.679;  -13.610; 1152.034
905.158;  245.589;  -11.040; 1240.893
905.717;  237.114;  -10.900; 1233.691
906.277;  225.123;  -15.080; 1217.330
906.836;  217.131;  -13.380; 1222.408
907.396;  209.100;  -10.780; 1193.047
907.955;  201.584;   -8.500; 1182.526
908.515;  196.354;  -12.760; 1099.364
909.074;  189.072;  -11.900; 1092.863
909.633;  183.594;   -8.950; 1069.121
910.192;  179.517;   -8.770; 1196.460
910.752;  175.304;  -12.390; 1029.960
911.311;  170.823;  -13.680; 1009.780
911.870;  166.561;  -12.370;  971.460
912.429;  165.647;  -10.900; 1094.080
912.988;  161.424;  -11.690; 1081.060
913.547;  154.679;  -13.240;  940.380
914.106;  149.066;  -11.990;  999.420
914.665;  146.300;   -9.990;  984.020
915.224;  145.535;  -12.880; 1035.760
915.782;  145.409;  -12.350;  922.560
916.341;  145.243;   -9.110; 1049.840
916.900;  142.718;   -9.270;  925.260
917.458;  140.935;  -13.240;  884.220
918.017;  140.816;  -13.550;  942.600
918.576;  141.210;  -12.320;  904.440
919.134;  139.990;  -11.490;  837.980
919.693;  136.020;  -13.670;  893.060
920.251;  134.506;  -15.470;  876.500
920.809;  133.260;  -11.290;  839.580
921.368;  133.633;  -10.210;  885.360
921.926;  132.466;  -12.140;  842.940
922.484;  131.335;  -13.080;  903.360
923.042;  130.475;  -11.720;  880.340
923.601;  133.803;   -7.480;  998.680
924.159;  132.629;  -11.570;  935.560
924.717;  128.428;  -13.840;  841.080
925.275;  129.404;  -10.640;  903.240
925.833;  128.503;  -11.540;  779.320
926.391;  129.178;  -12.960;  938.380
926.949;  127.239;  -14.130;  857.680
927.506;  128.383;  -11.750;  903.500
928.064;  129.076;  -10.250;  877.580
928.622;  128.066;  -13.030;  880.100
929.180;  127.996;  -13.400;  814.180
929.737;  128.983;  -10.700;  808.540
930.295;  133.378;  -10.070;  928.480
930.853;  134.899;  -11.960;  849.100
931.410;  135.716;  -13.120;  821.120
931.968;  133.811;  -10.770;  940.660
932.525;  133.817;  -10.680;  909.380
933.082;  133.711;  -13.130;  811.440
933.640;  134.038;  -13.210;  925.900
934.197;  132.757;  -11.060;  886.360
934.754;  134.302;   -9.580;  897.780
935.312;  136.247;  -14.000;  863.340
935.869;  140.986;  -10.710; 1012.980
936.426;  140.279;   -9.860;  872.800
936.983;  141.700;   -9.710;  889.020
937.540;  139.776;  -13.990;  838.280
938.097;  139.605;  -14.040;  940.120
938.654;  140.927;  -10.310;  898.860
939.211;  143.240;  -10.560;  952.480
939.768;  145.955;  -13.900;  915.420
940.324;  148.997;  -14.760;  904.200
940.881;  150.670;  -10.370;  878.500
941.438;  152.820;   -8.260; 1021.200
941.995;  149.064;  -12.540;  992.560
942.551;  145.639;  -14.670;  875.620
943.108;  144.476;  -10.450;  937.920
943.664;  146.980;  -10.750;  869.340
944.221;  150.342;  -11.550; 1088.140
944.777;  148.723;  -14.770;  869.680
945.334;  151.224;  -12.820;  884.840
945.890;  154.772;  -10.130;  946.480
946.446;  154.343;  -13.470;  947.020
947.003;  154.532;  -12.120;  964.940
947.559;  155.902;   -9.980; 1063.040
948.115;  154.538;   -9.080; 1026.540
948.671;  151.388;  -10.830;  967.300
949.227;  147.888;  -12.440;  859.560
949.783;  144.793;  -12.910;  858.900
950.339;  147.469;  -10.270;  991.000
950.895;  147.408;  -13.630; 1023.840
951.451;  147.265;  -15.100;  925.280
952.007;  149.967;  -11.330;  998.540
952.563;  151.603;  -10.580;  937.780
953.118;  150.919;  -13.440;  904.940
953.674;  149.384;  -12.710;  935.780
954.230;  150.360;  -10.350;  949.640
954.785;  148.104;   -9.190;  936.640
955.341;  147.091;  -11.200;  998.160
955.897;  143.713;  -16.560;  834.660
956.452;  143.986;  -12.570;  953.840
957.008;  143.054;   -7.970; 1083.640
957.563;  140.423;  -11.940; 1009.540
958.118;  136.237;  -13.450;  877.700
958.674;  137.357;  -12.030;  946.780
959.229;  138.477;   -9.410; 1013.980
959.784;  134.625;  -12.000;  832.400
960.339;  132.810;  -14.780; 1001.280
960.894;  127.969;   -9.860;  963.760
961.449;  125.657;   -9.970;  859.960
962.004;  125.896;  -10.900; 1212.840
962.559;  122.326;  -13.150;  860.140
963.114;  120.619;  -13.740;  742.480
963.669;  118.817;   -9.820;  915.500
964.224;  117.491;  -13.890;  874.340
964.779;  115.858;  -12.600;  828.420
965.334;  116.415;  -10.950; 1017.860
965.888;  116.288;  -11.170;  875.360
966.443;  117.856;  -12.540;  972.380
966.998;  117.172;  -15.780;  819.460
967.552;  115.340;   -9.760;  908.380
968.107;  112.016;   -9.060;  868.300
968.661;  112.227;  -11.950;  922.440
969.216;  113.024;  -12.800;  856.280
969.770;  112.451;  -11.210;  917.200
970.324;  112.058;  -11.610;  923.140
970.879;  108.666;  -11.370;  947.180
971.433;  106.051;  -12.540;  952.720
971.987;  100.625;  -11.320;  895.340
972.541;   98.142;  -10.720;  917.100
973.095;   97.663;   -9.680; 1009.460
973.649;   96.849;  -11.440;  809.480
974.203;   96.951;  -11.210;  829.040
974.757;   98.244;  -10.240;  855.220
975.311;   98.103;  -13.720;  872.600
975.865;   96.478;  -13.770;  881.820
976.419;   94.884;  -11.690;  857.400
976.973;   95.198;   -9.510;  849.620
977.526;   96.549;  -12.620;  949.920
978.080;   96.442;  -12.010;  796.780
978.634;   97.815;  -10.170;  921.320
979.187;   95.908;   -9.020;  905.400
979.741;   94.061;   -9.820; 1018.380
980.294;   88.479;  -14.870;  789.160
980.848;   85.884;  -12.380;  717.220
981.401;   88.185;  -10.350;  816.540
981.955;   89.176;  -13.720;  844.300
982.508;   89.642;  -11.490;  746.340
983.061;   89.915;  -10.000;  915.260
983.615;   87.943;  -11.480;  798.800
984.168;   84.224;  -13.220;  770.080
984.721;   82.831;  -13.960;  880.760
985.274;   82.311;  -10.870;  867.500
985.827;   82.073;   -9.790;  834.220
986.380;   79.470;  -13.120;  721.340
986.933;   78.048;  -12.450;  864.800
987.486;   76.203;  -10.210;  861.920
988.039;   76.004;   -8.430;  863.100
988.591;   74.347;  -10.520;  893.260
989.144;   71.256;  -14.860;  737.260
989.697;   70.308;  -13.080;  758.740
990.250;   72.087;  -10.150;  858.100
990.802;   71.598;  -13.430;  755.860
991.355;   71.194;  -12.750;  974.880
991.907;   68.733;  -12.040;  864.320
992.460;   66.273;  -11.330;  753.760
993.012;   65.643;  -13.610;  749.540
993.565;   64.011;  -13.460;  711.360
994.117;   66.982;   -9.360;  950.780
994.669;   62.911;  -11.300;  701.320
995.221;   60.949;  -13.540;  791.920
995.774;   58.772;  -13.430;  787.580
996.326;   57.493;  -12.520;  740.220
996.878;   57.171;  -10.950;  838.420
997.430;   55.023;  -14.300;  699.860
997.982;   53.656;  -13.760;  750.140
998.534;   53.130;  -11.530;  739.060
999.086;   52.340;  -10.310;  738.220
999.638;   51.217;  -12.530;  661.380
1000.190;   50.811;  -11.840;  699.320
1000.741;   50.324;  -10.260;  742.700
1001.293;   49.734;   -8.860;  686.020
1001.845;   48.747;  -13.700;  676.640
1002.396;   48.621;  -12.100;  743.400
1002.948;   47.693;  -12.760;  737.400
1003.500;   46.855;  -10.380;  723.780
1004.051;   46.828;  -11.900;  907.580
1004.603;   44.786;  -12.250;  791.820
1005.154;   40.612;  -13.210;  608.980
1005.705;   40.922;  -10.950;  723.960
1006.257;   40.274;  -13.880;  707.220
1006.808;   39.561;  -12.840;  685.460
1007.359;   38.955;  -10.570;  763.240
1007.910;   38.767;   -9.620;  646.640
1008.461;   38.155;  -13.630;  732.940
1009.013;   36.765;  -17.200;  588.340
1009.564;   38.016;  -10.200;  793.520
1010.115;   36.092;  -12.570;  597.040
1010.665;   35.884;  -15.150;  602.160
1011.216;   35.236;  -14.480;  667.920
1011.767;   35.006;  -11.340;  697.920
1012.318;   35.270;   -9.780;  736.980
1012.869;   34.459;  -12.380;  679.000
1013.419;   33.772;  -15.560;  603.120
1013.970;   33.883;  -11.010;  666.640
1014.521;   33.650;  -11.610;  620.620
1015.071;   34.416;  -13.450;  670.380
1015.622;   32.631;  -13.870;  635.460
1016.172;   31.968;  -11.610;  596.820
1016.723;   31.970;  -12.120;  614.380
1017.273;   31.824;  -13.620;  604.160
1017.823;   32.469;  -14.140;  650.340
1018.374;   31.479;  -12.800;  611.760
1018.924;   31.088;  -12.340;  716.880
1019.474;   31.242;  -11.410;  718.880
1020.024;   30.652;  -14.770;  657.580
1020.574;   31.345;   -9.780;  726.160
1021.124;   31.661;   -8.560;  673.580
1021.674;   29.888;  -15.190;  559.120
1022.224;   31.786;  -13.530;  708.940
1022.774;   31.376;  -13.280;  668.820
1023.324;   30.681;  -10.690;  753.520
1023.874;   32.665;  -10.240;  875.760
1024.423;   29.333;  -12.540;  613.700
1024.973;   29.840;  -10.010;  610.760
1025.523;   28.271;  -10.550;  620.960
1026.072;   27.966;  -13.560;  606.420
1026.622;   28.866;  -15.120;  675.740
1027.172;   29.225;  -11.260;  715.660
1027.721;   28.069;  -11.410;  601.220
1028.270;   28.535;  -13.530;  663.400
1028.820;   28.315;  -13.680;  638.080
1029.369;   27.244;  -13.520;  612.700
1029.918;   27.854;  -10.980;  649.840
1030.468;   27.338;  -13.530;  564.780
1031.017;   27.811;  -13.170;  634.800
1031.566;   27.074;  -12.200;  608.900
1032.115;   27.368;   -9.960;  694.500
1032.664;   26.176;  -13.210;  596.480
1033.213;   27.518;  -12.500;  735.420
1033.762;   26.545;  -11.910;  635.620
1034.311;   26.182;   -9.640;  677.220
1034.860;   26.456;  -13.310;  691.000
1035.408;   25.896;  -11.830;  722.720
1035.957;   26.484;  -12.000;  719.540
1036.506;   23.814;  -11.690;  530.800
1037.055;   26.098;  -10.990;  844.320
1037.603;   25.301;  -15.120;  664.000
1038.152;   23.090;  -12.450;  534.760
1038.700;   23.799;  -10.560;  585.740
1039.249;   24.531;  -11.080;  681.220
1039.797;   24.302;  -12.540;  633.360
1040.345;   23.972;  -11.920;  705.420
1040.894;   24.399;  -11.410;  625.300
1041.442;   23.004;  -14.320;  632.200
1041.990;   22.412;  -16.240;  559.160
1042.538;   22.252;  -11.680;  536.180
1043.087;   22.220;  -10.760;  570.860
1043.635;   23.585;  -11.850;  670.500
1044.183;   22.571;  -15.480;  586.400
1044.731;   21.986;  -11.770;  576.000
1045.279;   22.379;  -13.090;  674.920
1045.827;   24.210;  -12.440;  892.400
1046.374;   21.521;  -13.840;  515.420
1046.922;   20.735;  -13.220;  590.580
1047.470;   22.768;  -10.230;  691.300
1048.018;   22.133;  -14.590;  647.960
1048.565;   22.437;  -12.050;  708.600
1049.113;   20.589;  -11.650;  557.000
1049.660;   21.194;  -10.510;  629.660
1050.208;   21.077;  -13.310;  675.640
1050.755;   20.086;  -15.900;  606.580
1051.303;   20.945;  -11.430;  686.820
1051.850;   20.411;   -8.480;  635.120
1052.397;   19.092;  -15.010;  473.960
1052.945;   19.075;  -13.960;  617.760
1053.492;   21.369;  -13.150;  741.840
1054.039;   21.089;   -9.630;  720.180
1054.586;   19.780;  -13.680;  557.240
1055.133;   20.261;  -14.570;  693.140
1055.680;   20.094;  -13.820;  646.620
1056.227;   19.524;  -11.730;  542.780
1056.774;   20.383;  -12.480;  794.980
1057.321;   18.171;  -13.930;  523.260
1057.868;   18.314;  -11.690;  651.320
1058.415;   19.168;   -9.520;  651.980
1058.961;   18.547;  -13.160;  678.940
1059.508;   18.823;  -12.920;  643.820
1060.055;   18.751;  -11.920;  581.780
1060.601;   19.013;  -11.500;  624.300
1061.148;   18.472;  -14.330;  616.820
1061.694;   17.488;  -16.870;  592.580
1062.241;   17.677;  -10.330;  596.320
1062.787;   17.924;  -10.620;  663.140
1063.334;   19.912;  -10.110;  808.560
1063.880;   17.713;  -13.400;  668.360
1064.426;   17.983;  -10.680;  706.820
1064.972;   16.243;   -9.920;  601.340
1065.518;   16.681;  -10.980;  566.640
1066.065;   17.168;  -14.890;  624.460
1066.611;   15.512;  -12.870;  598.800
1067.157;   17.169;  -12.950;  641.860
1067.703;   16.808;  -13.540;  668.480
1068.249;   17.075;  -13.540;  605.220
1068.794;   16.405;  -12.600;  626.880
1069.340;   15.488;  -10.620;  578.960
1069.886;   15.649;  -12.830;  590.700
1070.432;   14.872;  -14.870;  541.720
1070.977;   15.425;  -11.980;  601.080
1071.523;   15.752;   -8.200;  573.060
1072.068;   15.842;  -12.330;  582.000
1072.614;   15.157;  -16.370;  527.760
1073.160;   16.070;  -11.100;  687.040
1073.705;   14.036;  -10.480;  572.520
1074.250;   14.283;  -14.520;  559.900
1074.796;   15.157;  -11.460;  655.160
1075.341;   15.625;  -11.950;  664.100
1075.886;   15.333;  -11.460;  594.240
1076.431;   14.256;  -13.770;  649.880
1076.976;   13.496;  -12.680;  639.220
1077.521;   13.489;  -13.170;  583.080
1078.067;   13.342;  -10.860;  579.400
1078.612;   14.176;  -13.920;  661.620
1079.156;   14.409;  -13.880;  601.540
1079.701;   14.699;  -13.120;  693.260
1080.246;   14.266;   -9.940;  696.300
1080.791;   13.947;  -14.740;  625.020
1081.336;   13.249;  -13.750;  659.320
1081.880;   13.439;  -13.400;  649.680
1082.425;   12.164;  -12.220;  573.480
1082.970;   14.096;  -11.610;  717.040
1083.514;   12.922;  -13.580;  597.000
1084.059;   11.331;  -12.810;  586.720
1084.603;   12.583;  -12.320;  565.840
1085.147;   12.727;  -13.190;  645.220
1085.692;   13.177;  -12.480;  716.800
1086.236;   11.375;  -13.020;  503.140
1086.780;   13.570;   -9.190;  751.440
1087.325;   12.662;  -12.480;  654.620
1087.869;   11.791;  -12.450;  610.700
1088.413;   12.564;  -12.240;  705.040
1088.957;   10.930;   -9.020;  543.400
1089.501;   12.579;  -10.320;  766.640
1090.045;   12.359;  -12.720;  726.480
1090.589;   10.585;  -13.690;  569.920
1091.133;   11.799;  -10.020;  673.340
1091.676;   11.188;  -12.330;  591.940
1092.220;   10.983;  -14.970;  600.920
1092.764;   12.103;  -12.430;  706.960
1093.307;   11.685;   -9.800;  673.780
1093.851;    9.948;  -14.970;  556.540
1094.395;   11.012;  -15.310;  683.140
1094.938;   10.248;  -10.370;  632.520
1095.482;   10.606;  -11.050;  559.800
1096.025;   10.974;  -11.840;  710.880
1096.568;   10.856;  -12.840;  779.280
1097.112;    8.414;  -14.700;  508.180
1097.655;   10.273;   -8.720;  603.000
1098.198;    8.661;  -13.610;  600.180
1098.741;    9.118;  -13.350;  612.860
1099.285;    9.770;  -11.230;  657.300
1099.828;    7.547;  -11.840;  439.400
1100.371;    9.475;  -10.840;  608.160
1100.914;    9.473;  -14.190;  682.660
1101.457;    9.447;  -11.240;  679.900
1101.999;    8.146;  -11.270;  584.680
1102.542;    9.810;  -11.480;  641.440
1103.085;    8.371;  -11.750;  658.500
1103.628;    9.118;  -11.400;  762.060
1104.170;    8.341;  -10.490;  588.280
1104.713;    8.763;  -10.600;  646.700
1105.256;    8.308;  -14.360;  557.440
1105.798;    7.504;  -13.210;  499.980
1106.341;    9.728;  -10.270;  728.900
1106.883;    8.322;  -12.200;  521.340
1107.425;    8.543;  -13.110;  668.180
1107.968;    7.437;  -12.840;  612.380
1108.510;    9.157;   -6.480;  684.960
1109.052;    6.623;  -13.940;  612.620
1109.594;    7.472;  -13.690;  554.440
1110.136;    7.800;  -11.880;  643.220
1110.679;    7.217;   -9.500;  633.080
1111.221;    8.392;  -14.160;  604.460
1111.763;    6.725;  -13.980;  559.220
1112.304;    6.868;  -13.880;  547.140
1112.846;    7.304;  -12.210;  666.240
1113.388;   10.329;  -11.390;  942.180
1113.930;    6.704;  -14.540;  694.200
1114.472;    5.934;  -12.640;  606.540
1115.013;    5.397;  -11.620;  551.280
1115.555;    6.701;  -13.640;  587.100
1116.097;    4.962;  -15.380;  579.480
1116.638;    6.171;  -12.640;  684.600
1117.180;    6.771;   -9.850;  667.740
1117.721;    5.876;  -13.690;  568.580
1118.262;    6.248;  -12.680;  677.960
1118.804;    5.983;  -12.530;  637.340
1119.345;    5.646;  -11.690;  578.400
1119.886;    6.348;  -13.380;  704.040
1120.427;    4.580;  -14.070;  589.020
1120.969;    5.129;  -13.500;  597.920
1121.510;    4.494;  -11.480;  563.060
1122.051;    5.030;  -12.830;  723.580
1122.592;    4.745;  -14.290;  655.420
1123.133;    4.033;  -12.400;  547.940
1123.673;    7.004;  -10.130;  706.480
1124.214;    5.480;  -12.930;  612.460
1124.755;    5.041;  -14.380;  639.460
1125.296;    4.841;  -14.000;  627.320
1125.836;    6.043;  -10.070;  691.500
1126.377;    4.451;  -12.640;  599.660
1126.918;    4.181;  -12.960;  614.980
1127.458;    3.924;  -13.350;  622.220
1127.999;    5.289;  -10.750;  656.980
1128.539;    4.313;  -12.350;  694.240
1129.079;    3.783;  -14.860;  632.720
1129.620;    3.073;  -13.840;  558.100
1130.160;    3.548;  -12.330;  539.480
1130.700;    5.035;  -14.530;  640.840
1131.240;    4.953;  -12.530;  643.700
1131.781;    3.239;  -14.450;  619.680
1132.321;    4.122;   -9.790;  599.120
1132.861;    2.770;  -14.860;  564.200
1133.401;    2.439;  -14.290;  593.940
1133.941;    3.343;  -11.750;  626.280
1134.481;    2.971;   -9.920;  597.580
1135.020;    2.626;  -12.290;  609.160
1135.560;    2.585;  -11.650;  674.940
1136.100;    2.550;  -16.270;  501.160
1136.640;    1.851;  -10.890;  510.480
1137.179;    2.776;  -14.180;  537.960
1137.719;    2.448;  -16.250;  605.400
1138.258;    2.539;  -14.230;  587.360
1138.798;    3.359;   -9.090;  663.780
1139.337;    1.134;  -15.130;  482.840
1139.877;    2.359;  -13.680;  642.360
1140.416;    4.397;  -11.320;  878.060
1140.955;    2.486;  -10.860;  535.380
1141.494;    2.927;  -12.920;  669.280
1142.034;    1.690;  -13.930;  583.520
1142.573;    3.175;  -11.440;  646.280
1143.112;    2.307;  -12.000;  553.480
1143.651;    1.314;  -13.670;  536.480
1144.190;    2.006;  -12.730;  691.640
1144.729;    1.502;  -14.560;  607.420
1145.267;    1.665;  -11.830;  584.900
1145.806;    2.502;  -12.230;  637.040
1146.345;    1.036;  -14.130;  635.020
1146.884;    1.346;  -11.590;  622.500
1147.422;    0.195;  -12.550;  533.060
1147.961;    2.790;  -11.180;  708.460
1148.500;    2.028;  -11.510;  669.720
1149.038;    1.982;  -11.640;  632.500
1149.577;    1.559;  -10.130;  698.640
1150.115;   -0.735;  -13.970;  452.280
1150.653;    0.962;  -14.520;  607.340
1151.192;    0.187;  -12.810;  552.920
1151.730;    1.613;   -9.100;  652.560
1152.268;    0.353;  -12.220;  589.520
1152.806;    0.679;  -14.140;  571.180
1153.344;   -0.891;  -12.350;  577.640
1153.882;    0.842;   -8.980;  600.060
1154.421;   -0.792;  -15.190;  470.620
1154.958;    0.235;  -15.210;  595.240
1155.496;    1.039;  -12.850;  645.280
1156.034;    0.462;   -9.940;  721.880
1156.572;    1.772;  -13.570;  667.060
1157.110;   -1.044;  -14.590;  473.940
1157.647;    0.961;  -13.030;  676.960
1158.185;   -0.431;  -12.140;  564.320
1158.723;   -1.128;  -14.390;  509.200
1159.260;   -0.016;  -14.090;  701.700
1159.798;    0.117;  -11.920;  658.160
1160.335;   -0.233;  -11.110;  631.820

