
Integration time [ms]:   3.276
Averaging Nr. [scans]: 1000
Smoothing Nr. [pixels]: 0
Data measured with spectrometer [name]: 7414430SP
Wave   ;Sample   ;Dark     ;Reference
[nm]   ;[counts] ;[counts] ;[counts] 

288.544;  150.217;    7.793;  793.890
289.143;  154.134;    7.462;  681.602
289.742;  154.655;    8.602;  828.814
290.341;  139.526;    1.321;  789.841
290.940;  128.419;   -0.709;  730.702
291.538;  129.634;    0.881;  881.108
292.137;  129.682;    0.122;  792.581
292.736;  134.337;   -1.929;  975.101
293.335;  130.639;   -8.229;  735.086
293.934;  130.295;   -5.279;  781.677
294.532;  129.826;   -1.369; 1031.958
295.131;  115.307;   -7.641;  834.394
295.730;  115.525;   -8.420;  809.588
296.328;  114.716;   -5.611;  783.442
296.927;  115.066;   -5.781;  779.652
297.525;  115.174;   -6.361;  781.236
298.124;  106.856;  -11.382;  654.009
298.722;  110.161;   -7.641;  761.933
299.321;  108.170;   -6.811;  708.597
299.919;  105.707;   -6.991;  751.918
300.518;  103.151;  -10.362;  689.338
301.116;  105.082;   -9.581;  691.381
301.715;  105.342;   -4.891;  730.222
302.313;  104.476;   -8.801;  704.943
302.911;   99.200;   -8.522;  733.830
303.509;  103.777;   -6.171;  925.627
304.108;  102.180;   -7.311;  760.383
304.706;  101.405;   -8.321;  801.664
305.304;   96.381;  -10.222;  796.707
305.902;  101.452;   -6.021;  784.484
306.500;   97.506;   -4.971;  728.200
307.098;   94.961;   -7.061;  746.560
307.696;   93.472;   -8.801;  780.432
308.294;   94.624;   -6.411;  731.359
308.892;   96.384;   -2.901;  759.769
309.490;   91.643;   -5.041;  712.161
310.088;   90.181;   -5.002;  788.444
310.686;   94.924;   -2.041;  821.749
311.284;   90.291;   -2.351;  766.040
311.882;   87.998;   -4.422;  731.225
312.480;   85.138;   -4.192;  697.167
313.078;   86.398;   -1.172;  808.331
313.675;   87.984;   -2.601;  691.600
314.273;   81.635;   -1.312;  797.837
314.871;   82.125;   -3.942;  589.829
315.468;   79.838;   -2.802;  652.090
316.066;   82.894;   -0.701;  694.427
316.664;   74.432;   -4.362;  656.351
317.261;   78.846;   -2.872;  910.128
317.859;   75.123;   -2.022;  768.735
318.456;   75.733;   -0.531;  830.096
319.054;   71.726;   -3.912;  787.828
319.651;   71.003;   -4.752;  759.928
320.249;   69.402;   -2.602;  810.188
320.846;   66.949;   -0.821;  714.286
321.443;   64.284;   -4.642;  832.135
322.041;   60.772;   -5.002;  812.315
322.638;   59.079;   -3.982;  701.456
323.235;   60.413;   -3.411;  665.683
323.833;   57.808;   -7.361;  740.354
324.430;   53.301;   -8.611;  615.900
325.027;   54.299;   -4.061;  876.855
325.624;   54.104;   -4.031;  644.532
326.221;   50.635;   -7.481;  689.717
326.818;   49.587;   -5.281;  818.332
327.415;   53.848;   -7.460;  748.828
328.012;   53.084;   -5.510;  690.585
328.609;   51.777;   -7.880;  731.389
329.206;   49.126;   -8.331;  778.621
329.803;   49.448;   -5.121;  737.841
330.400;   52.652;   -4.510;  704.260
330.997;   54.294;   -6.441;  817.147
331.594;   52.675;   -8.831;  788.185
332.191;   57.253;   -7.621;  728.722
332.787;   60.225;   -4.591;  844.463
333.384;   59.735;   -7.412;  763.093
333.981;   57.601;   -8.293;  815.687
334.578;   61.266;   -7.052;  708.378
335.174;   63.790;   -3.102;  731.469
335.771;   62.851;   -5.943;  836.456
336.367;   59.699;   -7.393;  710.631
336.964;   63.364;   -4.063;  793.266
337.561;   61.745;   -3.813;  731.112
338.157;   57.565;   -4.654;  911.916
338.754;   55.099;   -7.934;  796.589
339.350;   52.868;   -4.414;  722.493
339.946;   55.005;   -4.664;  773.135
340.543;   46.364;   -6.375;  846.136
341.139;   41.562;   -9.815;  720.836
341.735;   39.560;   -4.526;  772.593
342.332;   37.947;   -4.895;  691.472
342.928;   38.136;   -4.295;  795.394
343.524;   32.170;   -5.476;  761.684
344.120;   29.799;   -5.856;  738.562
344.716;   32.150;   -2.155;  723.717
345.313;   30.203;   -6.275;  795.342
345.909;   25.266;   -8.815;  627.336
346.505;   26.654;   -5.305;  740.247
347.101;   27.143;   -2.674;  827.864
347.697;   26.983;   -4.344;  785.398
348.293;   22.285;   -9.975;  627.244
348.889;   23.025;   -5.774;  745.914
349.485;   22.904;   -5.004;  688.205
350.081;   22.570;   -4.704;  772.592
350.676;   17.894;   -6.635;  691.606
351.272;   22.669;   -4.504;  809.530
351.868;   21.982;   -3.914;  780.497
352.464;   18.997;   -9.044;  723.932
353.059;   15.496;   -8.314;  646.017
353.655;   19.059;   -7.024;  777.063
354.251;   20.623;   -5.343;  759.845
354.846;   14.162;   -8.604;  740.646
355.442;   11.927;   -6.945;  753.071
356.038;   14.477;   -7.564;  751.708
356.633;   14.466;   -5.814;  728.594
357.229;   11.179;   -7.364;  724.757
357.824;   10.305;   -8.024;  703.600
358.420;    9.923;   -9.384;  679.726
359.015;    9.487;   -5.104;  695.357
359.610;   11.080;   -6.854;  763.920
360.206;    4.826;  -10.185;  603.240
360.801;    8.042;   -7.054;  646.503
361.396;   10.926;   -5.034;  725.975
361.992;    5.406;   -8.284;  668.220
362.587;    2.404;   -8.625;  670.160
363.182;    5.259;   -7.674;  689.631
363.777;    5.585;   -5.164;  738.242
364.372;    4.659;   -8.604;  737.314
364.967;    0.856;   -9.055;  680.744
365.563;    6.253;   -6.114;  815.567
366.158;    2.929;   -5.814;  685.161
366.753;    2.786;   -7.854;  649.263
367.348;    1.441;   -7.804;  746.056
367.942;    1.572;   -7.954;  697.298
368.537;    0.334;   -4.984;  754.245
369.132;    0.485;   -8.564;  703.428
369.727;   -3.063;   -8.855;  638.079
370.322;   -1.263;   -6.245;  580.186
370.917;   -2.173;   -6.425;  710.646
371.511;    0.073;   -6.294;  861.834
372.106;   -2.871;   -7.685;  776.964
372.701;   -5.947;   -7.335;  585.988
373.296;   -0.522;   -4.564;  863.135
373.890;   -4.573;  -10.235;  647.840
374.485;   -7.589;   -7.885;  691.199
375.079;   -4.006;   -7.324;  738.685
375.674;   -1.807;   -3.494;  812.970
376.268;   -6.493;   -8.525;  691.759
376.863;  -11.543;  -10.086;  580.327
377.457;   -6.213;   -7.025;  662.490
378.052;   -8.626;   -3.585;  764.884
378.646;   -8.792;   -7.595;  741.167
379.240;   -9.228;   -8.335;  721.176
379.835;   -7.440;   -5.785;  636.978
380.429;  -10.653;   -4.335;  562.557
381.023;  -10.933;   -6.805;  779.205
381.617;  -12.989;   -9.195;  680.106
382.212;   -9.197;   -6.905;  685.303
382.806;   -7.891;   -3.745;  760.690
383.400;  -13.177;   -7.745;  672.281
383.994;  -13.302;   -9.765;  664.870
384.588;   -9.319;   -6.564;  697.701
385.182;   -8.056;   -5.344;  726.624
385.776;  -10.009;   -8.514;  706.875
386.370;  -12.940;   -9.555;  681.968
386.964;  -11.850;   -8.715;  684.155
387.558;  -10.080;   -6.174;  598.360
388.152;  -14.384;   -8.725;  681.959
388.745;  -11.964;   -7.965;  814.707
389.339;  -10.368;   -5.924;  747.642
389.933;   -9.009;   -5.524;  695.370
390.527;  -10.723;   -7.114;  859.029
391.120;  -16.407;  -10.725;  595.318
391.714;  -13.642;   -8.035;  711.633
392.308;  -10.840;   -3.574;  780.253
392.901;  -14.855;   -7.245;  642.460
393.495;  -15.708;   -9.285;  595.414
394.089;  -13.779;   -5.895;  760.452
394.682;  -14.788;   -4.295;  697.188
395.275;  -15.311;   -9.875;  719.927
395.869;  -16.107;   -8.485;  667.314
396.462;  -14.868;   -7.455;  616.609
397.056;  -10.667;   -5.424;  776.621
397.649;  -15.472;   -6.605;  731.575
398.242;  -12.999;   -8.224;  712.645
398.836;  -12.156;   -7.474;  766.408
399.429;  -13.972;   -7.094;  631.041
400.022;  -17.104;   -9.475;  665.902
400.615;  -14.462;   -7.145;  805.609
401.208;  -12.638;   -7.174;  691.451
401.802;  -14.716;   -5.515;  699.329
402.395;  -16.093;   -9.875;  683.502
402.988;  -16.942;   -8.845;  696.627
403.581;  -13.452;   -8.874;  646.878
404.174;  -11.637;   -5.324;  686.568
404.767;  -14.603;   -9.575;  638.583
405.360;  -16.713;  -10.965;  621.445
405.953;  -10.916;   -8.764;  759.034
406.545;  -11.374;   -7.514;  725.342
407.138;  -15.507;  -10.025;  618.350
407.731;  -13.832;  -10.034;  613.303
408.324;  -10.122;   -9.374;  660.554
408.917;  -11.130;   -6.534;  681.864
409.509;  -12.435;   -8.004;  740.396
410.102;  -14.843;   -9.875;  643.948
410.695;   -8.800;   -8.604;  665.758
411.287;   -9.682;   -6.794;  599.821
411.880;  -11.265;   -9.334;  585.421
412.472;  -13.594;  -10.254;  613.092
413.065;  -10.786;   -6.714;  629.408
413.657;   -8.758;   -7.234;  576.678
414.250;   -8.750;  -10.544;  646.681
414.842;  -10.841;   -9.744;  676.353
415.434;   -8.685;   -6.994;  570.463
416.027;   -4.596;   -5.893;  652.196
416.619;   -6.691;   -7.264;  713.400
417.211;   -7.310;  -10.374;  599.352
417.804;   -3.027;   -7.993;  628.499
418.396;   -7.730;   -7.234;  607.643
418.988;   -4.828;   -9.443;  659.238
419.580;   -7.992;  -10.724;  568.276
420.172;   -6.249;  -10.323;  536.196
420.764;   -1.446;   -8.793;  672.482
421.356;   -3.774;  -11.143;  636.898
421.948;   -4.167;   -8.293;  677.661
422.540;    1.591;   -7.893;  680.027
423.132;    0.744;   -7.082;  600.641
423.724;   -3.663;   -8.653;  561.267
424.316;   -1.734;  -10.213;  621.345
424.908;    1.806;   -9.762;  591.517
425.500;    2.612;   -5.572;  647.978
426.092;    3.424;   -8.422;  648.268
426.683;    1.803;   -9.283;  684.836
427.275;    5.494;   -7.852;  641.471
427.867;    6.529;   -5.272;  668.948
428.458;    7.140;   -7.682;  732.344
429.050;    5.495;  -10.612;  680.749
429.642;    8.423;   -9.882;  743.124
430.233;    7.690;   -6.962;  569.356
430.825;    9.344;   -6.842;  724.809
431.416;    6.565;   -9.672;  698.241
432.008;   10.980;   -6.552;  651.723
432.599;   11.317;   -6.891;  656.073
433.190;    8.104;  -10.912;  637.670
433.782;    7.353;  -11.172;  590.395
434.373;   14.845;   -6.061;  884.765
434.964;   13.053;   -8.251;  602.920
435.556;   11.249;   -9.722;  634.537
436.147;   14.315;   -9.082;  758.490
436.738;   14.833;   -8.041;  701.099
437.329;   20.338;   -7.341;  721.723
437.920;   12.200;   -8.162;  666.688
438.511;   11.973;  -11.802;  564.526
439.103;   18.547;  -10.191;  623.998
439.694;   20.357;   -7.601;  681.583
440.285;   21.905;   -8.541;  764.432
440.876;   19.428;   -9.751;  845.738
441.466;   18.906;   -9.401;  575.162
442.057;   24.812;   -7.760;  665.814
442.648;   22.514;   -9.971;  746.255
443.239;   21.420;  -11.001;  620.477
443.830;   25.736;   -7.990;  704.958
444.421;   27.602;   -7.910;  655.474
445.011;   24.131;   -8.131;  693.619
445.602;   24.887;   -7.111;  743.126
446.193;   26.479;  -10.920;  488.117
446.783;   30.365;   -6.500;  640.397
447.374;   26.151;   -8.671;  692.759
447.964;   26.807;  -10.781;  713.770
448.555;   34.615;   -9.650;  822.742
449.145;   31.661;   -8.660;  662.853
449.736;   32.085;   -8.990;  803.179
450.326;   32.370;   -9.500;  713.626
450.917;   37.385;   -8.680;  675.324
451.507;   36.405;   -7.520;  600.661
452.097;   37.012;   -8.590;  746.267
452.688;   36.974;  -11.340;  742.160
453.278;   37.232;  -10.100;  566.840
453.868;   41.926;   -6.019;  793.550
454.458;   39.323;   -9.440;  651.141
455.048;   40.100;  -10.560;  711.783
455.639;   43.130;  -11.799;  567.096
456.229;   45.734;   -6.899;  710.694
456.819;   47.662;   -7.389;  751.158
457.409;   47.268;  -11.119;  773.993
457.999;   50.033;   -9.289;  737.505
458.589;   49.511;   -6.139;  686.606
459.179;   49.295;   -8.729;  717.658
459.769;   48.236;   -9.789;  627.099
460.358;   53.219;  -10.259;  797.262
460.948;   52.670;   -7.299;  689.503
461.538;   54.009;  -10.289;  660.677
462.128;   52.320;  -11.269;  664.934
462.717;   59.108;   -9.368;  710.326
463.307;   62.130;   -7.908;  705.846
463.897;   58.339;   -9.599;  656.942
464.486;   56.889;   -9.769;  837.128
465.076;   62.414;   -8.048;  733.776
465.666;   65.337;   -9.358;  652.900
466.255;   62.291;   -7.919;  785.651
466.845;   61.511;  -11.689;  666.749
467.434;   64.934;   -7.818;  725.873
468.023;   66.217;   -7.678;  658.357
468.613;   63.723;  -10.939;  713.946
469.202;   67.758;  -10.118;  646.507
469.791;   71.338;   -9.108;  737.811
470.381;   73.559;   -6.058;  742.813
470.970;   73.279;  -10.428;  711.099
471.559;   72.596;  -10.268;  733.291
472.148;   76.616;   -8.448;  675.737
472.738;   79.432;   -6.917;  765.466
473.327;   77.720;  -11.978;  637.529
473.916;   77.358;  -11.888;  737.446
474.505;   82.612;   -9.437;  751.703
475.094;   86.224;   -6.747;  806.570
475.683;   84.901;   -9.367;  797.699
476.272;   85.742;  -12.637;  730.632
476.861;   88.243;  -10.027;  706.754
477.449;   95.002;   -8.716;  728.487
478.038;   89.153;   -9.577;  692.513
478.627;   90.408;   -9.718;  714.852
479.216;   96.499;   -8.947;  769.441
479.805;   99.547;   -6.256;  783.375
480.393;   98.955;   -7.937; 1008.945
480.982;   98.416;   -7.717;  874.501
481.571;  104.667;   -9.266;  858.333
482.159;  105.390;   -7.636;  705.386
482.748;  104.429;   -9.667;  821.385
483.336;  109.769;  -10.376;  858.209
483.925;  109.867;   -7.147;  774.373
484.513;  117.410;   -7.996;  758.962
485.102;  112.325;  -10.027;  810.965
485.690;  121.850;  -10.446; 1011.050
486.278;  124.291;   -8.446;  979.329
486.867;  123.948;   -6.356;  809.662
487.455;  126.445;   -9.136;  898.229
488.043;  127.462;  -10.646;  748.361
488.631;  136.209;   -7.456; 1005.079
489.220;  139.608;   -6.636;  908.626
489.808;  139.176;  -11.036;  741.415
490.396;  147.483;  -10.246;  914.645
490.984;  153.387;   -8.556;  830.161
491.572;  162.254;   -5.886;  940.315
492.160;  167.658;   -9.486;  919.081
492.748;  179.626;  -10.976;  884.341
493.336;  201.664;   -8.776; 1019.693
493.924;  226.915;   -5.465;  958.077
494.512;  252.181;   -9.986; 1066.638
495.100;  290.254;  -10.636; 1103.280
495.687;  344.161;  -10.885; 1206.373
496.275;  404.360;   -8.126; 1150.796
496.863;  469.762;  -10.586; 1281.171
497.451;  568.198;  -11.926; 1386.805
498.038;  695.921;  -10.885; 1556.729
498.626;  795.474;   -6.315; 1741.407
499.214;  930.196;   -7.326; 2016.609
499.801; 1129.410;  -11.906; 2220.633
500.389; 1363.688;  -10.466; 2312.494
500.976; 1670.737;   -5.236; 2744.849
501.564; 2090.292;   -8.936; 3148.565
502.151; 2464.766;  -13.176; 3515.999
502.738; 2905.776;  -10.646; 3971.274
503.326; 3268.268;   -9.525; 4403.796
503.913; 3630.308;  -10.856; 5161.749
504.500; 3976.164;  -11.586; 5986.420
505.088; 4357.649;  -10.336; 6381.201
505.675; 4877.182;   -6.355; 6925.547
506.262; 5576.857;   -9.046; 7619.060
506.849; 6233.547;  -10.416; 8733.969
507.436; 6683.616;  -10.305; 9790.121
508.023; 7258.901;   -5.496; 9985.472
508.610; 7509.071;   -7.856;10434.618
509.197; 8135.977;  -10.097;11198.435
509.784; 9490.387;  -10.886;12391.194
510.371;10454.745;   -9.315;13603.713
510.958;11091.095;   -9.936;14426.586
511.545;11845.793;   -9.326;15243.775
512.132;12803.344;  -10.075;15945.876
512.719;13492.658;   -7.796;16340.369
513.305;14381.772;  -10.606;18011.766
513.892;15095.742;  -11.486;19754.971
514.479;16366.046;   -9.126;20967.805
515.066;17655.199;   -6.026;22299.793
515.652;18786.383;   -8.466;22908.660
516.239;20206.990;  -10.886;23798.875
516.825;21423.035;  -11.496;25567.275
517.412;22575.236;   -5.796;28154.959
517.998;23070.393;  -10.506;28344.111
518.585;22981.732;  -10.076;27134.219
519.171;23535.984;   -8.315;27268.576
519.758;25014.318;   -8.596;28964.129
520.344;26614.939;   -8.466;30664.494
520.930;26709.043;  -11.006;32550.605
521.516;28555.926;  -10.495;35422.895
522.103;30912.012;   -5.526;38280.004
522.689;31598.740;   -8.746;37835.117
523.275;30786.803;  -11.376;37288.613
523.861;31471.104;  -11.156;37281.395
524.447;32736.197;   -8.135;37846.949
525.033;32543.545;   -7.896;38321.949
525.619;32693.639;  -12.476;38579.285
526.205;34487.609;   -9.516;40622.875
526.791;36788.770;   -6.926;42258.836
527.377;36943.695;   -8.346;42966.902
527.963;38633.020;   -8.717;42018.949
528.549;36929.586;  -11.016;42476.828
529.135;35789.074;   -8.536;41854.852
529.721;35494.273;   -9.666;41237.711
530.306;34991.582;  -10.066;41259.445
530.892;34729.906;  -11.356;41506.047
531.478;36091.336;   -6.596;43559.613
532.063;38758.195;   -8.836;47695.563
532.649;38797.523;  -10.047;50808.324
533.235;39971.488;   -9.746;51787.500
533.820;41129.379;   -6.566;52145.035
534.406;42519.691;  -10.817;51133.488
534.991;42444.078;   -9.416;49996.805
535.576;41092.184;   -9.036;48882.852
536.162;41337.762;   -6.156;46942.285
536.747;42399.313;  -11.607;45711.746
537.333;46471.824;  -11.787;48510.180
537.918;48887.527;  -12.437;50439.891
538.503;47207.578;   -7.196;50863.711
539.088;44506.793;  -10.556;50906.922
539.673;44455.773;   -8.767;52621.965
540.259;44043.527;  -10.026;52368.094
540.844;41336.250;   -7.416;50879.109
541.429;42384.398;   -9.467;52077.777
542.014;45440.500;   -9.527;52716.695
542.599;44908.668;   -9.946;52363.281
543.184;43055.742;   -7.927;53187.137
543.769;44813.875;   -9.297;54697.605
544.354;43798.293;  -10.127;53913.914
544.938;42519.543;   -9.267;49680.164
545.523;44261.012;   -6.506;47386.277
546.108;46381.449;   -9.787;49151.949
546.693;48597.660;  -11.587;51384.637
547.278;48646.695;  -10.986;51853.254
547.862;45690.172;   -8.206;51173.750
548.447;41233.980;  -10.067;51691.395
549.031;40839.227;   -9.637;52456.703
549.616;45658.516;   -9.926;52714.516
550.201;44538.781;   -6.347;52414.598
550.785;45691.730;   -7.917;52355.059
551.370;44991.148;  -10.867;54589.453
551.954;45270.637;   -9.047;58267.348
552.538;46016.789;   -7.827;59062.176
553.123;44532.848;  -10.287;58115.285
553.707;42789.465;  -12.178;56556.285
554.291;43731.563;   -8.717;56201.668
554.876;45526.008;   -7.457;55335.762
555.460;46077.477;  -10.387;54155.703
556.044;47472.750;   -9.618;53721.484
556.628;45969.426;  -11.567;53731.016
557.212;44469.000;   -8.097;54312.531
557.796;43037.832;  -11.077;53797.773
558.380;42654.543;  -11.108;56145.984
558.964;42921.500;   -9.057;57277.930
559.548;43832.910;   -6.977;56459.641
560.132;42583.969;  -11.457;54434.543
560.716;41665.715;  -11.378;54800.617
561.300;42950.684;   -9.577;57606.945
561.884;43904.105;   -7.127;58972.445
562.467;42687.840;   -7.118;57327.570
563.051;41784.254;  -13.358;54962.434
563.635;42412.922;  -10.178;52594.473
564.219;42893.176;   -7.837;50610.410
564.802;43817.152;  -11.398;49551.180
565.386;44083.547;  -12.788;48370.953
565.969;43658.184;   -9.077;48178.871
566.553;43304.770;   -6.207;49957.305
567.136;43209.004;   -8.568;50369.594
567.720;39206.969;  -11.868;49492.004
568.303;37299.320;   -8.268;50616.352
568.887;37537.141;   -8.698;50727.148
569.470;37645.902;   -6.808;51698.379
570.053;36266.461;  -13.188;52122.078
570.637;34833.043;  -12.037;52536.438
571.220;34507.832;   -8.577;51186.098
571.803;34825.555;   -8.498;51032.762
572.386;37456.141;  -10.498;49609.887
572.969;39748.129;   -9.388;48285.926
573.552;37434.129;   -8.338;47624.285
574.135;36134.113;   -8.518;45498.641
574.718;33781.184;  -13.628;41970.434
575.301;32525.697;  -10.893;41447.137
575.884;31270.213;   -8.158;40923.836
576.467;32561.369;  -10.328;45267.723
577.050;34947.551;  -13.058;48175.543
577.633;35871.445;   -9.458;47729.328
578.216;33938.668;   -8.928;47579.793
578.799;32598.971;   -9.358;47820.996
579.381;31608.389;  -11.388;48115.551
579.964;31215.590;  -11.718;47333.766
580.547;33400.535;   -8.588;46668.969
581.129;34625.758;   -8.859;44466.141
581.712;35009.996;  -10.729;44164.922
582.294;35621.293;  -11.118;46477.855
582.877;35560.645;   -5.218;48244.254
583.459;33045.613;   -8.679;47437.895
584.042;31409.543;  -10.709;46943.219
584.624;32331.865;  -11.669;46792.227
585.206;31650.395;   -8.218;46557.250
585.789;31729.510;  -10.569;45793.773
586.371;34074.227;  -11.859;43836.391
586.953;33858.340;  -10.719;42972.492
587.536;34295.496;   -7.198;42487.211
588.118;32447.758;   -8.720;42086.414
588.700;27839.723;  -10.439;43389.930
589.282;26148.100;   -9.198;43646.039
589.864;28210.621;   -9.199;43438.109
590.446;31593.400;  -11.319;43151.926
591.028;33165.277;  -11.159;42781.867
591.610;33050.770;  -11.779;42839.098
592.192;31103.871;   -7.668;42820.402
592.774;29842.273;  -11.949;40724.277
593.356;28623.451;  -12.129;39874.789
593.937;27686.250;  -10.669;39980.648
594.519;29875.951;   -6.509;42069.633
595.101;31912.332;  -10.849;42976.031
595.683;31897.395;  -11.679;44084.441
596.264;33105.680;   -9.049;43478.797
596.846;32204.111;   -8.849;43803.672
597.427;31803.932;   -9.570;42986.934
598.009;33400.617;  -12.620;42832.219
598.591;33612.426;  -10.039;42580.086
599.172;32448.529;  -10.369;43061.805
599.753;32510.594;   -9.140;41691.469
600.335;34078.656;  -11.430;40692.520
600.916;32654.074;   -9.939;39982.422
601.498;30295.395;   -8.479;40318.617
602.079;28910.613;  -10.920;40670.609
602.660;29183.611;  -11.480;41450.898
603.241;30688.750;  -11.699;41137.738
603.823;29548.305;   -9.579;38868.797
604.404;29702.619;  -10.620;38182.785
604.985;30838.686;  -10.450;38078.047
605.566;30124.012;   -9.129;38056.633
606.147;30278.484;   -7.510;37020.418
606.728;32113.498;  -10.660;37883.359
607.309;30895.955;  -11.740;38748.273
607.890;30239.041;   -9.759;38850.230
608.471;29768.438;   -8.250;37457.918
609.051;28787.051;   -9.240;36066.457
609.632;27855.543;  -12.120;35991.074
610.213;28816.848;   -9.110;37402.641
610.794;29254.039;   -8.030;38383.363
611.374;28598.043;   -8.110;40562.387
611.955;28917.693;  -13.560;38533.727
612.536;30179.188;  -11.400;36951.789
613.116;30429.422;   -8.070;37197.891
613.697;30619.221;  -10.830;38411.125
614.277;29378.381;  -11.641;38673.938
614.858;30238.928;  -13.310;37075.863
615.438;29165.037;   -7.460;35092.906
616.019;26325.504;   -7.601;33666.301
616.599;27209.535;  -12.020;34189.023
617.179;29004.434;  -11.780;36952.047
617.760;29801.711;   -8.570;39582.574
618.340;30917.043;  -11.471;38943.977
618.920;32245.764;  -11.170;37594.156
619.500;32067.156;  -11.071;37866.938
620.080;31409.133;   -7.750;37869.043
620.660;32554.686;  -12.711;36868.617
621.241;33913.438;  -10.211;36352.309
621.821;33992.656;  -10.961;35459.520
622.401;32949.004;   -7.720;35207.414
622.980;32234.816;   -8.981;35980.422
623.560;30886.965;   -9.331;37351.328
624.140;29886.381;   -9.850;34388.582
624.720;24546.801;   -7.451;32368.764
625.300;21035.014;   -9.070;32638.629
625.880;24462.604;  -12.601;34599.035
626.459;28558.063;  -11.751;36831.738
627.039;31762.160;   -9.281;38299.098
627.619;31717.734;   -8.801;38289.574
628.198;29962.432;  -12.071;37220.695
628.778;29030.672;   -9.461;37632.563
629.357;29814.057;   -8.491;38003.012
629.937;29933.291;   -9.721;38402.039
630.516;29154.732;   -9.951;37868.801
631.096;28639.580;  -11.731;35760.410
631.675;32039.250;   -8.572;35225.219
632.254;37014.695;  -11.282;35130.289
632.834;36355.633;  -13.322;35794.570
633.413;34263.480;  -10.301;35788.922
633.992;31101.900;   -8.582;34532.863
634.571;31932.922;   -8.352;33590.113
635.151;34681.746;  -11.912;34943.863
635.730;33193.195;  -10.511;35352.523
636.309;30158.865;   -7.731;35366.605
636.888;28082.379;   -9.952;36165.637
637.467;29248.686;  -11.672;37515.902
638.046;30808.344;   -8.901;39288.695
638.625;33788.512;   -7.912;38279.699
639.204;33346.500;  -10.022;37741.598
639.782;31731.162;  -12.252;38364.551
640.361;27887.656;  -10.041;36740.621
640.940;25075.832;  -11.161;34950.082
641.519;25690.195;   -9.701;34137.398
642.097;28848.117;  -11.271;35654.258
642.676;31708.236;   -8.651;35637.957
643.255;31987.600;   -8.711;36567.074
643.833;31062.396;   -9.581;37809.434
644.412;31324.906;  -13.711;37337.293
644.990;30754.098;  -11.811;37018.531
645.569;31211.008;   -9.411;36518.469
646.147;29872.881;  -10.291;36186.430
646.726;28939.703;  -12.401;36267.688
647.304;29816.797;  -10.411;36647.625
647.882;32072.414;   -9.651;39286.742
648.461;33997.371;   -9.631;39157.703
649.039;32005.162;  -11.881;35412.883
649.617;31346.273;   -9.661;34744.918
650.195;31056.965;   -9.301;35403.098
650.773;29526.625;  -10.511;35053.797
651.352;27296.686;  -11.521;33756.816
651.930;25046.389;  -12.211;31868.773
652.508;23444.813;   -9.171;33121.551
653.086;27324.732;   -9.371;33564.793
653.663;29872.119;  -13.161;34054.668
654.241;29131.643;  -13.031;35693.309
654.819;30955.408;   -9.371;36422.906
655.397;31019.785;  -10.511;38213.484
655.975;30872.924;  -10.371;39507.625
656.553;30374.482;  -10.051;39498.223
657.130;28752.568;  -10.061;40395.480
657.708;28322.967;   -9.561;39242.020
658.286;28279.014;  -11.511;38920.020
658.863;29264.418;  -10.261;40202.898
659.441;32257.119;   -7.531;39677.938
660.018;31625.643;   -9.501;40413.355
660.596;30660.934;  -13.301;39931.414
661.173;32850.699;  -11.211;39604.531
661.750;33040.746;   -9.951;39700.070
662.328;31977.746;   -9.390;39292.809
662.905;30842.949;  -11.330;38235.648
663.482;26179.631;   -9.050;36212.305
664.060;24399.066;   -8.240;35944.945
664.637;27351.930;  -10.050;35170.785
665.214;29198.846;  -11.760;34197.523
665.791;30339.166;  -10.530;34549.520
666.368;29135.195;   -9.690;35118.578
666.945;30364.775;   -9.320;36019.418
667.522;31887.889;  -11.860;36048.438
668.099;31746.398;  -10.770;36243.914
668.676;30731.639;   -6.260;35958.875
669.253;29292.141;   -7.000;37384.730
669.830;29949.230;  -10.190;36779.629
670.407;29595.205;   -9.550;35231.289
670.984;29896.020;   -9.260;35544.270
671.560;30199.547;   -9.280;35466.867
672.137;28968.766;  -11.810;34280.863
672.714;29711.791;  -11.490;34632.863
673.290;30204.768;   -7.740;35135.422
673.867;30584.047;  -10.660;36114.480
674.443;30184.932;  -12.230;36152.859
675.020;28638.676;  -10.450;35327.238
675.596;29891.021;   -9.260;35795.176
676.173;30320.105;  -10.780;35430.355
676.749;30274.625;  -13.690;33549.516
677.326;30389.043;  -11.980;32210.012
677.902;30330.111;   -8.630;32068.871
678.478;29498.270;  -10.730;32583.891
679.054;29100.459;  -10.520;32088.928
679.631;29281.420;  -11.920;30978.848
680.207;30768.908;   -7.490;33160.887
680.783;32444.818;   -9.860;35570.363
681.359;31607.230;  -13.380;36125.184
681.935;30864.273;  -12.480;35240.922
682.511;29693.260;   -7.900;34429.961
683.087;29823.809;   -7.710;34463.680
683.663;29678.057;  -11.480;34648.898
684.239;28357.932;  -14.090;34546.457
684.815;28091.791;   -7.560;35586.375
685.390;28539.166;   -9.910;35821.895
685.966;29028.654;  -11.159;35085.871
686.542;31568.963;  -11.169;34198.230
687.118;33321.848;   -5.959;32847.707
687.693;33192.734;  -10.329;32794.027
688.269;32938.277;  -12.059;33072.367
688.844;31127.041;  -10.909;33141.664
689.420;28872.824;   -8.019;33965.742
689.995;26488.232;   -8.399;34655.523
690.571;25273.305;  -10.949;33576.742
691.146;25953.658;   -9.619;32657.219
691.722;25390.686;   -8.999;32526.979
692.297;25798.301;  -11.589;33014.617
692.872;27788.107;  -11.739;34012.254
693.448;26978.896;  -11.059;34237.434
694.023;26159.541;  -10.139;34142.672
694.598;28247.807;   -9.029;34132.031
695.173;28432.652;  -13.319;34205.250
695.748;27772.996;  -10.169;32882.488
696.323;27708.910;   -8.339;32864.906
696.898;27999.355;   -8.169;33170.004
697.473;27662.451;  -12.309;32432.984
698.048;27070.418;  -10.989;31649.303
698.623;27356.084;   -9.329;30778.141
699.198;29508.879;   -9.849;31140.119
699.773;30101.053;  -12.329;31764.299
700.348;28378.666;  -10.389;31780.816
700.922;28331.510;   -9.269;32046.375
701.497;28817.713;   -9.329;32603.574
702.072;28802.473;  -10.789;34799.871
702.646;27748.813;  -10.839;35793.172
703.221;26230.348;   -9.099;35201.590
703.795;28173.035;  -10.939;34764.527
704.370;28320.469;  -12.859;34307.367
704.944;28813.217;  -11.559;33509.887
705.519;29785.102;   -7.939;31388.584
706.093;31402.012;  -10.499;31340.104
706.668;31506.203;  -11.289;32630.281
707.242;30436.537;  -11.509;32728.779
707.816;28915.645;   -9.639;32947.238
708.390;27343.885;  -11.429;33277.855
708.965;28127.625;  -11.869;33834.336
709.539;28666.803;  -11.689;33709.273
710.113;29195.576;  -10.478;33044.313
710.687;28177.893;  -10.228;31953.992
711.261;26366.883;  -13.698;30505.949
711.835;26409.527;  -13.378;30262.369
712.409;27444.211;   -9.698;31254.447
712.983;29084.865;  -11.898;32754.986
713.557;29772.039;  -15.138;34018.824
714.131;29346.150;  -14.098;34579.625
714.704;28426.818;   -9.958;33890.262
715.278;26327.447;  -10.028;33531.102
715.852;25619.277;  -11.148;33601.660
716.425;26623.721;   -9.068;33515.117
716.999;27248.953;  -10.038;33185.555
717.573;28231.631;   -9.798;33905.996
718.146;29277.172;  -12.378;35199.293
718.720;28918.678;  -11.918;35060.551
719.293;28297.566;   -8.088;34973.230
719.867;31194.814;  -10.888;36394.449
720.440;30634.115;  -11.938;36663.008
721.013;28839.592;  -12.818;35102.426
721.587;27623.256;  -10.298;33985.266
722.160;26944.754;  -10.048;33524.965
722.733;26013.225;  -12.108;32987.043
723.306;26368.727;  -10.818;33066.301
723.880;28545.883;   -8.908;33399.500
724.453;29801.432;   -9.878;33468.297
725.026;28637.182;  -11.188;33816.637
725.599;26533.033;  -11.678;32797.996
726.172;27652.998;   -9.618;33187.434
726.745;28871.143;   -8.258;35136.613
727.318;30243.379;  -12.978;35751.730
727.891;30252.324;  -12.148;35890.430
728.463;29838.375;   -8.968;34822.090
729.036;28987.172;  -10.188;32895.086
729.609;29276.020;  -11.788;31823.225
730.182;26158.053;  -11.788;31445.283
730.754;23624.482;  -10.268;32373.223
731.327;23602.400;   -9.998;33676.820
731.900;24134.994;  -12.228;33417.000
732.472;25716.545;  -13.848;31978.498
733.045;27473.109;   -8.698;30368.777
733.617;27573.885;  -10.607;30574.215
734.190;26876.709;  -11.507;31280.975
734.762;23719.625;  -13.647;31674.412
735.334;22298.012;   -9.767;31247.291
735.907;23145.768;   -9.897;29876.211
736.479;23080.484;  -11.637;29808.488
737.051;22643.279;   -9.567;30233.547
737.623;23617.221;   -8.187;31469.086
738.195;24847.064;  -11.187;31784.225
738.768;27120.070;  -12.337;32120.523
739.340;26690.078;  -12.227;32094.342
739.912;25061.768;  -11.057;31312.680
740.484;23720.941;  -10.207;31946.238
741.056;23005.754;  -10.047;32984.059
741.628;24928.328;  -13.627;33897.715
742.199;27141.145;   -7.177;33213.016
742.771;25418.355;  -10.797;31369.113
743.343;23049.180;  -11.997;31865.473
743.915;22120.186;  -12.867;32388.631
744.487;22328.426;   -7.617;31079.568
745.058;22464.340;   -9.557;30570.107
745.630;22911.406;   -9.877;29970.127
746.201;23425.482;  -14.177;29186.766
746.773;23484.734;   -9.237;28805.723
747.344;23382.516;   -9.847;29591.223
747.916;22300.174;  -11.657;31412.201
748.487;22776.041;  -10.587;32194.898
749.059;23935.158;   -8.707;32533.719
749.630;24664.475;  -10.537;32158.518
750.201;23902.332;  -11.687;30855.395
750.773;22170.900;  -11.647;28622.555
751.344;22268.510;   -7.147;28405.732
751.915;23372.863;   -9.757;28461.551
752.486;22749.156;  -12.427;27842.850
753.057;20500.971;  -12.227;27845.008
753.628;19505.322;  -10.417;27728.107
754.199;20809.777;  -11.767;27381.086
754.770;21796.523;  -11.187;25882.203
755.341;21756.912;  -10.507;25886.184
755.912;21527.211;   -9.387;26050.861
756.483;20840.420;  -10.647;26798.779
757.054;18982.492;  -11.837;27048.238
757.625;17800.500;  -12.716;26294.838
758.195;17793.475;   -9.666;26142.076
758.766;17596.207;   -8.656;26392.234
759.337;18425.816;  -12.856;26334.594
759.907;20310.221;  -13.366;27579.652
760.478;21124.813;   -8.576;28352.770
761.048;20264.611;  -10.526;27325.088
761.619;19407.201;  -11.116;26460.428
762.189;19587.686;  -12.136;26029.826
762.760;20942.490;   -9.456;26430.145
763.330;21867.629;   -7.136;26670.902
763.900;21035.035;  -11.786;26603.021
764.471;18372.771;  -11.546;25542.740
765.041;17163.180;   -8.096;24358.459
765.611;17300.643;   -8.876;23991.297
766.181;17746.813;  -12.196;24470.236
766.751;18665.646;  -11.636;24845.975
767.321;18311.482;  -10.156;24533.633
767.891;16238.316;  -11.766;24916.492
768.461;15822.968;  -14.936;24776.771
769.031;16500.980;  -12.356;24757.988
769.601;17947.412;   -7.526;24181.088
770.171;17607.281;  -10.766;23670.387
770.741;17023.977;  -13.176;22960.045
771.311;17383.098;  -10.616;22917.523
771.880;17554.803;   -9.576;23562.941
772.450;17218.676;  -10.336;24216.500
773.020;17461.115;  -13.516;24140.398
773.589;16971.717;  -13.466;24414.857
774.159;16379.282;   -8.686;23858.717
774.729;15904.459;   -9.476;22942.135
775.298;15276.752;  -13.666;22324.033
775.867;14884.379;  -11.716;21140.313
776.437;14905.204;   -9.906;20838.092
777.006;14626.787;  -12.166;20599.510
777.576;14575.782;  -12.356;20508.809
778.145;14847.032;  -11.646;20732.947
778.714;14680.284;   -8.226;21062.465
779.283;13864.056;   -9.556;20949.664
779.853;13466.910;  -14.116;20508.623
780.422;13944.471;  -11.506;20649.082
780.991;13568.703;   -9.556;21527.520
781.560;12443.770;   -9.095;22632.658
782.129;12253.428;  -12.135;23048.277
782.698;12245.841;  -10.865;23438.555
783.267;11839.605;   -9.335;23267.734
783.836;11890.439;  -11.045;22415.133
784.404;12988.629;  -13.865;20443.152
784.973;13490.401;  -13.095;19699.150
785.542;13416.572;  -11.575;19763.828
786.111;13265.480;   -9.705;20341.408
786.679;12669.410;  -12.105;20207.967
787.248;12453.863;  -12.455;19516.465
787.817;12291.699;  -11.535;18900.363
788.385;11830.523;   -9.765;17879.121
788.954;11205.619;  -14.005;17658.301
789.522;10712.262;  -11.955;17788.879
790.090;11304.514;  -10.135;18118.277
790.659;11633.663;  -10.975;18338.736
791.227;11106.563;  -13.375;18508.615
791.795;11579.936;  -12.375;17898.254
792.364;11868.127;  -10.725;17295.133
792.932;12083.178;   -9.715;16822.051
793.500;12299.979;  -12.675;17040.148
794.068;12591.674;  -13.495;17179.787
794.636;12678.841;  -10.885;16664.246
795.204;12234.461;  -11.045;16524.545
795.772;12332.809;  -13.175;17274.564
796.340;11843.601;  -12.445;17891.002
796.908;11670.728;   -9.735;17648.561
797.476;11496.350;   -9.815;17064.080
798.044;11028.236;  -13.985;16672.777
798.612;10238.227;  -13.115;17023.996
799.180; 9862.552;  -10.185;16561.615
799.747; 9794.899;   -9.055;15962.773
800.315; 9549.891;  -12.385;15296.992
800.883; 9147.580;  -15.035;14801.771
801.450; 9076.381;  -10.365;14534.430
802.018; 9127.805;   -9.855;14173.248
802.585; 9325.641;  -11.905;14029.547
803.153; 9439.360;  -11.585;13836.846
803.720; 9247.209;   -9.095;13567.324
804.287; 8759.030;   -9.135;13360.622
804.855; 8357.784;  -11.604;13681.981
805.422; 8225.169;  -11.794;13536.560
805.989; 8197.589;  -10.734;13355.958
806.556; 8429.912;  -10.444;13747.896
807.124; 8717.609;  -12.764;13987.376
807.691; 8691.747;  -12.964;14038.674
808.258; 8435.701;  -11.134;14120.152
808.825; 8040.213;   -9.854;13860.111
809.392; 8068.594;  -10.504;13268.790
809.959; 7618.700;  -13.054;12680.389
810.526; 7256.546;   -8.294;12427.308
811.093; 7340.823;   -8.394;12030.105
811.659; 7878.869;  -12.304;11653.664
812.226; 8296.392;  -13.944;11637.183
812.793; 7925.123;  -10.484;11611.521
813.360; 7280.919;  -10.144;11885.181
813.926; 7017.590;  -11.684;12770.539
814.493; 6831.020;  -13.644;12677.638
815.060; 6492.202;   -9.724;11974.336
815.626; 6552.077;   -9.854;11594.715
816.193; 6957.291;  -13.254;11579.474
816.759; 6962.962;  -13.204;11666.972
817.325; 7023.383;   -9.434;11325.530
817.892; 7373.041;  -10.134;11105.369
818.458; 7769.382;  -13.474;10843.928
819.024; 7321.778;  -11.854;10714.406
819.591; 6981.693;  -10.244;10469.165
820.157; 6820.228;  -10.704;10235.523
820.723; 6396.202;  -12.324;10847.563
821.289; 6110.964;   -9.444;11040.980
821.855; 5970.949;   -8.374;10357.100
822.421; 5850.197;  -10.234; 9978.918
822.987; 5803.466;  -13.294; 9754.177
823.553; 5555.604;  -10.884;10065.755
824.119; 5435.420;   -8.884;10036.294
824.685; 5488.990;   -6.784;10029.192
825.251; 5549.262;  -12.004;10199.230
825.816; 5515.285;  -11.474; 9820.189
826.382; 5313.713;   -9.174; 9297.248
826.948; 5570.363;   -9.214; 9381.347
827.513; 5929.393;  -10.774; 9450.726
828.079; 5709.035;  -11.924; 9472.444
828.645; 5188.509;  -10.543; 9292.643
829.210; 5190.325;  -10.533; 9065.341
829.776; 5173.144;  -10.753; 9132.620
830.341; 5030.948;  -10.173; 9092.878
830.906; 5220.234;  -10.743; 9078.557
831.472; 5511.738;  -11.113; 8534.535
832.037; 5167.991;  -10.603; 8677.874
832.602; 4599.220;  -13.323; 8628.692
833.167; 4373.988;  -10.823; 8879.031
833.733; 4322.346;  -10.113; 9189.790
834.298; 4434.942;  -13.583; 9052.608
834.863; 4463.632;  -12.703; 8895.087
835.428; 4441.746;  -10.523; 8824.266
835.993; 4349.085;   -6.963; 8845.385
836.558; 4248.735;  -10.763; 8888.563
837.123; 4416.281;   -9.903; 8966.582
837.688; 4633.261;   -9.913; 8617.860
838.253; 4818.995;  -10.283; 8590.699
838.817; 4984.707;  -12.963; 8443.797
839.382; 4864.819;  -14.243; 8799.356
839.947; 4527.711;  -10.733; 8810.595
840.511; 4193.363;   -9.383; 8796.394
841.076; 3828.092;  -12.563; 8347.231
841.641; 3930.776;  -12.953; 8224.330
842.205; 4051.926;   -7.043; 8223.349
842.770; 4219.018;   -8.163; 8622.107
843.334; 4425.674;  -12.503; 8410.386
843.898; 4407.405;  -11.693; 8337.465
844.463; 4438.021;  -10.203; 8506.283
845.027; 4196.237;   -9.533; 8280.962
845.591; 4021.195;  -13.443; 8231.141
846.156; 3964.166;  -13.143; 7969.179
846.720; 3826.386;   -9.433; 7768.278
847.284; 3685.674;  -11.033; 7630.957
847.848; 3543.492;  -10.403; 7472.395
848.412; 3431.046;  -11.553; 7437.394
848.976; 3466.464;   -8.393; 7674.592
849.540; 3424.639;   -8.713; 7836.011
850.104; 3580.142;  -12.463; 7913.669
850.668; 3923.979;  -12.973; 7694.508
851.232; 3989.175;  -10.793; 7756.887
851.796; 3821.785;  -10.662; 7926.545
852.359; 3530.442;  -13.082; 7827.844
852.923; 3378.281;  -12.192; 7641.163
853.487; 3197.830;  -11.912; 7342.501
854.050; 3136.748;  -10.892; 7042.820
854.614; 3248.694;  -13.992; 7151.338
855.177; 3360.146;  -11.732; 7105.077
855.741; 3397.876;   -8.962; 6989.675
856.304; 3306.814;   -9.442; 6596.634
856.868; 3261.274;  -14.192; 6356.272
857.431; 3382.069;  -12.702; 6468.571
857.995; 3527.730;   -9.942; 6373.210
858.558; 3531.732;   -9.112; 6324.448
859.121; 3253.232;  -12.932; 6408.327
859.684; 3133.644;  -13.442; 6347.886
860.247; 3216.961;  -10.632; 6321.264
860.810; 3179.608;  -11.272; 6301.903
861.374; 2916.772;   -9.832; 6607.881
861.937; 2674.868;  -11.762; 6408.200
862.500; 2684.311;   -9.722; 6572.639
863.062; 2873.701;  -10.512; 6387.297
863.625; 3034.690;  -11.232; 6190.836
864.188; 3193.812;  -14.112; 5807.254
864.751; 3258.440;  -11.302; 5682.413
865.314; 3139.320;  -10.112; 5547.492
865.876; 2949.551;  -12.182; 5500.150
866.439; 2955.758;  -10.722; 5415.909
867.002; 2891.162;   -9.252; 5501.567
867.564; 2662.179;   -9.572; 5413.946
868.127; 2423.884;  -13.142; 5160.325
868.689; 2319.944;  -12.902; 5133.183
869.252; 2217.292;   -9.732; 5252.382
869.814; 2126.382;   -9.432; 5297.141
870.377; 2154.565;  -11.552; 5390.919
870.939; 2236.750;   -9.052; 5599.898
871.501; 2290.337;  -10.982; 5248.336
872.063; 2279.790;  -12.292; 4854.235
872.626; 2245.634;  -14.912; 4817.074
873.188; 2287.505;  -13.112; 4987.732
873.750; 2252.981;  -13.442; 4868.651
874.312; 2159.961;   -9.402; 4779.330
874.874; 2060.969;  -11.062; 4866.348
875.436; 1965.014;  -13.931; 4718.887
875.998; 1952.969;   -9.561; 4660.005
876.560; 1969.413;  -11.321; 4462.964
877.122; 1911.651;  -12.221; 4145.042
877.683; 1830.424;  -12.191; 4056.481
878.245; 1764.699;  -12.101; 3950.740
878.807; 1805.795;   -8.971; 4058.958
879.369; 1825.303;  -12.071; 3954.677
879.930; 1725.042;  -14.621; 3941.495
880.492; 1665.878;  -10.311; 4067.014
881.053; 1620.059;  -10.901; 3859.633
881.615; 1499.608;  -14.411; 3776.071
882.176; 1405.427;  -13.761; 3734.750
882.738; 1364.457;   -9.181; 3678.489
883.299; 1341.106;  -11.791; 3405.407
883.860; 1353.482;  -13.121; 3351.106
884.422; 1351.090;  -11.211; 3394.044
884.983; 1294.999;  -10.091; 3166.443
885.544; 1207.218;   -8.461; 3189.802
886.105; 1125.700;  -12.361; 3160.360
886.666; 1061.638;  -14.141; 3093.059
887.227; 1008.917;  -11.361; 2941.957
887.788;  946.641;  -11.401; 2974.836
888.349;  882.694;  -13.791; 2721.214
888.910;  883.903;  -13.191; 2696.493
889.471;  893.680;   -9.881; 2560.172
890.032;  870.756;   -9.881; 2558.190
890.593;  847.750;  -10.371; 2567.669
891.153;  822.116;  -13.301; 2460.307
891.714;  768.337;  -11.431; 2372.046
892.275;  723.768;  -11.291; 2309.505
892.835;  678.076;  -11.471; 2382.543
893.396;  619.918;  -11.541; 2295.502
893.956;  564.174;  -11.181; 2162.420
894.517;  528.757;  -11.741; 2125.439
895.077;  527.303;  -11.671; 2086.978
895.638;  528.335;  -11.311; 2126.316
896.198;  499.023;   -9.831; 1838.275
896.758;  455.641;   -8.421; 1892.813
897.319;  424.677;  -12.351; 1792.232
897.879;  406.875;  -13.511; 1762.751
898.439;  380.737;  -12.001; 1661.149
898.999;  356.621;  -10.180; 1781.468
899.559;  346.179;  -12.030; 1703.347
900.119;  340.279;  -15.710; 1537.525
900.679;  335.959;   -8.900; 1638.384
901.239;  321.859;   -8.340; 1527.902
901.799;  312.395;  -13.910; 1456.441
902.359;  307.364;  -13.460; 1357.140
902.919;  300.013;  -11.490; 1331.118
903.479;  286.719;  -12.110; 1317.257
904.038;  265.228;  -11.720; 1262.595
904.598;  250.518;  -13.610; 1152.034
905.158;  247.626;  -11.040; 1240.893
905.717;  238.996;  -10.900; 1233.691
906.277;  227.299;  -15.080; 1217.330
906.836;  217.680;  -13.380; 1222.408
907.396;  209.363;  -10.780; 1193.047
907.955;  201.959;   -8.500; 1182.526
908.515;  195.831;  -12.760; 1099.364
909.074;  188.893;  -11.900; 1092.863
909.633;  184.345;   -8.950; 1069.121
910.192;  179.506;   -8.770; 1196.460
910.752;  173.010;  -12.390; 1029.960
911.311;  169.046;  -13.680; 1009.780
911.870;  168.534;  -12.370;  971.460
912.429;  169.617;  -10.900; 1094.080
912.988;  167.694;  -11.690; 1081.060
913.547;  162.808;  -13.240;  940.380
914.106;  156.846;  -11.990;  999.420
914.665;  154.741;   -9.990;  984.020
915.224;  153.953;  -12.880; 1035.760
915.782;  154.238;  -12.350;  922.560
916.341;  153.807;   -9.110; 1049.840
916.900;  149.693;   -9.270;  925.260
917.458;  146.943;  -13.240;  884.220
918.017;  147.408;  -13.550;  942.600
918.576;  147.515;  -12.320;  904.440
919.134;  145.273;  -11.490;  837.980
919.693;  142.091;  -13.670;  893.060
920.251;  140.210;  -15.470;  876.500
920.809;  139.853;  -11.290;  839.580
921.368;  139.114;  -10.210;  885.360
921.926;  138.429;  -12.140;  842.940
922.484;  137.193;  -13.080;  903.360
923.042;  136.699;  -11.720;  880.340
923.601;  140.136;   -7.480;  998.680
924.159;  137.215;  -11.570;  935.560
924.717;  134.800;  -13.840;  841.080
925.275;  135.185;  -10.640;  903.240
925.833;  134.503;  -11.540;  779.320
926.391;  135.946;  -12.960;  938.380
926.949;  133.104;  -14.130;  857.680
927.506;  134.378;  -11.750;  903.500
928.064;  134.131;  -10.250;  877.580
928.622;  133.157;  -13.030;  880.100
929.180;  133.119;  -13.400;  814.180
929.737;  134.858;  -10.700;  808.540
930.295;  138.924;  -10.070;  928.480
930.853;  138.713;  -11.960;  849.100
931.410;  140.665;  -13.120;  821.120
931.968;  140.854;  -10.770;  940.660
932.525;  140.170;  -10.680;  909.380
933.082;  140.309;  -13.130;  811.440
933.640;  140.370;  -13.210;  925.900
934.197;  138.966;  -11.060;  886.360
934.754;  140.841;   -9.580;  897.780
935.312;  144.206;  -14.000;  863.340
935.869;  147.970;  -10.710; 1012.980
936.426;  148.395;   -9.860;  872.800
936.983;  150.494;   -9.710;  889.020
937.540;  148.530;  -13.990;  838.280
938.097;  146.477;  -14.040;  940.120
938.654;  146.513;  -10.310;  898.860
939.211;  150.864;  -10.560;  952.480
939.768;  153.772;  -13.900;  915.420
940.324;  157.312;  -14.760;  904.200
940.881;  158.446;  -10.370;  878.500
941.438;  158.500;   -8.260; 1021.200
941.995;  154.106;  -12.540;  992.560
942.551;  152.056;  -14.670;  875.620
943.108;  153.253;  -10.450;  937.920
943.664;  155.722;  -10.750;  869.340
944.221;  159.901;  -11.550; 1088.140
944.777;  156.760;  -14.770;  869.680
945.334;  158.033;  -12.820;  884.840
945.890;  159.463;  -10.130;  946.480
946.446;  159.633;  -13.470;  947.020
947.003;  161.467;  -12.120;  964.940
947.559;  164.345;   -9.980; 1063.040
948.115;  163.537;   -9.080; 1026.540
948.671;  162.993;  -10.830;  967.300
949.227;  159.845;  -12.440;  859.560
949.783;  157.221;  -12.910;  858.900
950.339;  158.381;  -10.270;  991.000
950.895;  159.126;  -13.630; 1023.840
951.451;  158.385;  -15.100;  925.280
952.007;  159.574;  -11.330;  998.540
952.563;  158.266;  -10.580;  937.780
953.118;  158.747;  -13.440;  904.940
953.674;  158.457;  -12.710;  935.780
954.230;  158.305;  -10.350;  949.640
954.785;  156.311;   -9.190;  936.640
955.341;  152.778;  -11.200;  998.160
955.897;  150.977;  -16.560;  834.660
956.452;  153.490;  -12.570;  953.840
957.008;  153.020;   -7.970; 1083.640
957.563;  150.606;  -11.940; 1009.540
958.118;  145.647;  -13.450;  877.700
958.674;  147.096;  -12.030;  946.780
959.229;  147.641;   -9.410; 1013.980
959.784;  146.141;  -12.000;  832.400
960.339;  145.121;  -14.780; 1001.280
960.894;  141.113;   -9.860;  963.760
961.449;  136.465;   -9.970;  859.960
962.004;  136.317;  -10.900; 1212.840
962.559;  130.853;  -13.150;  860.140
963.114;  129.058;  -13.740;  742.480
963.669;  129.647;   -9.820;  915.500
964.224;  126.524;  -13.890;  874.340
964.779;  126.809;  -12.600;  828.420
965.334;  127.807;  -10.950; 1017.860
965.888;  127.182;  -11.170;  875.360
966.443;  130.326;  -12.540;  972.380
966.998;  128.959;  -15.780;  819.460
967.552;  128.284;   -9.760;  908.380
968.107;  124.497;   -9.060;  868.300
968.661;  125.736;  -11.950;  922.440
969.216;  126.091;  -12.800;  856.280
969.770;  127.056;  -11.210;  917.200
970.324;  125.958;  -11.610;  923.140
970.879;  122.807;  -11.370;  947.180
971.433;  120.688;  -12.540;  952.720
971.987;  115.643;  -11.320;  895.340
972.541;  113.142;  -10.720;  917.100
973.095;  111.349;   -9.680; 1009.460
973.649;  105.573;  -11.440;  809.480
974.203;   97.987;  -11.210;  829.040
974.757;   89.949;  -10.240;  855.220
975.311;   83.876;  -13.720;  872.600
975.865;   80.287;  -13.770;  881.820
976.419;   80.224;  -11.690;  857.400
976.973;   82.458;   -9.510;  849.620
977.526;   85.585;  -12.620;  949.920
978.080;   87.421;  -12.010;  796.780
978.634;   90.120;  -10.170;  921.320
979.187;   88.901;   -9.020;  905.400
979.741;   88.577;   -9.820; 1018.380
980.294;   84.404;  -14.870;  789.160
980.848;   82.702;  -12.380;  717.220
981.401;   85.978;  -10.350;  816.540
981.955;   88.362;  -13.720;  844.300
982.508;   86.763;  -11.490;  746.340
983.061;   87.875;  -10.000;  915.260
983.615;   85.119;  -11.480;  798.800
984.168;   82.086;  -13.220;  770.080
984.721;   82.226;  -13.960;  880.760
985.274;   81.742;  -10.870;  867.500
985.827;   80.391;   -9.790;  834.220
986.380;   78.882;  -13.120;  721.340
986.933;   77.835;  -12.450;  864.800
987.486;   77.100;  -10.210;  861.920
988.039;   75.807;   -8.430;  863.100
988.591;   73.966;  -10.520;  893.260
989.144;   71.579;  -14.860;  737.260
989.697;   70.965;  -13.080;  758.740
990.250;   71.756;  -10.150;  858.100
990.802;   70.715;  -13.430;  755.860
991.355;   72.045;  -12.750;  974.880
991.907;   70.119;  -12.040;  864.320
992.460;   68.193;  -11.330;  753.760
993.012;   67.032;  -13.610;  749.540
993.565;   66.190;  -13.460;  711.360
994.117;   68.023;   -9.360;  950.780
994.669;   64.850;  -11.300;  701.320
995.221;   62.292;  -13.540;  791.920
995.774;   60.726;  -13.430;  787.580
996.326;   59.350;  -12.520;  740.220
996.878;   58.880;  -10.950;  838.420
997.430;   55.214;  -14.300;  699.860
997.982;   53.338;  -13.760;  750.140
998.534;   52.133;  -11.530;  739.060
999.086;   50.996;  -10.310;  738.220
999.638;   50.448;  -12.530;  661.380
1000.190;   50.112;  -11.840;  699.320
1000.741;   51.052;  -10.260;  742.700
1001.293;   50.580;   -8.860;  686.020
1001.845;   48.845;  -13.700;  676.640
1002.396;   50.041;  -12.100;  743.400
1002.948;   49.201;  -12.760;  737.400
1003.500;   47.853;  -10.380;  723.780
1004.051;   47.828;  -11.900;  907.580
1004.603;   46.379;  -12.250;  791.820
1005.154;   43.316;  -13.210;  608.980
1005.705;   42.318;  -10.950;  723.960
1006.257;   41.193;  -13.880;  707.220
1006.808;   40.599;  -12.840;  685.460
1007.359;   41.267;  -10.570;  763.240
1007.910;   39.490;   -9.620;  646.640
1008.461;   39.359;  -13.630;  732.940
1009.013;   38.515;  -17.200;  588.340
1009.564;   40.067;  -10.200;  793.520
1010.115;   37.213;  -12.570;  597.040
1010.665;   36.978;  -15.150;  602.160
1011.216;   37.421;  -14.480;  667.920
1011.767;   36.323;  -11.340;  697.920
1012.318;   37.258;   -9.780;  736.980
1012.869;   35.913;  -12.380;  679.000
1013.419;   35.281;  -15.560;  603.120
1013.970;   35.838;  -11.010;  666.640
1014.521;   34.840;  -11.610;  620.620
1015.071;   34.928;  -13.450;  670.380
1015.622;   35.007;  -13.870;  635.460
1016.172;   34.402;  -11.610;  596.820
1016.723;   33.677;  -12.120;  614.380
1017.273;   32.832;  -13.620;  604.160
1017.823;   33.645;  -14.140;  650.340
1018.374;   33.555;  -12.800;  611.760
1018.924;   33.624;  -12.340;  716.880
1019.474;   33.546;  -11.410;  718.880
1020.024;   32.056;  -14.770;  657.580
1020.574;   32.831;   -9.780;  726.160
1021.124;   32.747;   -8.560;  673.580
1021.674;   31.382;  -15.190;  559.120
1022.224;   32.729;  -13.530;  708.940
1022.774;   32.098;  -13.280;  668.820
1023.324;   32.661;  -10.690;  753.520
1023.874;   33.593;  -10.240;  875.760
1024.423;   30.901;  -12.540;  613.700
1024.973;   30.657;  -10.010;  610.760
1025.523;   29.743;  -10.550;  620.960
1026.072;   29.071;  -13.560;  606.420
1026.622;   29.328;  -15.120;  675.740
1027.172;   30.802;  -11.260;  715.660
1027.721;   29.300;  -11.410;  601.220
1028.270;   30.035;  -13.530;  663.400
1028.820;   29.634;  -13.680;  638.080
1029.369;   29.166;  -13.520;  612.700
1029.918;   29.332;  -10.980;  649.840
1030.468;   28.009;  -13.530;  564.780
1031.017;   29.125;  -13.170;  634.800
1031.566;   27.750;  -12.200;  608.900
1032.115;   29.022;   -9.960;  694.500
1032.664;   27.172;  -13.210;  596.480
1033.213;   27.036;  -12.500;  735.420
1033.762;   27.821;  -11.910;  635.620
1034.311;   27.499;   -9.640;  677.220
1034.860;   27.924;  -13.310;  691.000
1035.408;   27.340;  -11.830;  722.720
1035.957;   27.349;  -12.000;  719.540
1036.506;   25.546;  -11.690;  530.800
1037.055;   27.757;  -10.990;  844.320
1037.603;   26.015;  -15.120;  664.000
1038.152;   24.163;  -12.450;  534.760
1038.700;   25.592;  -10.560;  585.740
1039.249;   25.138;  -11.080;  681.220
1039.797;   25.350;  -12.540;  633.360
1040.345;   26.008;  -11.920;  705.420
1040.894;   25.085;  -11.410;  625.300
1041.442;   24.845;  -14.320;  632.200
1041.990;   23.830;  -16.240;  559.160
1042.538;   23.586;  -11.680;  536.180
1043.087;   24.230;  -10.760;  570.860
1043.635;   25.477;  -11.850;  670.500
1044.183;   23.604;  -15.480;  586.400
1044.731;   23.552;  -11.770;  576.000
1045.279;   23.253;  -13.090;  674.920
1045.827;   25.076;  -12.440;  892.400
1046.374;   22.218;  -13.840;  515.420
1046.922;   22.119;  -13.220;  590.580
1047.470;   23.670;  -10.230;  691.300
1048.018;   22.909;  -14.590;  647.960
1048.565;   23.645;  -12.050;  708.600
1049.113;   22.368;  -11.650;  557.000
1049.660;   22.087;  -10.510;  629.660
1050.208;   22.948;  -13.310;  675.640
1050.755;   22.188;  -15.900;  606.580
1051.303;   23.074;  -11.430;  686.820
1051.850;   21.098;   -8.480;  635.120
1052.397;   19.843;  -15.010;  473.960
1052.945;   20.950;  -13.960;  617.760
1053.492;   22.968;  -13.150;  741.840
1054.039;   22.139;   -9.630;  720.180
1054.586;   21.126;  -13.680;  557.240
1055.133;   21.854;  -14.570;  693.140
1055.680;   20.576;  -13.820;  646.620
1056.227;   20.073;  -11.730;  542.780
1056.774;   21.267;  -12.480;  794.980
1057.321;   19.255;  -13.930;  523.260
1057.868;   19.911;  -11.690;  651.320
1058.415;   20.217;   -9.520;  651.980
1058.961;   20.243;  -13.160;  678.940
1059.508;   20.585;  -12.920;  643.820
1060.055;   19.312;  -11.920;  581.780
1060.601;   20.277;  -11.500;  624.300
1061.148;   19.621;  -14.330;  616.820
1061.694;   18.335;  -16.870;  592.580
1062.241;   19.034;  -10.330;  596.320
1062.787;   19.349;  -10.620;  663.140
1063.334;   20.464;  -10.110;  808.560
1063.880;   18.607;  -13.400;  668.360
1064.426;   17.966;  -10.680;  706.820
1064.972;   18.183;   -9.920;  601.340
1065.518;   16.481;  -10.980;  566.640
1066.065;   18.285;  -14.890;  624.460
1066.611;   18.137;  -12.870;  598.800
1067.157;   18.561;  -12.950;  641.860
1067.703;   17.098;  -13.540;  668.480
1068.249;   17.906;  -13.540;  605.220
1068.794;   17.254;  -12.600;  626.880
1069.340;   16.938;  -10.620;  578.960
1069.886;   17.251;  -12.830;  590.700
1070.432;   15.811;  -14.870;  541.720
1070.977;   16.305;  -11.980;  601.080
1071.523;   16.629;   -8.200;  573.060
1072.068;   16.730;  -12.330;  582.000
1072.614;   16.323;  -16.370;  527.760
1073.160;   17.585;  -11.100;  687.040
1073.705;   15.506;  -10.480;  572.520
1074.250;   15.274;  -14.520;  559.900
1074.796;   17.177;  -11.460;  655.160
1075.341;   16.912;  -11.950;  664.100
1075.886;   15.738;  -11.460;  594.240
1076.431;   15.176;  -13.770;  649.880
1076.976;   15.100;  -12.680;  639.220
1077.521;   14.911;  -13.170;  583.080
1078.067;   14.556;  -10.860;  579.400
1078.612;   15.083;  -13.920;  661.620
1079.156;   15.355;  -13.880;  601.540
1079.701;   16.186;  -13.120;  693.260
1080.246;   15.358;   -9.940;  696.300
1080.791;   14.176;  -14.740;  625.020
1081.336;   14.201;  -13.750;  659.320
1081.880;   15.016;  -13.400;  649.680
1082.425;   14.096;  -12.220;  573.480
1082.970;   15.422;  -11.610;  717.040
1083.514;   13.945;  -13.580;  597.000
1084.059;   13.254;  -12.810;  586.720
1084.603;   13.797;  -12.320;  565.840
1085.147;   13.313;  -13.190;  645.220
1085.692;   14.385;  -12.480;  716.800
1086.236;   12.640;  -13.020;  503.140
1086.780;   14.805;   -9.190;  751.440
1087.325;   13.853;  -12.480;  654.620
1087.869;   13.033;  -12.450;  610.700
1088.413;   13.634;  -12.240;  705.040
1088.957;   11.873;   -9.020;  543.400
1089.501;   13.358;  -10.320;  766.640
1090.045;   12.245;  -12.720;  726.480
1090.589;   11.438;  -13.690;  569.920
1091.133;   12.779;  -10.020;  673.340
1091.676;   12.199;  -12.330;  591.940
1092.220;   12.122;  -14.970;  600.920
1092.764;   12.492;  -12.430;  706.960
1093.307;   12.762;   -9.800;  673.780
1093.851;   11.137;  -14.970;  556.540
1094.395;   12.537;  -15.310;  683.140
1094.938;   11.592;  -10.370;  632.520
1095.482;   11.826;  -11.050;  559.800
1096.025;   12.433;  -11.840;  710.880
1096.568;   12.550;  -12.840;  779.280
1097.112;    9.773;  -14.700;  508.180
1097.655;   11.554;   -8.720;  603.000
1098.198;   10.518;  -13.610;  600.180
1098.741;    9.791;  -13.350;  612.860
1099.285;   11.399;  -11.230;  657.300
1099.828;    9.690;  -11.840;  439.400
1100.371;   10.024;  -10.840;  608.160
1100.914;   10.225;  -14.190;  682.660
1101.457;   10.910;  -11.240;  679.900
1101.999;    9.128;  -11.270;  584.680
1102.542;   10.012;  -11.480;  641.440
1103.085;    9.996;  -11.750;  658.500
1103.628;   10.937;  -11.400;  762.060
1104.170;    9.629;  -10.490;  588.280
1104.713;   10.058;  -10.600;  646.700
1105.256;    9.456;  -14.360;  557.440
1105.798;    8.730;  -13.210;  499.980
1106.341;   10.420;  -10.270;  728.900
1106.883;    8.229;  -12.200;  521.340
1107.425;    8.540;  -13.110;  668.180
1107.968;    8.539;  -12.840;  612.380
1108.510;    9.719;   -6.480;  684.960
1109.052;    7.818;  -13.940;  612.620
1109.594;    7.752;  -13.690;  554.440
1110.136;    9.289;  -11.880;  643.220
1110.679;    8.209;   -9.500;  633.080
1111.221;    9.328;  -14.160;  604.460
1111.763;    7.715;  -13.980;  559.220
1112.304;    7.412;  -13.880;  547.140
1112.846;    8.377;  -12.210;  666.240
1113.388;   10.303;  -11.390;  942.180
1113.930;    8.183;  -14.540;  694.200
1114.472;    6.872;  -12.640;  606.540
1115.013;    6.189;  -11.620;  551.280
1115.555;    6.250;  -13.640;  587.100
1116.097;    6.114;  -15.380;  579.480
1116.638;    6.857;  -12.640;  684.600
1117.180;    7.418;   -9.850;  667.740
1117.721;    6.804;  -13.690;  568.580
1118.262;    7.217;  -12.680;  677.960
1118.804;    7.298;  -12.530;  637.340
1119.345;    6.417;  -11.690;  578.400
1119.886;    6.792;  -13.380;  704.040
1120.427;    6.235;  -14.070;  589.020
1120.969;    6.015;  -13.500;  597.920
1121.510;    5.540;  -11.480;  563.060
1122.051;    6.043;  -12.830;  723.580
1122.592;    5.910;  -14.290;  655.420
1123.133;    4.395;  -12.400;  547.940
1123.673;    6.963;  -10.130;  706.480
1124.214;    5.538;  -12.930;  612.460
1124.755;    6.236;  -14.380;  639.460
1125.296;    6.163;  -14.000;  627.320
1125.836;    6.336;  -10.070;  691.500
1126.377;    4.702;  -12.640;  599.660
1126.918;    5.613;  -12.960;  614.980
1127.458;    5.190;  -13.350;  622.220
1127.999;    5.613;  -10.750;  656.980
1128.539;    6.135;  -12.350;  694.240
1129.079;    4.697;  -14.860;  632.720
1129.620;    4.507;  -13.840;  558.100
1130.160;    4.331;  -12.330;  539.480
1130.700;    4.877;  -14.530;  640.840
1131.240;    5.484;  -12.530;  643.700
1131.781;    4.262;  -14.450;  619.680
1132.321;    4.448;   -9.790;  599.120
1132.861;    3.269;  -14.860;  564.200
1133.401;    3.609;  -14.290;  593.940
1133.941;    4.427;  -11.750;  626.280
1134.481;    3.088;   -9.920;  597.580
1135.020;    3.370;  -12.290;  609.160
1135.560;    4.017;  -11.650;  674.940
1136.100;    3.047;  -16.270;  501.160
1136.640;    3.012;  -10.890;  510.480
1137.179;    3.019;  -14.180;  537.960
1137.719;    3.935;  -16.250;  605.400
1138.258;    3.925;  -14.230;  587.360
1138.798;    3.775;   -9.090;  663.780
1139.337;    1.375;  -15.130;  482.840
1139.877;    3.216;  -13.680;  642.360
1140.416;    5.805;  -11.320;  878.060
1140.955;    2.600;  -10.860;  535.380
1141.494;    2.541;  -12.920;  669.280
1142.034;    2.149;  -13.930;  583.520
1142.573;    3.585;  -11.440;  646.280
1143.112;    2.798;  -12.000;  553.480
1143.651;    2.312;  -13.670;  536.480
1144.190;    2.438;  -12.730;  691.640
1144.729;    2.730;  -14.560;  607.420
1145.267;    2.428;  -11.830;  584.900
1145.806;    2.394;  -12.230;  637.040
1146.345;    1.476;  -14.130;  635.020
1146.884;    2.012;  -11.590;  622.500
1147.422;    1.231;  -12.550;  533.060
1147.961;    3.342;  -11.180;  708.460
1148.500;    3.131;  -11.510;  669.720
1149.038;    3.155;  -11.640;  632.500
1149.577;    2.357;  -10.130;  698.640
1150.115;   -0.152;  -13.970;  452.280
1150.653;    1.485;  -14.520;  607.340
1151.192;    1.489;  -12.810;  552.920
1151.730;    2.220;   -9.100;  652.560
1152.268;    1.031;  -12.220;  589.520
1152.806;    1.402;  -14.140;  571.180
1153.344;    0.038;  -12.350;  577.640
1153.882;    1.227;   -8.980;  600.060
1154.421;   -0.142;  -15.190;  470.620
1154.958;    0.332;  -15.210;  595.240
1155.496;    1.946;  -12.850;  645.280
1156.034;    1.994;   -9.940;  721.880
1156.572;    1.809;  -13.570;  667.060
1157.110;   -0.823;  -14.590;  473.940
1157.647;    1.793;  -13.030;  676.960
1158.185;   -0.177;  -12.140;  564.320
1158.723;   -1.241;  -14.390;  509.200
1159.260;    0.428;  -14.090;  701.700
1159.798;    1.377;  -11.920;  658.160
1160.335;   -0.100;  -11.110;  631.820

