
Integration time [ms]:   3.276
Averaging Nr. [scans]: 1000
Smoothing Nr. [pixels]: 0
Data measured with spectrometer [name]: 7414430SP
Wave   ;Sample   ;Dark     ;Reference
[nm]   ;[counts] ;[counts] ;[counts] 

288.544;  149.915;    7.793;  793.890
289.143;  154.011;    7.462;  681.602
289.742;  153.999;    8.602;  828.814
290.341;  140.397;    1.321;  789.841
290.940;  129.041;   -0.709;  730.702
291.538;  130.616;    0.881;  881.108
292.137;  130.842;    0.122;  792.581
292.736;  134.555;   -1.929;  975.101
293.335;  130.267;   -8.229;  735.086
293.934;  131.365;   -5.279;  781.677
294.532;  129.672;   -1.369; 1031.958
295.131;  115.130;   -7.641;  834.394
295.730;  115.780;   -8.420;  809.588
296.328;  114.836;   -5.611;  783.442
296.927;  116.273;   -5.781;  779.652
297.525;  116.866;   -6.361;  781.236
298.124;  106.985;  -11.382;  654.009
298.722;  110.732;   -7.641;  761.933
299.321;  108.663;   -6.811;  708.597
299.919;  107.262;   -6.991;  751.918
300.518;  103.492;  -10.362;  689.338
301.116;  105.429;   -9.581;  691.381
301.715;  105.311;   -4.891;  730.222
302.313;  104.413;   -8.801;  704.943
302.911;  100.251;   -8.522;  733.830
303.509;  104.852;   -6.171;  925.627
304.108;  103.040;   -7.311;  760.383
304.706;  102.770;   -8.321;  801.664
305.304;   95.869;  -10.222;  796.707
305.902;  101.511;   -6.021;  784.484
306.500;   97.242;   -4.971;  728.200
307.098;   96.545;   -7.061;  746.560
307.696;   94.035;   -8.801;  780.432
308.294;   94.696;   -6.411;  731.359
308.892;   96.717;   -2.901;  759.769
309.490;   92.985;   -5.041;  712.161
310.088;   91.359;   -5.002;  788.444
310.686;   95.171;   -2.041;  821.749
311.284;   90.506;   -2.351;  766.040
311.882;   89.169;   -4.422;  731.225
312.480;   85.675;   -4.192;  697.167
313.078;   87.249;   -1.172;  808.331
313.675;   87.904;   -2.601;  691.600
314.273;   83.282;   -1.312;  797.837
314.871;   82.438;   -3.942;  589.829
315.468;   80.026;   -2.802;  652.090
316.066;   82.664;   -0.701;  694.427
316.664;   76.553;   -4.362;  656.351
317.261;   80.389;   -2.872;  910.128
317.859;   74.852;   -2.022;  768.735
318.456;   75.879;   -0.531;  830.096
319.054;   72.029;   -3.912;  787.828
319.651;   70.901;   -4.752;  759.928
320.249;   69.825;   -2.602;  810.188
320.846;   68.010;   -0.821;  714.286
321.443;   65.217;   -4.642;  832.135
322.041;   62.963;   -5.002;  812.315
322.638;   60.033;   -3.982;  701.456
323.235;   61.856;   -3.411;  665.683
323.833;   59.001;   -7.361;  740.354
324.430;   54.648;   -8.611;  615.900
325.027;   55.190;   -4.061;  876.855
325.624;   55.128;   -4.031;  644.532
326.221;   52.182;   -7.481;  689.717
326.818;   51.163;   -5.281;  818.332
327.415;   54.688;   -7.460;  748.828
328.012;   54.649;   -5.510;  690.585
328.609;   53.023;   -7.880;  731.389
329.206;   50.880;   -8.331;  778.621
329.803;   52.014;   -5.121;  737.841
330.400;   53.770;   -4.510;  704.260
330.997;   55.976;   -6.441;  817.147
331.594;   54.022;   -8.831;  788.185
332.191;   59.246;   -7.621;  728.722
332.787;   62.214;   -4.591;  844.463
333.384;   60.388;   -7.412;  763.093
333.981;   58.828;   -8.293;  815.687
334.578;   62.321;   -7.052;  708.378
335.174;   64.154;   -3.102;  731.469
335.771;   64.266;   -5.943;  836.456
336.367;   61.037;   -7.393;  710.631
336.964;   64.964;   -4.063;  793.266
337.561;   62.822;   -3.813;  731.112
338.157;   58.731;   -4.654;  911.916
338.754;   56.313;   -7.934;  796.589
339.350;   55.158;   -4.414;  722.493
339.946;   56.213;   -4.664;  773.135
340.543;   48.307;   -6.375;  846.136
341.139;   43.016;   -9.815;  720.836
341.735;   40.066;   -4.526;  772.593
342.332;   38.948;   -4.895;  691.472
342.928;   40.065;   -4.295;  795.394
343.524;   34.368;   -5.476;  761.684
344.120;   30.213;   -5.856;  738.562
344.716;   34.242;   -2.155;  723.717
345.313;   31.652;   -6.275;  795.342
345.909;   26.398;   -8.815;  627.336
346.505;   27.687;   -5.305;  740.247
347.101;   28.633;   -2.674;  827.864
347.697;   29.056;   -4.344;  785.398
348.293;   23.436;   -9.975;  627.244
348.889;   24.541;   -5.774;  745.914
349.485;   24.182;   -5.004;  688.205
350.081;   24.528;   -4.704;  772.592
350.676;   19.247;   -6.635;  691.606
351.272;   23.739;   -4.504;  809.530
351.868;   23.625;   -3.914;  780.497
352.464;   20.941;   -9.044;  723.932
353.059;   17.152;   -8.314;  646.017
353.655;   20.785;   -7.024;  777.063
354.251;   21.829;   -5.343;  759.845
354.846;   16.028;   -8.604;  740.646
355.442;   14.453;   -6.945;  753.071
356.038;   16.014;   -7.564;  751.708
356.633;   15.668;   -5.814;  728.594
357.229;   13.953;   -7.364;  724.757
357.824;   13.106;   -8.024;  703.600
358.420;   10.691;   -9.384;  679.726
359.015;   11.820;   -5.104;  695.357
359.610;   12.852;   -6.854;  763.920
360.206;    7.065;  -10.185;  603.240
360.801;   10.011;   -7.054;  646.503
361.396;   12.124;   -5.034;  725.975
361.992;    8.047;   -8.284;  668.220
362.587;    4.336;   -8.625;  670.160
363.182;    7.148;   -7.674;  689.631
363.777;    7.726;   -5.164;  738.242
364.372;    8.087;   -8.604;  737.314
364.967;    3.849;   -9.055;  680.744
365.563;    8.032;   -6.114;  815.567
366.158;    5.407;   -5.814;  685.161
366.753;    5.431;   -7.854;  649.263
367.348;    3.419;   -7.804;  746.056
367.942;    3.436;   -7.954;  697.298
368.537;    3.179;   -4.984;  754.245
369.132;    2.999;   -8.564;  703.428
369.727;   -0.555;   -8.855;  638.079
370.322;   -0.123;   -6.245;  580.186
370.917;    0.135;   -6.425;  710.646
371.511;    3.084;   -6.294;  861.834
372.106;   -0.768;   -7.685;  776.964
372.701;   -4.258;   -7.335;  585.988
373.296;    1.058;   -4.564;  863.135
373.890;   -2.901;  -10.235;  647.840
374.485;   -5.040;   -7.885;  691.199
375.079;   -1.554;   -7.324;  738.685
375.674;    0.774;   -3.494;  812.970
376.268;   -3.721;   -8.525;  691.759
376.863;  -10.274;  -10.086;  580.327
377.457;   -3.695;   -7.025;  662.490
378.052;   -5.586;   -3.585;  764.884
378.646;   -6.489;   -7.595;  741.167
379.240;   -6.337;   -8.335;  721.176
379.835;   -6.097;   -5.785;  636.978
380.429;   -8.083;   -4.335;  562.557
381.023;   -8.430;   -6.805;  779.205
381.617;   -9.391;   -9.195;  680.106
382.212;   -7.276;   -6.905;  685.303
382.806;   -5.955;   -3.745;  760.690
383.400;   -9.385;   -7.745;  672.281
383.994;  -10.932;   -9.765;  664.870
384.588;   -6.996;   -6.564;  697.701
385.182;   -5.328;   -5.344;  726.624
385.776;   -6.913;   -8.514;  706.875
386.370;  -10.498;   -9.555;  681.968
386.964;   -9.006;   -8.715;  684.155
387.558;   -7.293;   -6.174;  598.360
388.152;  -10.876;   -8.725;  681.959
388.745;   -9.496;   -7.965;  814.707
389.339;   -7.384;   -5.924;  747.642
389.933;   -6.216;   -5.524;  695.370
390.527;   -8.014;   -7.114;  859.029
391.120;  -14.370;  -10.725;  595.318
391.714;  -10.919;   -8.035;  711.633
392.308;   -7.991;   -3.574;  780.253
392.901;  -10.919;   -7.245;  642.460
393.495;  -13.258;   -9.285;  595.414
394.089;  -11.308;   -5.895;  760.452
394.682;  -11.538;   -4.295;  697.188
395.275;  -12.065;   -9.875;  719.927
395.869;  -13.358;   -8.485;  667.314
396.462;  -11.162;   -7.455;  616.609
397.056;   -7.594;   -5.424;  776.621
397.649;  -12.329;   -6.605;  731.575
398.242;   -9.958;   -8.224;  712.645
398.836;   -8.743;   -7.474;  766.408
399.429;  -10.347;   -7.094;  631.041
400.022;  -13.139;   -9.475;  665.902
400.615;  -11.137;   -7.145;  805.609
401.208;   -9.023;   -7.174;  691.451
401.802;  -10.912;   -5.515;  699.329
402.395;  -12.600;   -9.875;  683.502
402.988;  -13.044;   -8.845;  696.627
403.581;  -10.119;   -8.874;  646.878
404.174;   -8.589;   -5.324;  686.568
404.767;  -10.826;   -9.575;  638.583
405.360;  -12.984;  -10.965;  621.445
405.953;   -7.787;   -8.764;  759.034
406.545;   -7.111;   -7.514;  725.342
407.138;  -10.680;  -10.025;  618.350
407.731;  -10.334;  -10.034;  613.303
408.324;   -6.345;   -9.374;  660.554
408.917;   -6.715;   -6.534;  681.864
409.509;   -8.850;   -8.004;  740.396
410.102;  -10.585;   -9.875;  643.948
410.695;   -5.095;   -8.604;  665.758
411.287;   -6.107;   -6.794;  599.821
411.880;   -7.258;   -9.334;  585.421
412.472;  -10.159;  -10.254;  613.092
413.065;   -7.775;   -6.714;  629.408
413.657;   -5.246;   -7.234;  576.678
414.250;   -4.814;  -10.544;  646.681
414.842;   -7.350;   -9.744;  676.353
415.434;   -4.529;   -6.994;  570.463
416.027;   -0.612;   -5.893;  652.196
416.619;   -2.782;   -7.264;  713.400
417.211;   -3.430;  -10.374;  599.352
417.804;   -0.195;   -7.993;  628.499
418.396;   -3.632;   -7.234;  607.643
418.988;   -0.065;   -9.443;  659.238
419.580;   -4.808;  -10.724;  568.276
420.172;   -2.168;  -10.323;  536.196
420.764;    2.224;   -8.793;  672.482
421.356;    1.031;  -11.143;  636.898
421.948;    0.465;   -8.293;  677.661
422.540;    4.934;   -7.893;  680.027
423.132;    4.489;   -7.082;  600.641
423.724;    1.239;   -8.653;  561.267
424.316;    3.214;  -10.213;  621.345
424.908;    6.460;   -9.762;  591.517
425.500;    7.383;   -5.572;  647.978
426.092;    7.808;   -8.422;  648.268
426.683;    6.235;   -9.283;  684.836
427.275;    9.370;   -7.852;  641.471
427.867;   11.025;   -5.272;  668.948
428.458;   11.719;   -7.682;  732.344
429.050;    9.574;  -10.612;  680.749
429.642;   11.923;   -9.882;  743.124
430.233;   12.582;   -6.962;  569.356
430.825;   13.975;   -6.842;  724.809
431.416;   11.769;   -9.672;  698.241
432.008;   15.336;   -6.552;  651.723
432.599;   15.977;   -6.891;  656.073
433.190;   13.193;  -10.912;  637.670
433.782;   11.991;  -11.172;  590.395
434.373;   18.674;   -6.061;  884.765
434.964;   18.984;   -8.251;  602.920
435.556;   15.623;   -9.722;  634.537
436.147;   19.069;   -9.082;  758.490
436.738;   19.236;   -8.041;  701.099
437.329;   24.402;   -7.341;  721.723
437.920;   16.923;   -8.162;  666.688
438.511;   16.949;  -11.802;  564.526
439.103;   23.934;  -10.191;  623.998
439.694;   25.309;   -7.601;  681.583
440.285;   26.719;   -8.541;  764.432
440.876;   23.942;   -9.751;  845.738
441.466;   24.328;   -9.401;  575.162
442.057;   29.099;   -7.760;  665.814
442.648;   28.275;   -9.971;  746.255
443.239;   26.686;  -11.001;  620.477
443.830;   31.503;   -7.990;  704.958
444.421;   33.670;   -7.910;  655.474
445.011;   29.586;   -8.131;  693.619
445.602;   29.719;   -7.111;  743.126
446.193;   31.576;  -10.920;  488.117
446.783;   36.061;   -6.500;  640.397
447.374;   31.439;   -8.671;  692.759
447.964;   31.543;  -10.781;  713.770
448.555;   40.109;   -9.650;  822.742
449.145;   36.702;   -8.660;  662.853
449.736;   37.550;   -8.990;  803.179
450.326;   36.997;   -9.500;  713.626
450.917;   43.030;   -8.680;  675.324
451.507;   41.383;   -7.520;  600.661
452.097;   42.513;   -8.590;  746.267
452.688;   43.000;  -11.340;  742.160
453.278;   44.580;  -10.100;  566.840
453.868;   48.177;   -6.019;  793.550
454.458;   45.945;   -9.440;  651.141
455.048;   45.396;  -10.560;  711.783
455.639;   47.747;  -11.799;  567.096
456.229;   51.078;   -6.899;  710.694
456.819;   52.973;   -7.389;  751.158
457.409;   53.901;  -11.119;  773.993
457.999;   56.266;   -9.289;  737.505
458.589;   56.202;   -6.139;  686.606
459.179;   56.158;   -8.729;  717.658
459.769;   54.497;   -9.789;  627.099
460.358;   58.741;  -10.259;  797.262
460.948;   59.271;   -7.299;  689.503
461.538;   61.372;  -10.289;  660.677
462.128;   59.097;  -11.269;  664.934
462.717;   65.374;   -9.368;  710.326
463.307;   68.228;   -7.908;  705.846
463.897;   64.475;   -9.599;  656.942
464.486;   63.709;   -9.769;  837.128
465.076;   68.338;   -8.048;  733.776
465.666;   71.352;   -9.358;  652.900
466.255;   68.955;   -7.919;  785.651
466.845;   68.575;  -11.689;  666.749
467.434;   71.481;   -7.818;  725.873
468.023;   73.519;   -7.678;  658.357
468.613;   70.595;  -10.939;  713.946
469.202;   74.994;  -10.118;  646.507
469.791;   78.912;   -9.108;  737.811
470.381;   81.170;   -6.058;  742.813
470.970;   81.195;  -10.428;  711.099
471.559;   80.906;  -10.268;  733.291
472.148;   84.335;   -8.448;  675.737
472.738;   86.655;   -6.917;  765.466
473.327;   86.274;  -11.978;  637.529
473.916;   85.849;  -11.888;  737.446
474.505;   90.323;   -9.437;  751.703
475.094;   93.016;   -6.747;  806.570
475.683;   93.079;   -9.367;  797.699
476.272;   93.814;  -12.637;  730.632
476.861;   96.354;  -10.027;  706.754
477.449;  102.625;   -8.716;  728.487
478.038;   97.817;   -9.577;  692.513
478.627;   98.874;   -9.718;  714.852
479.216;  105.528;   -8.947;  769.441
479.805;  107.883;   -6.256;  783.375
480.393;  108.963;   -7.937; 1008.945
480.982;  107.733;   -7.717;  874.501
481.571;  113.751;   -9.266;  858.333
482.159;  114.563;   -7.636;  705.386
482.748;  114.551;   -9.667;  821.385
483.336;  119.168;  -10.376;  858.209
483.925;  120.469;   -7.147;  774.373
484.513;  127.193;   -7.996;  758.962
485.102;  124.264;  -10.027;  810.965
485.690;  131.867;  -10.446; 1011.050
486.278;  135.097;   -8.446;  979.329
486.867;  135.293;   -6.356;  809.662
487.455;  137.155;   -9.136;  898.229
488.043;  138.461;  -10.646;  748.361
488.631;  147.250;   -7.456; 1005.079
489.220;  151.377;   -6.636;  908.626
489.808;  152.458;  -11.036;  741.415
490.396;  160.161;  -10.246;  914.645
490.984;  166.489;   -8.556;  830.161
491.572;  177.467;   -5.886;  940.315
492.160;  183.643;   -9.486;  919.081
492.748;  195.868;  -10.976;  884.341
493.336;  219.983;   -8.776; 1019.693
493.924;  248.766;   -5.465;  958.077
494.512;  277.456;   -9.986; 1066.638
495.100;  320.119;  -10.636; 1103.280
495.687;  378.061;  -10.885; 1206.373
496.275;  446.817;   -8.126; 1150.796
496.863;  519.267;  -10.586; 1281.171
497.451;  630.081;  -11.926; 1386.805
498.038;  769.182;  -10.885; 1556.729
498.626;  883.315;   -6.315; 1741.407
499.214; 1034.990;   -7.326; 2016.609
499.801; 1251.091;  -11.906; 2220.633
500.389; 1511.517;  -10.466; 2312.494
500.976; 1849.429;   -5.236; 2744.849
501.564; 2308.360;   -8.936; 3148.565
502.151; 2715.421;  -13.176; 3515.999
502.738; 3210.093;  -10.646; 3971.274
503.326; 3612.725;   -9.525; 4403.796
503.913; 4014.062;  -10.856; 5161.749
504.500; 4394.281;  -11.586; 5986.420
505.088; 4826.486;  -10.336; 6381.201
505.675; 5396.538;   -6.355; 6925.547
506.262; 6165.177;   -9.046; 7619.060
506.849; 6893.968;  -10.416; 8733.969
507.436; 7389.400;  -10.305; 9790.121
508.023; 8027.925;   -5.496; 9985.472
508.610; 8293.515;   -7.856;10434.618
509.197; 8962.767;  -10.097;11198.435
509.784;10434.600;  -10.886;12391.194
510.371;11497.030;   -9.315;13603.713
510.958;12243.977;   -9.936;14426.586
511.545;13095.871;   -9.326;15243.775
512.132;14112.711;  -10.075;15945.876
512.719;14816.994;   -7.796;16340.369
513.305;15774.866;  -10.606;18011.766
513.892;16588.924;  -11.486;19754.971
514.479;18014.625;   -9.126;20967.805
515.066;19481.672;   -6.026;22299.793
515.652;20723.217;   -8.466;22908.660
516.239;22219.098;  -10.886;23798.875
516.825;23467.840;  -11.496;25567.275
517.412;24656.109;   -5.796;28154.959
517.998;25241.547;  -10.506;28344.111
518.585;25210.977;  -10.076;27134.219
519.171;25796.395;   -8.315;27268.576
519.758;27434.590;   -8.596;28964.129
520.344;29276.668;   -8.466;30664.494
520.930;29271.502;  -11.006;32550.605
521.516;31086.287;  -10.495;35422.895
522.103;33645.203;   -5.526;38280.004
522.689;34373.883;   -8.746;37835.117
523.275;33629.730;  -11.376;37288.613
523.861;34557.164;  -11.156;37281.395
524.447;35937.031;   -8.135;37846.949
525.033;35705.996;   -7.896;38321.949
525.619;35957.582;  -12.476;38579.285
526.205;37840.426;   -9.516;40622.875
526.791;40181.574;   -6.926;42258.836
527.377;40295.281;   -8.346;42966.902
527.963;42075.176;   -8.717;42018.949
528.549;40283.297;  -11.016;42476.828
529.135;39007.586;   -8.536;41854.852
529.721;38579.484;   -9.666;41237.711
530.306;37967.316;  -10.066;41259.445
530.892;37706.434;  -11.356;41506.047
531.478;39217.086;   -6.596;43559.613
532.063;42232.621;   -8.836;47695.563
532.649;42345.906;  -10.047;50808.324
533.235;43453.461;   -9.746;51787.500
533.820;44540.141;   -6.566;52145.035
534.406;46040.695;  -10.817;51133.488
534.991;45848.520;   -9.416;49996.805
535.576;44353.367;   -9.036;48882.852
536.162;44675.785;   -6.156;46942.285
536.747;45829.848;  -11.607;45711.746
537.333;50087.785;  -11.787;48510.180
537.918;52837.363;  -12.437;50439.891
538.503;51123.148;   -7.196;50863.711
539.088;48016.355;  -10.556;50906.922
539.673;47918.809;   -8.767;52621.965
540.259;47607.848;  -10.026;52368.094
540.844;44723.629;   -7.416;50879.109
541.429;45891.926;   -9.467;52077.777
542.014;49086.461;   -9.527;52716.695
542.599;48440.742;   -9.946;52363.281
543.184;46276.828;   -7.927;53187.137
543.769;47989.480;   -9.297;54697.605
544.354;47038.848;  -10.127;53913.914
544.938;45742.660;   -9.267;49680.164
545.523;47610.410;   -6.506;47386.277
546.108;50006.238;   -9.787;49151.949
546.693;52348.383;  -11.587;51384.637
547.278;52318.016;  -10.986;51853.254
547.862;49028.793;   -8.206;51173.750
548.447;44244.145;  -10.067;51691.395
549.031;43943.148;   -9.637;52456.703
549.616;49128.836;   -9.926;52714.516
550.201;47921.285;   -6.347;52414.598
550.785;49080.832;   -7.917;52355.059
551.370;48344.465;  -10.867;54589.453
551.954;48526.457;   -9.047;58267.348
552.538;49314.344;   -7.827;59062.176
553.123;47619.715;  -10.287;58115.285
553.707;45652.496;  -12.178;56556.285
554.291;46775.082;   -8.717;56201.668
554.876;48712.906;   -7.457;55335.762
555.460;49080.566;  -10.387;54155.703
556.044;50386.281;   -9.618;53721.484
556.628;48902.066;  -11.567;53731.016
557.212;47464.188;   -8.097;54312.531
557.796;45958.863;  -11.077;53797.773
558.380;45643.441;  -11.108;56145.984
558.964;45945.852;   -9.057;57277.930
559.548;46944.691;   -6.977;56459.641
560.132;45505.766;  -11.457;54434.543
560.716;44339.664;  -11.378;54800.617
561.300;45575.750;   -9.577;57606.945
561.884;46607.121;   -7.127;58972.445
562.467;45151.922;   -7.118;57327.570
563.051;44272.563;  -13.358;54962.434
563.635;45071.672;  -10.178;52594.473
564.219;45537.902;   -7.837;50610.410
564.802;46404.430;  -11.398;49551.180
565.386;46535.578;  -12.788;48370.953
565.969;46045.047;   -9.077;48178.871
566.553;45739.102;   -6.207;49957.305
567.136;45845.742;   -8.568;50369.594
567.720;41682.523;  -11.868;49492.004
568.303;39650.320;   -8.268;50616.352
568.887;39811.871;   -8.698;50727.148
569.470;39969.422;   -6.808;51698.379
570.053;38467.074;  -13.188;52122.078
570.637;36891.453;  -12.037;52536.438
571.220;36543.426;   -8.577;51186.098
571.803;36950.836;   -8.498;51032.762
572.386;39554.965;  -10.498;49609.887
572.969;42046.426;   -9.388;48285.926
573.552;39897.594;   -8.338;47624.285
574.135;38611.410;   -8.518;45498.641
574.718;36105.133;  -13.628;41970.434
575.301;34832.844;  -10.893;41447.137
575.884;33560.555;   -8.158;40923.836
576.467;34999.094;  -10.328;45267.723
577.050;37530.938;  -13.058;48175.543
577.633;38914.203;   -9.458;47729.328
578.216;37631.082;   -8.928;47579.793
578.799;36603.453;   -9.358;47820.996
579.381;35240.059;  -11.388;48115.551
579.964;33775.840;  -11.718;47333.766
580.547;35538.902;   -8.588;46668.969
581.129;36723.473;   -8.859;44466.141
581.712;37258.074;  -10.729;44164.922
582.294;37901.383;  -11.118;46477.855
582.877;37775.977;   -5.218;48244.254
583.459;35155.402;   -8.679;47437.895
584.042;33399.160;  -10.709;46943.219
584.624;34356.949;  -11.669;46792.227
585.206;33801.031;   -8.218;46557.250
585.789;33972.086;  -10.569;45793.773
586.371;36739.949;  -11.859;43836.391
586.953;37028.367;  -10.719;42972.492
587.536;38347.539;   -7.198;42487.211
588.118;37919.473;   -8.720;42086.414
588.700;34680.188;  -10.439;43389.930
589.282;33935.887;   -9.198;43646.039
589.864;34776.676;   -9.199;43438.109
590.446;35489.410;  -11.319;43151.926
591.028;35225.648;  -11.159;42781.867
591.610;34302.645;  -11.779;42839.098
592.192;31956.721;   -7.668;42820.402
592.774;30540.131;  -11.949;40724.277
593.356;29311.156;  -12.129;39874.789
593.937;28325.594;  -10.669;39980.648
594.519;30575.730;   -6.509;42069.633
595.101;32706.857;  -10.849;42976.031
595.683;32742.738;  -11.679;44084.441
596.264;33956.160;   -9.049;43478.797
596.846;33103.090;   -8.849;43803.672
597.427;32787.570;   -9.570;42986.934
598.009;34461.891;  -12.620;42832.219
598.591;34764.992;  -10.039;42580.086
599.172;33653.477;  -10.369;43061.805
599.753;33755.559;   -9.140;41691.469
600.335;35378.676;  -11.430;40692.520
600.916;33800.328;   -9.939;39982.422
601.498;31314.531;   -8.479;40318.617
602.079;29848.451;  -10.920;40670.609
602.660;30073.547;  -11.480;41450.898
603.241;31612.859;  -11.699;41137.738
603.823;30338.766;   -9.579;38868.797
604.404;30282.775;  -10.620;38182.785
604.985;31618.875;  -10.450;38078.047
605.566;31040.986;   -9.129;38056.633
606.147;31215.658;   -7.510;37020.418
606.728;33031.445;  -10.660;37883.359
607.309;31728.584;  -11.740;38748.273
607.890;31050.811;   -9.759;38850.230
608.471;30546.598;   -8.250;37457.918
609.051;29586.525;   -9.240;36066.457
609.632;28584.453;  -12.120;35991.074
610.213;29576.916;   -9.110;37402.641
610.794;30127.805;   -8.030;38383.363
611.374;29532.334;   -8.110;40562.387
611.955;29851.406;  -13.560;38533.727
612.536;31124.074;  -11.400;36951.789
613.116;31254.760;   -8.070;37197.891
613.697;31481.816;  -10.830;38411.125
614.277;30084.254;  -11.641;38673.938
614.858;31002.143;  -13.310;37075.863
615.438;29964.436;   -7.460;35092.906
616.019;27042.824;   -7.601;33666.301
616.599;27845.982;  -12.020;34189.023
617.179;29706.994;  -11.780;36952.047
617.760;30556.666;   -8.570;39582.574
618.340;31664.223;  -11.471;38943.977
618.920;32997.824;  -11.170;37594.156
619.500;32834.551;  -11.071;37866.938
620.080;32099.699;   -7.750;37869.043
620.660;33338.871;  -12.711;36868.617
621.241;34712.148;  -10.211;36352.309
621.821;34773.051;  -10.961;35459.520
622.401;33704.953;   -7.720;35207.414
622.980;32925.402;   -8.981;35980.422
623.560;31535.176;   -9.331;37351.328
624.140;30512.588;   -9.850;34388.582
624.720;25139.307;   -7.451;32368.764
625.300;21574.982;   -9.070;32638.629
625.880;25041.506;  -12.601;34599.035
626.459;29121.098;  -11.751;36831.738
627.039;32288.688;   -9.281;38299.098
627.619;32182.275;   -8.801;38289.574
628.198;30486.240;  -12.071;37220.695
628.778;29591.902;   -9.461;37632.563
629.357;30329.270;   -8.491;38003.012
629.937;30422.395;   -9.721;38402.039
630.516;29783.424;   -9.951;37868.801
631.096;29325.139;  -11.731;35760.410
631.675;32499.568;   -8.572;35225.219
632.254;37543.648;  -11.282;35130.289
632.834;36915.520;  -13.322;35794.570
633.413;34816.484;  -10.301;35788.922
633.992;31678.123;   -8.582;34532.863
634.571;32642.848;   -8.352;33590.113
635.151;35558.535;  -11.912;34943.863
635.730;33919.930;  -10.511;35352.523
636.309;30600.770;   -7.731;35366.605
636.888;28412.268;   -9.952;36165.637
637.467;29514.256;  -11.672;37515.902
638.046;31170.119;   -8.901;39288.695
638.625;34251.059;   -7.912;38279.699
639.204;33825.398;  -10.022;37741.598
639.782;32204.479;  -12.252;38364.551
640.361;28313.355;  -10.041;36740.621
640.940;25430.836;  -11.161;34950.082
641.519;26073.182;   -9.701;34137.398
642.097;29181.705;  -11.271;35654.258
642.676;32056.453;   -8.651;35637.957
643.255;32383.625;   -8.711;36567.074
643.833;31451.639;   -9.581;37809.434
644.412;31669.822;  -13.711;37337.293
644.990;30993.098;  -11.811;37018.531
645.569;31303.330;   -9.411;36518.469
646.147;29971.727;  -10.291;36186.430
646.726;29235.953;  -12.401;36267.688
647.304;30309.248;  -10.411;36647.625
647.882;32452.719;   -9.651;39286.742
648.461;34234.238;   -9.631;39157.703
649.039;32232.010;  -11.881;35412.883
649.617;31588.766;   -9.661;34744.918
650.195;31333.051;   -9.301;35403.098
650.773;29769.996;  -10.511;35053.797
651.352;27423.840;  -11.521;33756.816
651.930;25199.828;  -12.211;31868.773
652.508;23664.381;   -9.171;33121.551
653.086;27613.184;   -9.371;33564.793
653.663;30222.703;  -13.161;34054.668
654.241;29344.078;  -13.031;35693.309
654.819;31110.861;   -9.371;36422.906
655.397;31171.584;  -10.511;38213.484
655.975;30975.217;  -10.371;39507.625
656.553;30551.123;  -10.051;39498.223
657.130;28873.688;  -10.061;40395.480
657.708;28385.125;   -9.561;39242.020
658.286;28382.020;  -11.511;38920.020
658.863;29540.379;  -10.261;40202.898
659.441;32568.785;   -7.531;39677.938
660.018;31936.201;   -9.501;40413.355
660.596;30899.926;  -13.301;39931.414
661.173;33020.848;  -11.211;39604.531
661.750;33076.574;   -9.951;39700.070
662.328;31960.172;   -9.390;39292.809
662.905;30985.451;  -11.330;38235.648
663.482;26365.633;   -9.050;36212.305
664.060;24544.129;   -8.240;35944.945
664.637;27496.955;  -10.050;35170.785
665.214;29409.852;  -11.760;34197.523
665.791;30704.740;  -10.530;34549.520
666.368;29423.350;   -9.690;35118.578
666.945;30459.438;   -9.320;36019.418
667.522;31985.410;  -11.860;36048.438
668.099;31767.232;  -10.770;36243.914
668.676;30660.412;   -6.260;35958.875
669.253;29258.094;   -7.000;37384.730
669.830;29956.797;  -10.190;36779.629
670.407;29598.932;   -9.550;35231.289
670.984;29765.941;   -9.260;35544.270
671.560;30097.996;   -9.280;35466.867
672.137;29005.354;  -11.810;34280.863
672.714;29818.498;  -11.490;34632.863
673.290;30302.143;   -7.740;35135.422
673.867;30691.590;  -10.660;36114.480
674.443;30369.594;  -12.230;36152.859
675.020;28731.020;  -10.450;35327.238
675.596;29960.326;   -9.260;35795.176
676.173;30364.438;  -10.780;35430.355
676.749;30216.754;  -13.690;33549.516
677.326;30303.896;  -11.980;32210.012
677.902;30214.131;   -8.630;32068.871
678.478;29435.391;  -10.730;32583.891
679.054;29013.982;  -10.520;32088.928
679.631;29207.242;  -11.920;30978.848
680.207;30735.271;   -7.490;33160.887
680.783;32359.871;   -9.860;35570.363
681.359;31497.623;  -13.380;36125.184
681.935;30834.127;  -12.480;35240.922
682.511;29744.033;   -7.900;34429.961
683.087;29848.910;   -7.710;34463.680
683.663;29643.914;  -11.480;34648.898
684.239;28350.273;  -14.090;34546.457
684.815;28009.566;   -7.560;35586.375
685.390;28406.830;   -9.910;35821.895
685.966;28878.246;  -11.159;35085.871
686.542;31411.447;  -11.169;34198.230
687.118;33325.145;   -5.959;32847.707
687.693;33312.152;  -10.329;32794.027
688.269;33047.664;  -12.059;33072.367
688.844;31144.576;  -10.909;33141.664
689.420;28831.145;   -8.019;33965.742
689.995;26490.750;   -8.399;34655.523
690.571;25254.145;  -10.949;33576.742
691.146;25837.070;   -9.619;32657.219
691.722;25308.561;   -8.999;32526.979
692.297;25575.846;  -11.589;33014.617
692.872;27554.354;  -11.739;34012.254
693.448;26901.004;  -11.059;34237.434
694.023;26103.520;  -10.139;34142.672
694.598;28083.354;   -9.029;34132.031
695.173;28251.338;  -13.319;34205.250
695.748;27555.754;  -10.169;32882.488
696.323;27515.719;   -8.339;32864.906
696.898;27803.475;   -8.169;33170.004
697.473;27573.139;  -12.309;32432.984
698.048;27046.889;  -10.989;31649.303
698.623;27236.289;   -9.329;30778.141
699.198;29332.832;   -9.849;31140.119
699.773;29989.629;  -12.329;31764.299
700.348;28262.676;  -10.389;31780.816
700.922;28183.252;   -9.269;32046.375
701.497;28769.178;   -9.329;32603.574
702.072;28850.627;  -10.789;34799.871
702.646;27697.195;  -10.839;35793.172
703.221;26012.850;   -9.099;35201.590
703.795;28031.035;  -10.939;34764.527
704.370;28241.744;  -12.859;34307.367
704.944;28771.893;  -11.559;33509.887
705.519;29745.502;   -7.939;31388.584
706.093;31256.566;  -10.499;31340.104
706.668;31330.012;  -11.289;32630.281
707.242;30238.572;  -11.509;32728.779
707.816;28688.119;   -9.639;32947.238
708.390;27146.096;  -11.429;33277.855
708.965;27884.061;  -11.869;33834.336
709.539;28326.020;  -11.689;33709.273
710.113;28810.902;  -10.478;33044.313
710.687;27917.979;  -10.228;31953.992
711.261;26115.066;  -13.698;30505.949
711.835;26063.887;  -13.378;30262.369
712.409;27056.740;   -9.698;31254.447
712.983;28768.002;  -11.898;32754.986
713.557;29488.416;  -15.138;34018.824
714.131;29127.908;  -14.098;34579.625
714.704;28264.826;   -9.958;33890.262
715.278;26083.463;  -10.028;33531.102
715.852;25253.459;  -11.148;33601.660
716.425;26173.203;   -9.068;33515.117
716.999;26772.619;  -10.038;33185.555
717.573;27765.291;   -9.798;33905.996
718.146;28856.107;  -12.378;35199.293
718.720;28593.760;  -11.918;35060.551
719.293;28009.979;   -8.088;34973.230
719.867;30893.627;  -10.888;36394.449
720.440;30371.738;  -11.938;36663.008
721.013;28612.482;  -12.818;35102.426
721.587;27362.510;  -10.298;33985.266
722.160;26590.838;  -10.048;33524.965
722.733;25634.549;  -12.108;32987.043
723.306;25993.379;  -10.818;33066.301
723.880;28232.395;   -8.908;33399.500
724.453;29667.018;   -9.878;33468.297
725.026;28553.684;  -11.188;33816.637
725.599;26279.402;  -11.678;32797.996
726.172;27096.658;   -9.618;33187.434
726.745;28262.725;   -8.258;35136.613
727.318;29668.711;  -12.978;35751.730
727.891;29879.783;  -12.148;35890.430
728.463;29492.930;   -8.968;34822.090
729.036;28646.008;  -10.188;32895.086
729.609;28983.482;  -11.788;31823.225
730.182;25854.648;  -11.788;31445.283
730.754;23338.029;  -10.268;32373.223
731.327;23347.951;   -9.998;33676.820
731.900;23809.471;  -12.228;33417.000
732.472;25281.393;  -13.848;31978.498
733.045;27022.205;   -8.698;30368.777
733.617;27073.004;  -10.607;30574.215
734.190;26444.666;  -11.507;31280.975
734.762;23393.623;  -13.647;31674.412
735.334;21942.262;   -9.767;31247.291
735.907;22768.385;   -9.897;29876.211
736.479;22708.807;  -11.637;29808.488
737.051;22291.002;   -9.567;30233.547
737.623;23270.492;   -8.187;31469.086
738.195;24340.248;  -11.187;31784.225
738.768;26410.781;  -12.337;32120.523
739.340;26201.670;  -12.227;32094.342
739.912;24779.256;  -11.057;31312.680
740.484;23435.322;  -10.207;31946.238
741.056;22620.094;  -10.047;32984.059
741.628;24492.180;  -13.627;33897.715
742.199;26662.453;   -7.177;33213.016
742.771;24962.275;  -10.797;31369.113
743.343;22608.125;  -11.997;31865.473
743.915;21671.881;  -12.867;32388.631
744.487;21887.943;   -7.617;31079.568
745.058;22027.748;   -9.557;30570.107
745.630;22431.135;   -9.877;29970.127
746.201;23017.367;  -14.177;29186.766
746.773;23213.619;   -9.237;28805.723
747.344;23131.160;   -9.847;29591.223
747.916;22006.994;  -11.657;31412.201
748.487;22431.033;  -10.587;32194.898
749.059;23577.041;   -8.707;32533.719
749.630;24224.998;  -10.537;32158.518
750.201;23384.102;  -11.687;30855.395
750.773;21662.395;  -11.647;28622.555
751.344;21678.252;   -7.147;28405.732
751.915;22835.684;   -9.757;28461.551
752.486;22403.854;  -12.427;27842.850
753.057;20175.215;  -12.227;27845.008
753.628;19131.232;  -10.417;27728.107
754.199;20371.023;  -11.767;27381.086
754.770;21297.693;  -11.187;25882.203
755.341;21234.031;  -10.507;25886.184
755.912;21084.164;   -9.387;26050.861
756.483;20485.461;  -10.647;26798.779
757.054;18724.395;  -11.837;27048.238
757.625;17549.791;  -12.716;26294.838
758.195;17432.123;   -9.666;26142.076
758.766;17195.783;   -8.656;26392.234
759.337;17987.537;  -12.856;26334.594
759.907;19762.412;  -13.366;27579.652
760.478;20571.561;   -8.576;28352.770
761.048;19810.527;  -10.526;27325.088
761.619;19024.871;  -11.116;26460.428
762.189;19183.293;  -12.136;26029.826
762.760;20455.834;   -9.456;26430.145
763.330;21398.732;   -7.136;26670.902
763.900;20634.432;  -11.786;26603.021
764.471;18008.344;  -11.546;25542.740
765.041;16782.186;   -8.096;24358.459
765.611;16887.359;   -8.876;23991.297
766.181;17337.041;  -12.196;24470.236
766.751;18276.525;  -11.636;24845.975
767.321;17960.557;  -10.156;24533.633
767.891;15978.297;  -11.766;24916.492
768.461;15503.922;  -14.936;24776.771
769.031;16078.901;  -12.356;24757.988
769.601;17530.105;   -7.526;24181.088
770.171;17267.637;  -10.766;23670.387
770.741;16647.863;  -13.176;22960.045
771.311;16982.205;  -10.616;22917.523
771.880;17212.676;   -9.576;23562.941
772.450;16851.604;  -10.336;24216.500
773.020;17003.338;  -13.516;24140.398
773.589;16452.098;  -13.466;24414.857
774.159;15851.423;   -8.686;23858.717
774.729;15451.235;   -9.476;22942.135
775.298;14894.807;  -13.666;22324.033
775.867;14505.692;  -11.716;21140.313
776.437;14516.272;   -9.906;20838.092
777.006;14266.319;  -12.166;20599.510
777.576;14207.930;  -12.356;20508.809
778.145;14420.021;  -11.646;20732.947
778.714;14260.675;   -8.226;21062.465
779.283;13486.485;   -9.556;20949.664
779.853;13088.998;  -14.116;20508.623
780.422;13557.170;  -11.506;20649.082
780.991;13142.415;   -9.556;21527.520
781.560;12031.730;   -9.095;22632.658
782.129;11885.654;  -12.135;23048.277
782.698;11894.711;  -10.865;23438.555
783.267;11479.467;   -9.335;23267.734
783.836;11490.511;  -11.045;22415.133
784.404;12549.809;  -13.865;20443.152
784.973;13062.806;  -13.095;19699.150
785.542;12982.523;  -11.575;19763.828
786.111;12826.935;   -9.705;20341.408
786.679;12268.149;  -12.105;20207.967
787.248;12030.196;  -12.455;19516.465
787.817;11858.897;  -11.535;18900.363
788.385;11440.520;   -9.765;17879.121
788.954;10844.682;  -14.005;17658.301
789.522;10350.979;  -11.955;17788.879
790.090;10917.354;  -10.135;18118.277
790.659;11246.167;  -10.975;18338.736
791.227;10754.260;  -13.375;18508.615
791.795;11231.752;  -12.375;17898.254
792.364;11546.866;  -10.725;17295.133
792.932;11764.732;   -9.715;16822.051
793.500;11936.812;  -12.675;17040.148
794.068;12192.400;  -13.495;17179.787
794.636;12290.466;  -10.885;16664.246
795.204;11812.352;  -11.045;16524.545
795.772;11887.261;  -13.175;17274.564
796.340;11417.355;  -12.445;17891.002
796.908;11267.977;   -9.735;17648.561
797.476;11131.839;   -9.815;17064.080
798.044;10672.193;  -13.985;16672.777
798.612; 9872.611;  -13.115;17023.996
799.180; 9504.287;  -10.185;16561.615
799.747; 9424.757;   -9.055;15962.773
800.315; 9181.890;  -12.385;15296.992
800.883; 8815.275;  -15.035;14801.771
801.450; 8770.901;  -10.365;14534.430
802.018; 8824.875;   -9.855;14173.248
802.585; 8992.269;  -11.905;14029.547
803.153; 9082.301;  -11.585;13836.846
803.720; 8908.275;   -9.095;13567.324
804.287; 8462.363;   -9.135;13360.622
804.855; 8075.471;  -11.604;13681.981
805.422; 7950.643;  -11.794;13536.560
805.989; 7942.705;  -10.734;13355.958
806.556; 8151.888;  -10.444;13747.896
807.124; 8424.770;  -12.764;13987.376
807.691; 8381.956;  -12.964;14038.674
808.258; 8150.057;  -11.134;14120.152
808.825; 7785.494;   -9.854;13860.111
809.392; 7815.018;  -10.504;13268.790
809.959; 7364.862;  -13.054;12680.389
810.526; 6999.433;   -8.294;12427.308
811.093; 7074.427;   -8.394;12030.105
811.659; 7623.250;  -12.304;11653.664
812.226; 8040.707;  -13.944;11637.183
812.793; 7693.214;  -10.484;11611.521
813.360; 7084.249;  -10.144;11885.181
813.926; 6814.140;  -11.684;12770.539
814.493; 6616.542;  -13.644;12677.638
815.060; 6260.368;   -9.724;11974.336
815.626; 6303.429;   -9.854;11594.715
816.193; 6700.426;  -13.254;11579.474
816.759; 6720.606;  -13.204;11666.972
817.325; 6811.455;   -9.434;11325.530
817.892; 7191.915;  -10.134;11105.369
818.458; 7595.520;  -13.474;10843.928
819.024; 7172.885;  -11.854;10714.406
819.591; 6842.682;  -10.244;10469.165
820.157; 6645.725;  -10.704;10235.523
820.723; 6178.510;  -12.324;10847.563
821.289; 5874.994;   -9.444;11040.980
821.855; 5745.913;   -8.374;10357.100
822.421; 5659.375;  -10.234; 9978.918
822.987; 5632.105;  -13.294; 9754.177
823.553; 5375.771;  -10.884;10065.755
824.119; 5240.868;   -8.884;10036.294
824.685; 5302.908;   -6.784;10029.192
825.251; 5369.354;  -12.004;10199.230
825.816; 5331.976;  -11.474; 9820.189
826.382; 5134.374;   -9.174; 9297.248
826.948; 5371.155;   -9.214; 9381.347
827.513; 5720.542;  -10.774; 9450.726
828.079; 5502.420;  -11.924; 9472.444
828.645; 4978.270;  -10.543; 9292.643
829.210; 4944.603;  -10.533; 9065.341
829.776; 4927.117;  -10.753; 9132.620
830.341; 4798.196;  -10.173; 9092.878
830.906; 4981.118;  -10.743; 9078.557
831.472; 5278.680;  -11.113; 8534.535
832.037; 4965.235;  -10.603; 8677.874
832.602; 4422.847;  -13.323; 8628.692
833.167; 4201.235;  -10.823; 8879.031
833.733; 4153.914;  -10.113; 9189.790
834.298; 4270.488;  -13.583; 9052.608
834.863; 4304.771;  -12.703; 8895.087
835.428; 4284.077;  -10.523; 8824.266
835.993; 4177.175;   -6.963; 8845.385
836.558; 4059.157;  -10.763; 8888.563
837.123; 4211.403;   -9.903; 8966.582
837.688; 4425.767;   -9.913; 8617.860
838.253; 4627.403;  -10.283; 8590.699
838.817; 4811.574;  -12.963; 8443.797
839.382; 4716.774;  -14.243; 8799.356
839.947; 4413.154;  -10.733; 8810.595
840.511; 4112.028;   -9.383; 8796.394
841.076; 3758.031;  -12.563; 8347.231
841.641; 3835.042;  -12.953; 8224.330
842.205; 3930.878;   -7.043; 8223.349
842.770; 4060.514;   -8.163; 8622.107
843.334; 4248.916;  -12.503; 8410.386
843.898; 4212.466;  -11.693; 8337.465
844.463; 4233.209;  -10.203; 8506.283
845.027; 4002.004;   -9.533; 8280.962
845.591; 3825.900;  -13.443; 8231.141
846.156; 3782.145;  -13.143; 7969.179
846.720; 3653.964;   -9.433; 7768.278
847.284; 3518.092;  -11.033; 7630.957
847.848; 3386.985;  -10.403; 7472.395
848.412; 3286.186;  -11.553; 7437.394
848.976; 3328.187;   -8.393; 7674.592
849.540; 3288.352;   -8.713; 7836.011
850.104; 3427.671;  -12.463; 7913.669
850.668; 3756.283;  -12.973; 7694.508
851.232; 3827.081;  -10.793; 7756.887
851.796; 3666.817;  -10.662; 7926.545
852.359; 3388.241;  -13.082; 7827.844
852.923; 3238.273;  -12.192; 7641.163
853.487; 3067.896;  -11.912; 7342.501
854.050; 3015.711;  -10.892; 7042.820
854.614; 3135.910;  -13.992; 7151.338
855.177; 3249.855;  -11.732; 7105.077
855.741; 3285.851;   -8.962; 6989.675
856.304; 3188.939;   -9.442; 6596.634
856.868; 3135.485;  -14.192; 6356.272
857.431; 3238.674;  -12.702; 6468.571
857.995; 3365.708;   -9.942; 6373.210
858.558; 3371.029;   -9.112; 6324.448
859.121; 3101.722;  -12.932; 6408.327
859.684; 2988.639;  -13.442; 6347.886
860.247; 3087.286;  -10.632; 6321.264
860.810; 3066.397;  -11.272; 6301.903
861.374; 2814.233;   -9.832; 6607.881
861.937; 2577.154;  -11.762; 6408.200
862.500; 2583.777;   -9.722; 6572.639
863.062; 2764.141;  -10.512; 6387.297
863.625; 2925.675;  -11.232; 6190.836
864.188; 3073.623;  -14.112; 5807.254
864.751; 3132.150;  -11.302; 5682.413
865.314; 3013.359;  -10.112; 5547.492
865.876; 2821.689;  -12.182; 5500.150
866.439; 2821.207;  -10.722; 5415.909
867.002; 2764.897;   -9.252; 5501.567
867.564; 2550.012;   -9.572; 5413.946
868.127; 2326.012;  -13.142; 5160.325
868.689; 2225.828;  -12.902; 5133.183
869.252; 2127.344;   -9.732; 5252.382
869.814; 2042.562;   -9.432; 5297.141
870.377; 2063.247;  -11.552; 5390.919
870.939; 2136.863;   -9.052; 5599.898
871.501; 2192.364;  -10.982; 5248.336
872.063; 2185.246;  -12.292; 4854.235
872.626; 2154.049;  -14.912; 4817.074
873.188; 2186.352;  -13.112; 4987.732
873.750; 2150.568;  -13.442; 4868.651
874.312; 2059.089;   -9.402; 4779.330
874.874; 1964.898;  -11.062; 4866.348
875.436; 1874.879;  -13.931; 4718.887
875.998; 1863.125;   -9.561; 4660.005
876.560; 1878.413;  -11.321; 4462.964
877.122; 1823.011;  -12.221; 4145.042
877.683; 1741.923;  -12.191; 4056.481
878.245; 1676.668;  -12.101; 3950.740
878.807; 1719.320;   -8.971; 4058.958
879.369; 1736.274;  -12.071; 3954.677
879.930; 1640.448;  -14.621; 3941.495
880.492; 1583.139;  -10.311; 4067.014
881.053; 1539.478;  -10.901; 3859.633
881.615; 1428.820;  -14.411; 3776.071
882.176; 1339.161;  -13.761; 3734.750
882.738; 1298.631;   -9.181; 3678.489
883.299; 1273.316;  -11.791; 3405.407
883.860; 1281.888;  -13.121; 3351.106
884.422; 1281.390;  -11.211; 3394.044
884.983; 1230.810;  -10.091; 3166.443
885.544; 1149.959;   -8.461; 3189.802
886.105; 1073.888;  -12.361; 3160.360
886.666; 1011.799;  -14.141; 3093.059
887.227;  958.938;  -11.361; 2941.957
887.788;  898.994;  -11.401; 2974.836
888.349;  839.924;  -13.791; 2721.214
888.910;  839.306;  -13.191; 2696.493
889.471;  846.216;   -9.881; 2560.172
890.032;  828.029;   -9.881; 2558.190
890.593;  806.953;  -10.371; 2567.669
891.153;  781.386;  -13.301; 2460.307
891.714;  731.433;  -11.431; 2372.046
892.275;  690.941;  -11.291; 2309.505
892.835;  648.101;  -11.471; 2382.543
893.396;  594.297;  -11.541; 2295.502
893.956;  540.298;  -11.181; 2162.420
894.517;  506.867;  -11.741; 2125.439
895.077;  503.997;  -11.671; 2086.978
895.638;  503.455;  -11.311; 2126.316
896.198;  475.759;   -9.831; 1838.275
896.758;  434.100;   -8.421; 1892.813
897.319;  405.686;  -12.351; 1792.232
897.879;  388.966;  -13.511; 1762.751
898.439;  364.702;  -12.001; 1661.149
898.999;  340.982;  -10.180; 1781.468
899.559;  332.919;  -12.030; 1703.347
900.119;  326.935;  -15.710; 1537.525
900.679;  323.209;   -8.900; 1638.384
901.239;  309.489;   -8.340; 1527.902
901.799;  299.924;  -13.910; 1456.441
902.359;  293.536;  -13.460; 1357.140
902.919;  287.559;  -11.490; 1331.118
903.479;  275.403;  -12.110; 1317.257
904.038;  255.212;  -11.720; 1262.595
904.598;  240.799;  -13.610; 1152.034
905.158;  236.527;  -11.040; 1240.893
905.717;  230.053;  -10.900; 1233.691
906.277;  219.021;  -15.080; 1217.330
906.836;  209.063;  -13.380; 1222.408
907.396;  200.912;  -10.780; 1193.047
907.955;  194.132;   -8.500; 1182.526
908.515;  189.274;  -12.760; 1099.364
909.074;  182.874;  -11.900; 1092.863
909.633;  177.925;   -8.950; 1069.121
910.192;  173.030;   -8.770; 1196.460
910.752;  168.109;  -12.390; 1029.960
911.311;  164.091;  -13.680; 1009.780
911.870;  162.334;  -12.370;  971.460
912.429;  163.510;  -10.900; 1094.080
912.988;  162.186;  -11.690; 1081.060
913.547;  157.203;  -13.240;  940.380
914.106;  152.022;  -11.990;  999.420
914.665;  150.040;   -9.990;  984.020
915.224;  149.539;  -12.880; 1035.760
915.782;  149.320;  -12.350;  922.560
916.341;  148.999;   -9.110; 1049.840
916.900;  144.437;   -9.270;  925.260
917.458;  142.645;  -13.240;  884.220
918.017;  141.716;  -13.550;  942.600
918.576;  141.989;  -12.320;  904.440
919.134;  140.075;  -11.490;  837.980
919.693;  137.832;  -13.670;  893.060
920.251;  136.070;  -15.470;  876.500
920.809;  135.364;  -11.290;  839.580
921.368;  134.527;  -10.210;  885.360
921.926;  134.356;  -12.140;  842.940
922.484;  131.935;  -13.080;  903.360
923.042;  131.873;  -11.720;  880.340
923.601;  135.191;   -7.480;  998.680
924.159;  134.394;  -11.570;  935.560
924.717;  129.781;  -13.840;  841.080
925.275;  131.145;  -10.640;  903.240
925.833;  129.729;  -11.540;  779.320
926.391;  131.320;  -12.960;  938.380
926.949;  129.336;  -14.130;  857.680
927.506;  129.562;  -11.750;  903.500
928.064;  129.404;  -10.250;  877.580
928.622;  129.207;  -13.030;  880.100
929.180;  128.298;  -13.400;  814.180
929.737;  130.021;  -10.700;  808.540
930.295;  134.039;  -10.070;  928.480
930.853;  135.504;  -11.960;  849.100
931.410;  135.792;  -13.120;  821.120
931.968;  135.010;  -10.770;  940.660
932.525;  134.599;  -10.680;  909.380
933.082;  135.423;  -13.130;  811.440
933.640;  134.993;  -13.210;  925.900
934.197;  133.718;  -11.060;  886.360
934.754;  134.825;   -9.580;  897.780
935.312;  138.222;  -14.000;  863.340
935.869;  142.067;  -10.710; 1012.980
936.426;  142.317;   -9.860;  872.800
936.983;  143.326;   -9.710;  889.020
937.540;  142.450;  -13.990;  838.280
938.097;  140.145;  -14.040;  940.120
938.654;  141.003;  -10.310;  898.860
939.211;  144.125;  -10.560;  952.480
939.768;  147.223;  -13.900;  915.420
940.324;  149.718;  -14.760;  904.200
940.881;  151.245;  -10.370;  878.500
941.438;  151.718;   -8.260; 1021.200
941.995;  147.717;  -12.540;  992.560
942.551;  144.926;  -14.670;  875.620
943.108;  145.988;  -10.450;  937.920
943.664;  148.299;  -10.750;  869.340
944.221;  151.097;  -11.550; 1088.140
944.777;  149.651;  -14.770;  869.680
945.334;  150.731;  -12.820;  884.840
945.890;  151.757;  -10.130;  946.480
946.446;  152.297;  -13.470;  947.020
947.003;  152.664;  -12.120;  964.940
947.559;  155.523;   -9.980; 1063.040
948.115;  155.371;   -9.080; 1026.540
948.671;  153.784;  -10.830;  967.300
949.227;  151.836;  -12.440;  859.560
949.783;  148.593;  -12.910;  858.900
950.339;  150.166;  -10.270;  991.000
950.895;  149.441;  -13.630; 1023.840
951.451;  149.991;  -15.100;  925.280
952.007;  150.250;  -11.330;  998.540
952.563;  150.415;  -10.580;  937.780
953.118;  149.694;  -13.440;  904.940
953.674;  149.567;  -12.710;  935.780
954.230;  148.713;  -10.350;  949.640
954.785;  146.297;   -9.190;  936.640
955.341;  143.812;  -11.200;  998.160
955.897;  142.566;  -16.560;  834.660
956.452;  143.705;  -12.570;  953.840
957.008;  142.441;   -7.970; 1083.640
957.563;  141.156;  -11.940; 1009.540
958.118;  136.128;  -13.450;  877.700
958.674;  136.204;  -12.030;  946.780
959.229;  138.069;   -9.410; 1013.980
959.784;  136.144;  -12.000;  832.400
960.339;  135.272;  -14.780; 1001.280
960.894;  131.684;   -9.860;  963.760
961.449;  127.181;   -9.970;  859.960
962.004;  127.164;  -10.900; 1212.840
962.559;  121.690;  -13.150;  860.140
963.114;  120.271;  -13.740;  742.480
963.669;  120.292;   -9.820;  915.500
964.224;  118.374;  -13.890;  874.340
964.779;  116.338;  -12.600;  828.420
965.334;  118.773;  -10.950; 1017.860
965.888;  117.597;  -11.170;  875.360
966.443;  119.830;  -12.540;  972.380
966.998;  118.637;  -15.780;  819.460
967.552;  118.475;   -9.760;  908.380
968.107;  114.947;   -9.060;  868.300
968.661;  115.256;  -11.950;  922.440
969.216;  116.057;  -12.800;  856.280
969.770;  115.800;  -11.210;  917.200
970.324;  115.971;  -11.610;  923.140
970.879;  112.049;  -11.370;  947.180
971.433;  108.839;  -12.540;  952.720
971.987;  104.276;  -11.320;  895.340
972.541;  102.306;  -10.720;  917.100
973.095;  101.229;   -9.680; 1009.460
973.649;   99.569;  -11.440;  809.480
974.203;   98.538;  -11.210;  829.040
974.757;   98.506;  -10.240;  855.220
975.311;   99.092;  -13.720;  872.600
975.865;   97.638;  -13.770;  881.820
976.419;   96.024;  -11.690;  857.400
976.973;   96.001;   -9.510;  849.620
977.526;   98.471;  -12.620;  949.920
978.080;   97.285;  -12.010;  796.780
978.634;   98.996;  -10.170;  921.320
979.187;   95.872;   -9.020;  905.400
979.741;   92.632;   -9.820; 1018.380
980.294;   88.063;  -14.870;  789.160
980.848;   86.733;  -12.380;  717.220
981.401;   88.824;  -10.350;  816.540
981.955;   91.003;  -13.720;  844.300
982.508;   89.399;  -11.490;  746.340
983.061;   89.898;  -10.000;  915.260
983.615;   86.415;  -11.480;  798.800
984.168;   83.629;  -13.220;  770.080
984.721;   82.601;  -13.960;  880.760
985.274;   82.146;  -10.870;  867.500
985.827;   80.541;   -9.790;  834.220
986.380;   78.654;  -13.120;  721.340
986.933;   77.027;  -12.450;  864.800
987.486;   76.013;  -10.210;  861.920
988.039;   74.962;   -8.430;  863.100
988.591;   73.756;  -10.520;  893.260
989.144;   70.255;  -14.860;  737.260
989.697;   69.459;  -13.080;  758.740
990.250;   71.041;  -10.150;  858.100
990.802;   70.869;  -13.430;  755.860
991.355;   70.141;  -12.750;  974.880
991.907;   68.133;  -12.040;  864.320
992.460;   66.125;  -11.330;  753.760
993.012;   65.497;  -13.610;  749.540
993.565;   63.778;  -13.460;  711.360
994.117;   65.812;   -9.360;  950.780
994.669;   61.974;  -11.300;  701.320
995.221;   60.284;  -13.540;  791.920
995.774;   58.808;  -13.430;  787.580
996.326;   57.640;  -12.520;  740.220
996.878;   57.245;  -10.950;  838.420
997.430;   55.729;  -14.300;  699.860
997.982;   54.316;  -13.760;  750.140
998.534;   54.035;  -11.530;  739.060
999.086;   52.061;  -10.310;  738.220
999.638;   51.628;  -12.530;  661.380
1000.190;   50.496;  -11.840;  699.320
1000.741;   50.099;  -10.260;  742.700
1001.293;   50.402;   -8.860;  686.020
1001.845;   48.675;  -13.700;  676.640
1002.396;   48.925;  -12.100;  743.400
1002.948;   48.298;  -12.760;  737.400
1003.500;   47.196;  -10.380;  723.780
1004.051;   47.374;  -11.900;  907.580
1004.603;   45.342;  -12.250;  791.820
1005.154;   41.936;  -13.210;  608.980
1005.705;   40.889;  -10.950;  723.960
1006.257;   40.595;  -13.880;  707.220
1006.808;   40.255;  -12.840;  685.460
1007.359;   39.554;  -10.570;  763.240
1007.910;   38.412;   -9.620;  646.640
1008.461;   38.104;  -13.630;  732.940
1009.013;   37.795;  -17.200;  588.340
1009.564;   38.917;  -10.200;  793.520
1010.115;   36.532;  -12.570;  597.040
1010.665;   36.086;  -15.150;  602.160
1011.216;   35.700;  -14.480;  667.920
1011.767;   35.488;  -11.340;  697.920
1012.318;   35.577;   -9.780;  736.980
1012.869;   34.880;  -12.380;  679.000
1013.419;   34.502;  -15.560;  603.120
1013.970;   34.973;  -11.010;  666.640
1014.521;   33.624;  -11.610;  620.620
1015.071;   34.318;  -13.450;  670.380
1015.622;   33.755;  -13.870;  635.460
1016.172;   33.935;  -11.610;  596.820
1016.723;   32.804;  -12.120;  614.380
1017.273;   32.804;  -13.620;  604.160
1017.823;   32.479;  -14.140;  650.340
1018.374;   31.443;  -12.800;  611.760
1018.924;   31.783;  -12.340;  716.880
1019.474;   32.169;  -11.410;  718.880
1020.024;   30.891;  -14.770;  657.580
1020.574;   31.735;   -9.780;  726.160
1021.124;   31.403;   -8.560;  673.580
1021.674;   31.017;  -15.190;  559.120
1022.224;   31.030;  -13.530;  708.940
1022.774;   31.651;  -13.280;  668.820
1023.324;   31.051;  -10.690;  753.520
1023.874;   32.856;  -10.240;  875.760
1024.423;   29.095;  -12.540;  613.700
1024.973;   29.166;  -10.010;  610.760
1025.523;   28.828;  -10.550;  620.960
1026.072;   28.864;  -13.560;  606.420
1026.622;   28.714;  -15.120;  675.740
1027.172;   29.758;  -11.260;  715.660
1027.721;   28.510;  -11.410;  601.220
1028.270;   28.735;  -13.530;  663.400
1028.820;   28.698;  -13.680;  638.080
1029.369;   27.507;  -13.520;  612.700
1029.918;   28.700;  -10.980;  649.840
1030.468;   27.157;  -13.530;  564.780
1031.017;   27.939;  -13.170;  634.800
1031.566;   26.702;  -12.200;  608.900
1032.115;   26.906;   -9.960;  694.500
1032.664;   26.224;  -13.210;  596.480
1033.213;   27.284;  -12.500;  735.420
1033.762;   26.688;  -11.910;  635.620
1034.311;   26.617;   -9.640;  677.220
1034.860;   26.750;  -13.310;  691.000
1035.408;   27.002;  -11.830;  722.720
1035.957;   26.726;  -12.000;  719.540
1036.506;   25.014;  -11.690;  530.800
1037.055;   26.709;  -10.990;  844.320
1037.603;   25.366;  -15.120;  664.000
1038.152;   23.997;  -12.450;  534.760
1038.700;   24.630;  -10.560;  585.740
1039.249;   24.384;  -11.080;  681.220
1039.797;   24.422;  -12.540;  633.360
1040.345;   25.011;  -11.920;  705.420
1040.894;   24.582;  -11.410;  625.300
1041.442;   24.161;  -14.320;  632.200
1041.990;   22.737;  -16.240;  559.160
1042.538;   22.729;  -11.680;  536.180
1043.087;   22.648;  -10.760;  570.860
1043.635;   24.554;  -11.850;  670.500
1044.183;   22.769;  -15.480;  586.400
1044.731;   22.253;  -11.770;  576.000
1045.279;   22.400;  -13.090;  674.920
1045.827;   24.224;  -12.440;  892.400
1046.374;   21.673;  -13.840;  515.420
1046.922;   21.272;  -13.220;  590.580
1047.470;   22.842;  -10.230;  691.300
1048.018;   22.397;  -14.590;  647.960
1048.565;   23.382;  -12.050;  708.600
1049.113;   21.121;  -11.650;  557.000
1049.660;   21.658;  -10.510;  629.660
1050.208;   21.523;  -13.310;  675.640
1050.755;   20.545;  -15.900;  606.580
1051.303;   21.500;  -11.430;  686.820
1051.850;   20.827;   -8.480;  635.120
1052.397;   19.115;  -15.010;  473.960
1052.945;   19.674;  -13.960;  617.760
1053.492;   21.365;  -13.150;  741.840
1054.039;   21.362;   -9.630;  720.180
1054.586;   20.315;  -13.680;  557.240
1055.133;   20.343;  -14.570;  693.140
1055.680;   20.385;  -13.820;  646.620
1056.227;   19.482;  -11.730;  542.780
1056.774;   20.587;  -12.480;  794.980
1057.321;   19.218;  -13.930;  523.260
1057.868;   19.645;  -11.690;  651.320
1058.415;   19.468;   -9.520;  651.980
1058.961;   19.358;  -13.160;  678.940
1059.508;   18.534;  -12.920;  643.820
1060.055;   19.670;  -11.920;  581.780
1060.601;   19.498;  -11.500;  624.300
1061.148;   18.753;  -14.330;  616.820
1061.694;   18.027;  -16.870;  592.580
1062.241;   17.941;  -10.330;  596.320
1062.787;   18.460;  -10.620;  663.140
1063.334;   20.452;  -10.110;  808.560
1063.880;   18.234;  -13.400;  668.360
1064.426;   18.184;  -10.680;  706.820
1064.972;   16.914;   -9.920;  601.340
1065.518;   16.476;  -10.980;  566.640
1066.065;   17.711;  -14.890;  624.460
1066.611;   16.911;  -12.870;  598.800
1067.157;   17.688;  -12.950;  641.860
1067.703;   17.499;  -13.540;  668.480
1068.249;   17.013;  -13.540;  605.220
1068.794;   17.300;  -12.600;  626.880
1069.340;   16.379;  -10.620;  578.960
1069.886;   16.475;  -12.830;  590.700
1070.432;   14.975;  -14.870;  541.720
1070.977;   15.424;  -11.980;  601.080
1071.523;   15.683;   -8.200;  573.060
1072.068;   16.230;  -12.330;  582.000
1072.614;   15.348;  -16.370;  527.760
1073.160;   16.379;  -11.100;  687.040
1073.705;   14.639;  -10.480;  572.520
1074.250;   15.931;  -14.520;  559.900
1074.796;   16.127;  -11.460;  655.160
1075.341;   16.085;  -11.950;  664.100
1075.886;   15.407;  -11.460;  594.240
1076.431;   14.458;  -13.770;  649.880
1076.976;   14.450;  -12.680;  639.220
1077.521;   13.804;  -13.170;  583.080
1078.067;   14.087;  -10.860;  579.400
1078.612;   14.699;  -13.920;  661.620
1079.156;   13.820;  -13.880;  601.540
1079.701;   14.546;  -13.120;  693.260
1080.246;   14.284;   -9.940;  696.300
1080.791;   14.206;  -14.740;  625.020
1081.336;   13.894;  -13.750;  659.320
1081.880;   13.352;  -13.400;  649.680
1082.425;   12.971;  -12.220;  573.480
1082.970;   14.693;  -11.610;  717.040
1083.514;   12.914;  -13.580;  597.000
1084.059;   13.139;  -12.810;  586.720
1084.603;   12.018;  -12.320;  565.840
1085.147;   13.012;  -13.190;  645.220
1085.692;   13.661;  -12.480;  716.800
1086.236;   11.933;  -13.020;  503.140
1086.780;   14.216;   -9.190;  751.440
1087.325;   12.516;  -12.480;  654.620
1087.869;   12.426;  -12.450;  610.700
1088.413;   12.995;  -12.240;  705.040
1088.957;   11.533;   -9.020;  543.400
1089.501;   13.641;  -10.320;  766.640
1090.045;   12.347;  -12.720;  726.480
1090.589;   10.561;  -13.690;  569.920
1091.133;   11.836;  -10.020;  673.340
1091.676;   11.585;  -12.330;  591.940
1092.220;   11.445;  -14.970;  600.920
1092.764;   12.428;  -12.430;  706.960
1093.307;   12.188;   -9.800;  673.780
1093.851;   10.032;  -14.970;  556.540
1094.395;   11.201;  -15.310;  683.140
1094.938;   10.649;  -10.370;  632.520
1095.482;   10.404;  -11.050;  559.800
1096.025;   11.690;  -11.840;  710.880
1096.568;   12.017;  -12.840;  779.280
1097.112;    9.234;  -14.700;  508.180
1097.655;   10.490;   -8.720;  603.000
1098.198;    9.293;  -13.610;  600.180
1098.741;    9.568;  -13.350;  612.860
1099.285;   10.741;  -11.230;  657.300
1099.828;    9.137;  -11.840;  439.400
1100.371;    9.959;  -10.840;  608.160
1100.914;    9.603;  -14.190;  682.660
1101.457;    9.945;  -11.240;  679.900
1101.999;    8.308;  -11.270;  584.680
1102.542;    9.148;  -11.480;  641.440
1103.085;    8.605;  -11.750;  658.500
1103.628;    9.910;  -11.400;  762.060
1104.170;    8.978;  -10.490;  588.280
1104.713;    9.646;  -10.600;  646.700
1105.256;    8.323;  -14.360;  557.440
1105.798;    7.815;  -13.210;  499.980
1106.341;    9.529;  -10.270;  728.900
1106.883;    8.519;  -12.200;  521.340
1107.425;    8.142;  -13.110;  668.180
1107.968;    8.417;  -12.840;  612.380
1108.510;    8.790;   -6.480;  684.960
1109.052;    7.026;  -13.940;  612.620
1109.594;    6.902;  -13.690;  554.440
1110.136;    8.768;  -11.880;  643.220
1110.679;    8.078;   -9.500;  633.080
1111.221;    8.055;  -14.160;  604.460
1111.763;    7.606;  -13.980;  559.220
1112.304;    7.071;  -13.880;  547.140
1112.846;    7.664;  -12.210;  666.240
1113.388;   10.244;  -11.390;  942.180
1113.930;    7.279;  -14.540;  694.200
1114.472;    6.051;  -12.640;  606.540
1115.013;    5.516;  -11.620;  551.280
1115.555;    5.764;  -13.640;  587.100
1116.097;    5.966;  -15.380;  579.480
1116.638;    6.971;  -12.640;  684.600
1117.180;    6.693;   -9.850;  667.740
1117.721;    6.939;  -13.690;  568.580
1118.262;    6.733;  -12.680;  677.960
1118.804;    6.920;  -12.530;  637.340
1119.345;    6.019;  -11.690;  578.400
1119.886;    6.508;  -13.380;  704.040
1120.427;    5.669;  -14.070;  589.020
1120.969;    5.718;  -13.500;  597.920
1121.510;    5.325;  -11.480;  563.060
1122.051;    5.646;  -12.830;  723.580
1122.592;    5.188;  -14.290;  655.420
1123.133;    3.511;  -12.400;  547.940
1123.673;    6.230;  -10.130;  706.480
1124.214;    5.175;  -12.930;  612.460
1124.755;    6.135;  -14.380;  639.460
1125.296;    5.812;  -14.000;  627.320
1125.836;    5.368;  -10.070;  691.500
1126.377;    4.673;  -12.640;  599.660
1126.918;    5.562;  -12.960;  614.980
1127.458;    4.221;  -13.350;  622.220
1127.999;    5.109;  -10.750;  656.980
1128.539;    5.433;  -12.350;  694.240
1129.079;    4.265;  -14.860;  632.720
1129.620;    3.813;  -13.840;  558.100
1130.160;    4.406;  -12.330;  539.480
1130.700;    5.051;  -14.530;  640.840
1131.240;    4.860;  -12.530;  643.700
1131.781;    4.119;  -14.450;  619.680
1132.321;    3.689;   -9.790;  599.120
1132.861;    2.903;  -14.860;  564.200
1133.401;    2.575;  -14.290;  593.940
1133.941;    3.655;  -11.750;  626.280
1134.481;    2.746;   -9.920;  597.580
1135.020;    2.838;  -12.290;  609.160
1135.560;    3.426;  -11.650;  674.940
1136.100;    3.071;  -16.270;  501.160
1136.640;    2.358;  -10.890;  510.480
1137.179;    2.460;  -14.180;  537.960
1137.719;    2.937;  -16.250;  605.400
1138.258;    2.776;  -14.230;  587.360
1138.798;    3.994;   -9.090;  663.780
1139.337;    3.005;  -15.130;  482.840
1139.877;    2.846;  -13.680;  642.360
1140.416;    4.533;  -11.320;  878.060
1140.955;    1.970;  -10.860;  535.380
1141.494;    2.422;  -12.920;  669.280
1142.034;    1.791;  -13.930;  583.520
1142.573;    3.302;  -11.440;  646.280
1143.112;    2.445;  -12.000;  553.480
1143.651;    2.535;  -13.670;  536.480
1144.190;    2.692;  -12.730;  691.640
1144.729;    1.319;  -14.560;  607.420
1145.267;    2.330;  -11.830;  584.900
1145.806;    2.318;  -12.230;  637.040
1146.345;    2.099;  -14.130;  635.020
1146.884;    1.625;  -11.590;  622.500
1147.422;    1.065;  -12.550;  533.060
1147.961;    2.483;  -11.180;  708.460
1148.500;    2.402;  -11.510;  669.720
1149.038;    2.278;  -11.640;  632.500
1149.577;    1.612;  -10.130;  698.640
1150.115;    0.000;  -13.970;  452.280
1150.653;    1.728;  -14.520;  607.340
1151.192;    0.980;  -12.810;  552.920
1151.730;    0.926;   -9.100;  652.560
1152.268;    0.095;  -12.220;  589.520
1152.806;    0.649;  -14.140;  571.180
1153.344;   -0.408;  -12.350;  577.640
1153.882;    0.928;   -8.980;  600.060
1154.421;    0.090;  -15.190;  470.620
1154.958;   -0.369;  -15.210;  595.240
1155.496;    1.182;  -12.850;  645.280
1156.034;    0.834;   -9.940;  721.880
1156.572;    1.674;  -13.570;  667.060
1157.110;   -0.057;  -14.590;  473.940
1157.647;    0.368;  -13.030;  676.960
1158.185;   -0.194;  -12.140;  564.320
1158.723;   -0.847;  -14.390;  509.200
1159.260;   -0.019;  -14.090;  701.700
1159.798;    0.494;  -11.920;  658.160
1160.335;    0.097;  -11.110;  631.820

