gmr_right
Integration time [ms]: 3468.598
Averaging Nr. [scans]: 10
Smoothing Nr. [pixels]: 0
Data measured with spectrometer [name]: 7414430SP
Wave   ;Sample   ;Dark     ;Reference
[nm]   ;[counts] ;[counts] ;[counts] 

288.544; 5152.522; 4983.385;    6.613
289.143; 4231.896; 4054.288;   14.216
289.742; 5484.729; 5296.867;   11.816
290.341; 5220.366; 5071.188;   -4.936
290.940; 4820.125; 4633.392;    0.852
291.538; 6077.919; 5870.872;    1.792
292.137; 5347.446; 5171.827;    6.262
292.736; 6947.366; 6773.389;    8.164
293.335; 4937.996; 4733.773;   -6.418
293.934; 5299.490; 5105.711;   -2.904
294.532; 7476.999; 7282.726;   -5.162
295.131; 5939.032; 5726.518;  -10.283
295.730; 5738.374; 5546.961;  -16.141
296.328; 5530.469; 5353.235;  -14.740
296.927; 5472.614; 5314.389;   -8.768
297.525; 5457.780; 5271.474;  -15.255
298.124; 4466.512; 4280.530;  -22.063
298.722; 5347.429; 5165.127;  -14.796
299.321; 4923.899; 4751.758;  -10.466
299.919; 5292.598; 5105.331;  -10.979
300.518; 4817.019; 4674.793;  -12.077
301.116; 4818.695; 4680.521;  -13.509
301.715; 5102.429; 4971.916;  -11.939
302.313; 4962.813; 4778.250;  -15.424
302.911; 5262.581; 5092.749;  -19.833
303.509; 6886.309; 6712.962;   -3.567
304.108; 5417.068; 5252.457;   -9.553
304.706; 5826.323; 5641.515;   -8.582
305.304; 5880.334; 5735.520;  -12.348
305.902; 5603.177; 5445.572;  -14.411
306.500; 5234.216; 5061.710;   -7.194
307.098; 5407.831; 5250.898;   -9.322
307.696; 5783.469; 5572.651;  -19.192
308.294; 5316.907; 5156.146;   -9.736
308.892; 5524.288; 5383.022;  -15.482
309.490; 5128.315; 4946.583;  -14.107
310.088; 5869.208; 5709.054;  -15.862
310.686; 6027.248; 5862.354;  -10.781
311.284; 5658.961; 5498.425;  -14.878
311.882; 5225.131; 5091.407;   -9.948
312.480; 5075.624; 4933.328;  -15.503
313.078; 6085.075; 5942.025;  -17.262
313.675; 5011.816; 4875.110;   -3.694
314.273; 6013.884; 5857.348;  -18.246
314.871; 4194.787; 4039.000;  -15.190
315.468; 4783.581; 4617.749;  -12.633
316.066; 5080.729; 4944.624;   -5.765
316.664; 4788.564; 4640.783;  -14.317
317.261; 6958.588; 6802.427;   -8.677
317.859; 5858.031; 5734.268;  -11.804
318.456; 6368.650; 6212.525;   -3.107
319.054; 5998.473; 5840.912;   -3.062
319.651; 5682.943; 5547.735;   -6.706
320.249; 6265.543; 6109.685;   -5.206
320.846; 5410.766; 5266.352;   -4.679
321.443; 6476.387; 6334.103;   -7.920
322.041; 6355.971; 6195.737;  -14.105
322.638; 5439.780; 5261.052;   -6.263
323.235; 5007.313; 4863.250;   -7.424
323.833; 5702.797; 5567.545;  -14.765
324.430; 4577.146; 4435.237;  -10.550
325.027; 6843.221; 6712.098;   -9.951
325.624; 4735.284; 4616.812;   -3.712
326.221; 5130.579; 4968.497;   -9.368
326.818; 6250.180; 6091.093;   -5.637
327.415; 5523.783; 5355.476;   -6.699
328.012; 5027.796; 4863.679;   -5.713
328.609; 5315.167; 5162.610;   -9.983
329.206; 5828.105; 5645.363;   -7.154
329.803; 5357.820; 5211.901;   -1.682
330.400; 5056.207; 4900.641;   -2.741
330.997; 5993.395; 5817.924;   -4.339
331.594; 5829.826; 5646.983;  -10.278
332.191; 5195.944; 4995.754;   -6.967
332.787; 6156.943; 5969.677;   -0.480
333.384; 5428.283; 5257.662;  -10.333
333.981; 5974.664; 5771.552;  -19.900
334.578; 4955.453; 4783.916;  -19.816
335.174; 5140.137; 4998.339;  -15.844
335.771; 6111.200; 5919.491;  -12.670
336.367; 5085.285; 4916.472;  -21.124
336.964; 5835.899; 5640.552;  -18.226
337.561; 5257.749; 5090.344;  -13.311
338.157; 6847.514; 6657.257;  -19.006
338.754; 5904.046; 5671.309;  -19.418
339.350; 5227.027; 5050.082;  -29.433
339.946; 5576.270; 5393.192;  -16.622
340.543; 6285.108; 6090.361;  -16.744
341.139; 5286.089; 5095.704;  -21.841
341.735; 5784.032; 5610.534;  -25.012
342.332; 5078.902; 4912.607;  -19.156
342.928; 5921.667; 5749.129;  -20.443
343.524; 5726.286; 5588.802;  -14.397
344.120; 5521.553; 5379.784;  -20.654
344.716; 5263.632; 5094.014;   -5.730
345.313; 5998.197; 5839.472;  -10.929
345.909; 4547.869; 4381.842;  -19.843
346.505; 5531.318; 5364.214;  -19.645
347.101; 6230.841; 6056.932;   -9.618
347.697; 5907.077; 5751.302;  -10.305
348.293; 4533.586; 4347.975;  -23.189
348.889; 5583.311; 5446.116;  -18.418
349.485; 5052.390; 4872.965;  -10.476
350.081; 5845.488; 5670.291;  -17.320
350.676; 5148.849; 5000.419;  -21.088
351.272; 6097.765; 5950.016;  -12.821
351.868; 5770.203; 5612.910;  -13.165
352.464; 5365.159; 5204.664;  -12.464
353.059; 4761.168; 4613.287;  -22.547
353.655; 5904.807; 5722.059;   -9.379
354.251; 5687.110; 5519.300;   -8.266
354.846; 5568.044; 5425.623;  -17.705
355.442; 5595.668; 5447.184;   -9.317
356.038; 5624.078; 5455.090;  -11.049
356.633; 5417.552; 5254.163;  -10.006
357.229; 5416.753; 5228.999;  -13.120
357.824; 5251.730; 5095.231;  -15.647
358.420; 5018.205; 4871.454;  -19.204
359.015; 5087.684; 4953.653;  -12.263
359.610; 5802.295; 5623.981;  -16.421
360.206; 4402.005; 4244.451;  -20.074
360.801; 4717.927; 4567.671;  -13.277
361.396; 5420.270; 5273.642;   -5.822
361.992; 4969.630; 4822.082;  -11.247
362.587; 4999.720; 4866.389;  -21.502
363.182; 5143.839; 5012.657;   -7.461
363.777; 5620.718; 5452.306;   -8.719
364.372; 5582.796; 5417.878;  -14.590
364.967; 5146.616; 4998.401;  -15.145
365.563; 6199.108; 6062.795;   -7.192
366.158; 5093.649; 4955.311;   -5.662
366.753; 4821.067; 4656.940;   -8.378
367.348; 5672.659; 5508.222;  -14.990
367.942; 5221.777; 5090.001;   -6.005
368.537; 5704.665; 5566.585;  -11.504
369.132; 5329.453; 5163.560;  -10.576
369.727; 4736.866; 4572.582;  -12.573
370.322; 4335.634; 4212.081;  -11.560
370.917; 5415.049; 5272.619;  -10.388
371.511; 6746.841; 6595.170;   -9.161
372.106; 6024.516; 5869.301;  -10.245
372.701; 4383.517; 4245.487;  -10.158
373.296; 6641.851; 6521.885;   -4.719
373.890; 4934.420; 4797.689;  -11.802
374.485; 5321.940; 5206.901;  -13.500
375.079; 5694.950; 5582.247;   -6.276
375.674; 6293.101; 6178.866;   -0.447
376.268; 5263.496; 5119.886;   -6.916
376.863; 4439.112; 4325.718;  -14.483
377.457; 5102.330; 4959.743;   -6.903
378.052; 5939.076; 5812.932;   -9.844
378.646; 5817.648; 5688.691;  -12.601
379.240; 5634.254; 5483.954;  -14.715
379.835; 4954.012; 4791.252;  -12.331
380.429; 4275.203; 4139.587;   -9.074
381.023; 6128.360; 6023.366;   -1.729
381.617; 5314.444; 5193.600;  -13.714
382.212; 5308.632; 5199.617;   -7.060
382.806; 5979.730; 5856.393;   -2.303
383.400; 5319.519; 5194.861;   -0.815
383.994; 5262.925; 5127.624;   -4.429
384.588; 5544.869; 5394.073;   -6.261
385.182; 5767.306; 5638.881;    0.008
385.776; 5662.266; 5545.624;   -3.247
386.370; 5396.103; 5300.699;   -1.030
386.964; 5426.826; 5324.055;   -1.346
387.558; 4701.156; 4587.712;   -2.020
388.152; 5455.751; 5338.543;   -5.345
388.745; 6607.873; 6478.322;   -2.774
389.339; 5895.664; 5769.749;    3.510
389.933; 5426.625; 5325.146;    5.280
390.527; 6989.991; 6889.151;    2.610
391.120; 4766.617; 4663.248;   -7.914
391.714; 5632.092; 5553.737;   -1.903
392.308; 6316.257; 6199.287;    6.023
392.901; 5190.860; 5082.758;   -4.103
393.495; 4805.292; 4713.759;    3.284
394.089; 6302.183; 6189.122;    8.655
394.682; 5694.111; 5610.813;    2.312
395.275; 5899.288; 5792.710;   -7.402
395.869; 5464.861; 5370.055;   -1.072
396.462; 5014.621; 4932.678;    6.454
397.056; 6279.080; 6202.715;    8.494
397.649; 6031.215; 5922.913;    1.599
398.242; 5866.195; 5768.239;    3.153
398.836; 6297.307; 6167.017;   11.395
399.429; 5109.540; 5014.096;   14.695
400.022; 5449.128; 5395.776;    3.627
400.615; 6680.166; 6618.121;    8.383
401.208; 5607.709; 5498.181;   13.295
401.802; 5770.151; 5681.382;    6.211
402.395; 5631.228; 5596.026;    7.227
402.988; 5725.708; 5664.872;    2.700
403.581; 5201.683; 5136.675;   11.225
404.174; 5539.432; 5480.048;   18.922
404.767; 5179.777; 5071.610;   14.169
405.360; 5156.845; 5064.078;    8.999
405.953; 6223.681; 6154.089;   13.138
406.545; 5992.989; 5915.479;   13.937
407.138; 5060.845; 4989.331;   10.869
407.731; 5034.217; 4971.279;   12.768
408.324; 5379.477; 5308.193;   22.921
408.917; 5616.206; 5555.781;   15.308
409.509; 6118.304; 6066.265;   12.239
410.102; 5362.657; 5291.206;   13.741
410.695; 5472.127; 5394.863;   20.249
411.287; 4927.059; 4872.253;   21.793
411.880; 4784.874; 4750.541;   22.965
412.472; 5059.908; 4994.453;   15.082
413.065; 5264.393; 5211.779;   23.423
413.657; 4759.913; 4700.924;   21.077
414.250; 5335.830; 5250.026;   12.349
414.842; 5558.997; 5521.505;   20.423
415.434; 4733.923; 4676.125;   19.906
416.027; 5290.969; 5250.987;   26.574
416.619; 5897.960; 5860.780;   15.705
417.211; 4912.069; 4856.906;   17.791
417.804; 5148.326; 5078.208;   30.244
418.396; 5034.877; 4972.632;   24.177
418.988; 5456.837; 5394.105;   24.904
419.580; 4706.194; 4639.345;   20.692
420.172; 4475.490; 4422.949;   22.275
420.764; 5491.174; 5436.114;   26.773
421.356; 5287.563; 5234.536;   25.731
421.948; 5555.155; 5520.057;   24.876
422.540; 5548.773; 5486.917;   30.042
423.132; 4895.884; 4874.056;   32.728
423.724; 4585.769; 4547.598;   21.317
424.316; 5104.315; 5074.269;   29.359
424.908; 4862.414; 4818.475;   28.798
425.500; 5323.438; 5270.527;   30.512
426.092; 5315.553; 5262.205;   26.741
426.683; 5719.479; 5674.779;   27.029
427.275; 5232.550; 5220.344;   32.611
427.867; 5438.164; 5381.797;   33.796
428.458; 6032.292; 5979.088;   34.453
429.050; 5596.577; 5560.808;   34.255
429.642; 6125.037; 6064.581;   39.082
430.233; 4514.740; 4497.833;   41.138
430.825; 6016.642; 5978.757;   31.581
431.416; 5724.810; 5693.486;   35.755
432.008; 5295.693; 5234.766;   40.566
432.599; 5307.893; 5254.004;   46.322
433.190; 5199.686; 5165.022;   46.897
433.782; 4605.606; 4558.587;   41.069
434.373; 7186.296; 7136.306;   48.778
434.964; 4828.731; 4799.398;   50.078
435.556; 5144.009; 5104.428;   52.381
436.147; 6174.236; 6134.034;   38.251
436.738; 5707.782; 5644.065;   47.237
437.329; 5815.499; 5767.012;   61.304
437.920; 5320.447; 5283.781;   48.611
438.511; 4510.585; 4484.836;   44.910
439.103; 4985.594; 4948.235;   62.404
439.694; 5464.853; 5438.619;   63.075
440.285; 5992.674; 5937.420;   61.033
440.876; 6912.983; 6875.643;   57.249
441.466; 4564.519; 4531.124;   61.306
442.057; 5273.103; 5215.991;   65.773
442.648; 6023.146; 5976.379;   65.676
443.239; 4973.445; 4920.651;   55.963
443.830; 5647.458; 5610.384;   69.631
444.421; 5177.297; 5137.718;   69.943
445.011; 5520.833; 5510.426;   72.791
445.602; 5964.291; 5907.933;   68.848
446.193; 3759.420; 3709.493;   80.044
446.783; 4939.970; 4895.904;   82.599
447.374; 5409.818; 5405.238;   77.419
447.964; 5703.326; 5641.364;   72.605
448.555; 6489.944; 6454.327;   82.041
449.145; 5204.533; 5148.146;   76.230
449.736; 6390.083; 6313.438;   75.545
450.326; 5608.050; 5572.809;   67.945
450.917; 5262.577; 5214.044;   77.598
451.507; 4653.620; 4629.224;   68.027
452.097; 5903.615; 5859.108;   67.771
452.688; 5788.711; 5714.359;   62.884
453.278; 4194.296; 4175.920;   65.512
453.868; 6260.422; 6226.240;   71.796
454.458; 5039.366; 4998.066;   60.956
455.048; 5548.428; 5505.911;   62.356
455.639; 4305.766; 4270.608;   58.782
456.229; 5474.088; 5442.075;   65.209
456.819; 5791.284; 5737.538;   61.466
457.409; 6029.179; 5988.460;   59.967
457.999; 5677.276; 5608.689;   58.093
458.589; 5198.846; 5144.935;   59.536
459.179; 5531.069; 5490.749;   55.994
459.769; 4742.137; 4700.417;   43.624
460.358; 6117.790; 6079.692;   46.978
460.948; 5245.759; 5199.387;   49.821
461.538; 4969.425; 4915.584;   54.678
462.128; 5035.888; 4979.425;   49.309
462.717; 5303.152; 5271.431;   52.774
463.307; 5330.977; 5279.012;   48.101
463.897; 4884.075; 4840.453;   45.606
464.486; 6505.883; 6435.799;   45.010
465.076; 5547.511; 5508.673;   45.519
465.666; 4758.942; 4710.358;   50.058
466.255; 5981.776; 5932.642;   44.463
466.845; 4873.943; 4845.475;   41.206
467.434; 5418.494; 5385.521;   44.847
468.023; 4756.960; 4736.857;   46.760
468.613; 5341.046; 5274.485;   39.736
469.202; 4712.190; 4667.222;   46.461
469.791; 5392.851; 5351.184;   47.944
470.381; 5398.830; 5350.895;   47.529
470.970; 5177.564; 5136.348;   43.773
471.559; 5421.871; 5390.396;   41.646
472.148; 4822.210; 4762.518;   37.914
472.738; 5567.711; 5495.057;   48.071
473.327; 4480.773; 4456.801;   47.871
473.916; 5354.861; 5287.146;   37.716
474.505; 5451.524; 5393.509;   40.256
475.094; 5949.293; 5865.358;   43.269
475.683; 5756.929; 5701.447;   36.499
476.272; 5201.431; 5158.572;   44.542
476.861; 4951.644; 4900.277;   42.297
477.449; 5078.051; 5016.748;   46.878
478.038; 4790.655; 4744.075;   35.156
478.627; 4984.045; 4943.110;   42.514
479.216; 5382.697; 5325.338;   43.937
479.805; 5443.603; 5371.653;   51.393
480.393; 7383.883; 7300.708;   53.239
480.982; 6308.062; 6238.065;   38.955
481.571; 6077.609; 6005.705;   45.436
482.159; 4688.796; 4618.991;   51.007
482.748; 5701.353; 5641.481;   49.695
483.336; 5934.574; 5872.924;   48.280
483.925; 5074.675; 4993.409;   47.166
484.513; 5002.551; 4970.040;   55.404
485.102; 5440.623; 5368.277;   54.238
485.690; 7107.548; 7009.038;   55.748
486.278; 6803.124; 6745.635;   55.934
486.867; 5282.371; 5215.002;   57.106
487.455; 6014.714; 5939.843;   56.979
488.043; 4676.022; 4629.218;   57.564
488.631; 6789.934; 6732.188;   57.432
489.220; 5966.263; 5888.118;   63.646
489.808; 4469.773; 4399.126;   65.449
490.396; 5878.528; 5816.073;   61.977
490.984; 4991.856; 4951.264;   68.834
491.572; 5896.238; 5823.526;   70.775
492.160; 5550.622; 5484.568;   67.564
492.748; 5163.092; 5103.664;   66.808
493.336; 5985.190; 5918.320;   79.747
493.924; 5136.542; 5054.267;   88.688
494.512; 5900.130; 5817.397;   84.120
495.100; 5761.398; 5691.016;   86.250
495.687; 6089.515; 6014.601;  103.074
496.275; 4943.247; 4878.941;  108.717
496.863; 5147.747; 5065.160;  107.035
497.451; 5084.873; 5034.038;  117.993
498.038; 5347.560; 5313.558;  120.116
498.626; 5144.726; 5086.890;  143.059
499.214; 5549.624; 5471.485;  153.434
499.801; 5393.525; 5322.221;  175.121
500.389; 4419.785; 4364.446;  185.617
500.976; 5624.334; 5544.377;  215.789
501.564; 5427.858; 5330.850;  240.321
502.151; 3927.529; 3852.220;  267.007
502.738; 5093.014; 5027.823;  317.961
503.326; 5202.027; 5129.429;  361.216
503.913; 5436.764; 5378.604;  401.433
504.500; 5615.047; 5530.499;  446.492
505.088; 4758.502; 4710.506;  512.063
505.675; 5196.312; 5123.102;  586.387
506.262; 5148.553; 5085.023;  671.021
506.849; 5265.109; 5209.396;  759.062
507.436; 5975.307; 5891.975;  849.788
508.023; 5281.837; 5196.791;  944.288
508.610; 5846.825; 5784.424; 1020.690
509.197; 5669.154; 5582.570; 1089.052
509.784; 5338.598; 5220.757; 1133.776
510.371; 4441.541; 4366.182; 1165.501
510.958; 5431.382; 5338.453; 1251.735
511.545; 6244.713; 6150.146; 1350.248
512.132; 5288.272; 5223.521; 1525.945
512.719; 4713.564; 4663.104; 1834.933
513.305; 4865.643; 4822.911; 1965.349
513.892; 6145.052; 6074.784; 1963.265
514.479; 5426.763; 5352.118; 2046.446
515.066; 5954.021; 5865.174; 2252.803
515.652; 5397.758; 5316.741; 2567.247
516.239; 5738.968; 5688.453; 2636.919
516.825; 4542.483; 4440.519; 2482.304
517.412; 6659.773; 6569.657; 2427.031
517.998; 5197.332; 5124.672; 2540.463
518.585; 5105.329; 5041.720; 2609.007
519.171; 5436.342; 5357.517; 2842.088
519.758; 4594.858; 4527.980; 3090.703
520.344; 5891.998; 5801.957; 3176.076
520.930; 4737.702; 4660.865; 3295.037
521.516; 5657.894; 5568.661; 3500.959
522.103; 6213.251; 6109.140; 3736.704
522.689; 5145.250; 5046.509; 3971.022
523.275; 6016.818; 5921.020; 4213.778
523.861; 5198.677; 5141.817; 4190.361
524.447; 5970.698; 5895.449; 4070.602
525.033; 6069.478; 5969.365; 4088.892
525.619; 4923.563; 4824.573; 4416.851
526.205; 4584.149; 4522.824; 4836.835
526.791; 5170.423; 5080.638; 4885.903
527.377; 4975.294; 4886.777; 4544.907
527.963; 5476.158; 5357.608; 4321.995
528.549; 5535.911; 5471.029; 4473.979
529.135; 4870.535; 4799.785; 4788.663
529.721; 5399.256; 5289.275; 4888.577
530.306; 7235.511; 7149.079; 4775.779
530.892; 5097.036; 5035.210; 4793.906
531.478; 4988.950; 4910.001; 4956.948
532.063; 4763.477; 4698.426; 5136.936
532.649; 6589.905; 6475.575; 5336.867
533.235; 4798.607; 4710.380; 5748.092
533.820; 6122.978; 6033.095; 6456.875
534.406; 5222.173; 5133.546; 6590.167
534.991; 4853.018; 4744.730; 6179.622
535.576; 5250.780; 5152.528; 6098.691
536.162; 7272.322; 7175.622; 6441.234
536.747; 4588.398; 4500.724; 6816.224
537.333; 4863.381; 4772.972; 6889.752
537.918; 5280.236; 5181.318; 7154.280
538.503; 4940.648; 4867.438; 7150.848
539.088; 5511.854; 5444.059; 7253.308
539.673; 5095.769; 5018.697; 7625.180
540.259; 4921.740; 4832.009; 8226.793
540.844; 4324.578; 4250.265; 8745.092
541.429; 6424.876; 6360.395; 8762.553
542.014; 4513.206; 4420.172; 8871.497
542.599; 5513.492; 5417.014; 8886.008
543.184; 4645.055; 4561.306; 9079.139
543.769; 4937.892; 4844.123; 9076.182
544.354; 5104.162; 4998.507; 8354.081
544.938; 5485.017; 5396.553; 8236.809
545.523; 6396.581; 6326.764; 8222.179
546.108; 5294.657; 5217.730; 8114.082
546.693; 5246.090; 5178.206; 8535.912
547.278; 5260.946; 5181.683; 9238.322
547.862; 5274.339; 5151.523; 9034.405
548.447; 5907.567; 5833.480; 7795.011
549.031; 5119.494; 5019.655; 7485.099
549.616; 5466.887; 5383.887; 7626.308
550.201; 4973.547; 4859.369; 7627.909
550.785; 5739.494; 5618.947; 7859.125
551.370; 4617.734; 4519.063; 7990.654
551.954; 5894.331; 5785.114; 8196.468
552.538; 5776.623; 5663.715; 7959.495
553.123; 4956.121; 4862.699; 7964.826
553.707; 5126.247; 5038.385; 8515.957
554.291; 6169.563; 6054.031; 8724.024
554.876; 5824.432; 5747.388; 8524.211
555.460; 4965.424; 4892.509; 8704.456
556.044; 4941.229; 4828.855; 9141.473
556.628; 5293.604; 5202.608; 9250.197
557.212; 6037.267; 5944.873; 9444.237
557.796; 5196.479; 5082.906; 9379.783
558.380; 5549.607; 5466.216; 9353.658
558.964; 5399.442; 5321.742; 9210.310
559.548; 4539.679; 4477.608; 8475.153
560.132; 5061.070; 4982.252; 7954.084
560.716; 4689.895; 4593.302; 7489.529
561.300; 4616.184; 4507.485; 7211.952
561.884; 5707.558; 5581.377; 7141.313
562.467; 5656.958; 5549.185; 7155.386
563.051; 5301.577; 5185.900; 7323.158
563.635; 5216.845; 5099.010; 7709.114
564.219; 5284.729; 5166.236; 7678.855
564.802; 5667.488; 5563.201; 7376.187
565.386; 5402.636; 5259.096; 7054.372
565.969; 6174.581; 6057.083; 6589.196
566.553; 6780.811; 6654.257; 6279.371
567.136; 6089.992; 5988.439; 5967.930
567.720; 5406.734; 5255.929; 5660.703
568.303; 5606.605; 5455.691; 5648.615
568.887; 5409.426; 5286.245; 5618.443
569.470; 5561.947; 5440.454; 5411.875
570.053; 5829.584; 5667.810; 5149.274
570.637; 4972.566; 4787.553; 5122.798
571.220; 5887.621; 5681.210; 4957.369
571.803; 6836.516; 6635.300; 4933.018
572.386; 5256.292; 5055.450; 4840.973
572.969; 5254.995; 5062.691; 4592.886
573.552; 5387.755; 5157.522; 4348.387
574.135; 4877.131; 4658.188; 4002.290
574.718; 5100.759; 4835.171; 3654.773
575.301; 5095.244; 4821.937; 3502.288
575.884; 5089.729; 4808.703; 3349.803
576.467; 6245.935; 5951.329; 3191.403
577.050; 5782.619; 5439.763; 3062.418
577.633; 6890.919; 6480.844; 3214.200
578.216; 5497.741; 5073.692; 3284.889
578.799; 5539.502; 5071.508; 3189.777
579.381; 7267.202; 6697.000; 3064.502
579.964; 5377.347; 4809.335; 2888.357
580.547; 5977.791; 5371.672; 2905.760
581.129; 6901.082; 6197.255; 2966.849
581.712; 6253.314; 5529.845; 2887.292
582.294; 6147.815; 5301.864; 2771.631
582.877; 7684.804; 6756.813; 2711.602
583.459; 6255.477; 5236.528; 2577.049
584.042; 6262.173; 5150.640; 2454.707
584.624; 5970.779; 4768.103; 2305.893
585.206; 5448.269; 4114.883; 2189.546
585.789; 6415.762; 4948.339; 2112.577
586.371; 7068.957; 5531.035; 2153.065
586.953; 7337.145; 5740.188; 2197.806
587.536; 7867.341; 6109.292; 2105.489
588.118; 7052.571; 5140.732; 1963.911
588.700; 8357.218; 6115.244; 1843.179
589.282; 8109.398; 5567.221; 1813.834
589.864; 8178.367; 5353.828; 1777.620
590.446; 7440.175; 4281.861; 1733.780
591.028; 8758.461; 5306.373; 1676.008
591.610; 7992.779; 4363.441; 1631.649
592.192; 9064.546; 5368.327; 1632.362
592.774; 8520.433; 4705.171; 1569.507
593.356; 8974.892; 4906.636; 1524.539
593.937; 9347.204; 4876.733; 1569.720
594.519;10648.215; 5891.684; 1569.049
595.101; 9678.555; 4415.508; 1545.452
595.683;10715.807; 4950.863; 1607.568
596.264;11552.610; 5184.795; 1615.506
596.846;11800.289; 5034.453; 1667.622
597.427;12114.600; 4882.123; 1670.469
598.009;12607.336; 4818.189; 1640.312
598.591;13803.622; 5743.932; 1541.022
599.172;13374.989; 5070.064; 1598.665
599.753;13356.935; 4544.065; 1619.068
600.335;15258.996; 6136.621; 1548.612
600.916;14742.179; 5220.222; 1607.510
601.498;15673.405; 5512.527; 1745.181
602.079;16310.006; 5267.174; 1801.011
602.660;17009.381; 5161.532; 1834.640
603.241;16348.800; 4183.903; 1787.351
603.823;17221.885; 4952.837; 1684.266
604.404;16960.848; 4586.540; 1654.241
604.985;17569.609; 4963.834; 1758.741
605.566;19012.582; 5787.352; 1697.679
606.147;19596.078; 5119.091; 1526.728
606.728;20000.270; 4563.777; 1484.086
607.309;21245.521; 4904.498; 1421.070
607.890;21298.676; 4984.097; 1369.867
608.471;21540.357; 4801.079; 1277.826
609.051;22556.035; 5385.582; 1180.416
609.632;22778.172; 4723.337; 1075.816
610.213;24470.896; 5155.071; 1053.313
610.794;25084.906; 4975.971;  979.442
611.374;26224.822; 5465.109;  917.414
611.955;25590.396; 4470.179;  819.987
612.536;27866.188; 5384.845;  752.627
613.116;28442.902; 4959.033;  690.799
613.697;28330.795; 4885.601;  674.974
614.277;28335.242; 4738.818;  663.846
614.858;27734.838; 4877.575;  665.898
615.438;27300.264; 5227.542;  660.712
616.019;27952.484; 6137.323;  632.732
616.599;26012.012; 4113.567;  551.759
617.179;27736.115; 4594.608;  512.871
617.760;31117.238; 6911.514;  473.655
618.340;29220.832; 5155.940;  440.004
618.920;30779.559; 6328.034;  429.731
619.500;30401.125; 5015.039;  441.361
620.080;29978.178; 4725.700;  425.202
620.660;30183.605; 4711.282;  408.164
621.241;31038.594; 5022.023;  387.161
621.821;32255.697; 5282.726;  378.017
622.401;32473.586; 5863.925;  379.188
622.980;30385.381; 4482.932;  350.019
623.560;30878.973; 5026.484;  336.446
624.140;29922.930; 5298.343;  336.473
624.720;28344.393; 5462.688;  334.974
625.300;27311.867; 4728.110;  325.717
625.880;28164.514; 5147.411;  308.519
626.459;30106.195; 5201.913;  307.117
627.039;30779.170; 4350.832;  290.890
627.619;34504.156; 6638.576;  286.635
628.198;34635.496; 5951.995;  282.535
628.778;35206.594; 5586.238;  285.474
629.357;32940.305; 4542.902;  284.103
629.937;32747.031; 4978.398;  292.178
630.516;34429.887; 6239.056;  290.749
631.096;33162.082; 4804.599;  285.489
631.675;34306.059; 6131.162;  287.022
632.254;33089.672; 4798.861;  286.038
632.834;32334.936; 5153.383;  276.451
633.413;32810.066; 6110.794;  279.447
633.992;31974.299; 5855.117;  264.508
634.571;31572.553; 5609.308;  271.010
635.151;32023.107; 4691.204;  277.338
635.730;32839.758; 5087.243;  289.305
636.309;32948.082; 5521.918;  285.306
636.888;32628.404; 5605.305;  254.051
637.467;29920.443; 4264.982;  230.324
638.046;31381.021; 6252.648;  253.349
638.625;31062.229; 6001.558;  246.866
639.204;30730.439; 5370.055;  240.825
639.782;31590.061; 5208.692;  261.970
640.361;31838.895; 6048.680;  277.780
640.940;30660.197; 4878.755;  270.101
641.519;30698.400; 5450.881;  248.622
642.097;31329.002; 5568.007;  239.843
642.676;31609.105; 5261.282;  244.264
643.255;31548.908; 5050.108;  234.985
643.833;33207.609; 5615.533;  244.406
644.412;33323.914; 4987.809;  244.927
644.990;33325.715; 5280.984;  249.948
645.569;33274.918; 5544.160;  249.569
646.147;33372.621; 5836.085;  243.290
646.726;31776.424; 5366.811;  249.511
647.304;31356.428; 4997.137;  228.032
647.882;29647.930; 4258.813;  214.552
648.461;29960.133; 5371.288;  214.973
649.039;30580.135; 5608.514;  223.394
649.617;30366.139; 5628.339;  261.415
650.195;30194.541; 5371.365;  298.736
650.773;29615.943; 4960.740;  309.557
651.352;28489.246; 4143.216;  297.978
651.930;27350.449; 4130.991;  289.399
652.508;29016.053; 5723.267;  285.620
653.086;28621.355; 5507.692;  272.241
653.663;27684.057; 4796.918;  265.062
654.241;27269.561; 4490.293;  286.083
654.819;28135.162; 4615.369;  286.404
655.397;29272.566; 4690.295;  291.825
655.975;30365.369; 5048.920;  299.145
656.553;31708.271; 6218.846;  288.866
657.130;30011.873; 4657.571;  304.087
657.708;29543.076; 5433.847;  302.908
658.286;29203.180; 5296.923;  294.629
658.863;29893.182; 5324.798;  293.350
659.441;29959.584; 5389.874;  318.671
660.018;28669.787; 5097.750;  333.692
660.596;27532.189; 4200.725;  335.013
661.173;28351.594; 4901.000;  371.534
661.750;28019.396; 4702.626;  365.155
662.328;29429.299; 5587.202;  349.976
662.905;28162.102; 4940.777;  332.997
663.482;27515.104; 5083.353;  321.717
664.060;27221.008; 4771.229;  314.438
664.637;28188.010; 5588.704;  306.259
665.214;28818.613; 5335.729;  314.580
665.791;28683.215; 5032.305;  334.501
666.368;28442.518; 4959.781;  329.222
666.945;29800.621; 5684.906;  342.143
667.522;29286.123; 4717.682;  370.964
668.099;29894.025; 5091.607;  396.885
668.676;29340.930; 5118.883;  391.706
669.253;30079.631; 6240.458;  369.627
669.830;29555.035; 6020.684;  360.348
670.407;28994.637; 5106.160;  344.769
670.984;29468.039; 5086.335;  322.890
671.560;29557.443; 5574.311;  316.910
672.137;28182.445; 4961.736;  322.531
672.714;28894.148; 5467.362;  318.552
673.290;29539.150; 5373.288;  324.473
673.867;29681.354; 4833.513;  340.594
674.443;29608.557; 4531.489;  319.515
675.020;29792.660; 5309.114;  286.336
675.596;28738.861; 5018.040;  247.557
676.173;28418.865; 4451.815;  227.778
676.749;28457.867; 3922.141;  224.399
677.326;29414.270; 4368.667;  230.520
677.902;30640.674; 4774.042;  241.841
678.478;31611.176; 4461.667;  239.762
679.054;35052.277; 7564.293;  248.583
679.631;31567.582; 5430.918;  237.503
680.207;31737.084; 6464.444;  245.924
680.783;29463.287; 4093.020;  224.845
681.359;31719.289; 5083.095;  209.666
681.935;32903.094; 5235.421;  191.687
682.511;32232.395; 5215.347;  210.008
683.087;31328.098; 5486.172;  213.329
683.663;30375.400; 4989.798;  216.850
684.239;30067.803; 4471.173;  229.471
684.815;32134.807; 5717.749;  248.792
685.390;32658.309; 6583.324;  231.813
685.966;30405.512; 5212.300;  221.234
686.542;30467.514; 4601.525;  214.255
687.118;32796.219; 5305.601;  212.276
687.693;33468.520; 5532.626;  233.096
688.269;32864.523; 5006.652;  246.917
688.844;33219.527; 5451.178;  236.938
689.420;32099.428; 5201.003;  242.059
689.995;32268.631; 6343.929;  245.480
690.571;31880.434; 6073.555;  244.701
691.146;31500.336; 4956.180;  251.922
691.722;32451.039; 5407.605;  284.743
692.297;32570.941; 4926.881;  320.664
692.872;32947.344; 4713.607;  313.885
693.448;32904.047; 4582.982;  290.106
694.023;34527.750; 5245.058;  304.327
694.598;35458.254; 5270.083;  319.648
695.173;33765.156; 4924.559;  323.169
695.748;31686.459; 4215.834;  376.389
696.323;32558.762; 5105.660;  397.610
696.898;33886.465; 5950.936;  430.231
697.473;32487.967; 4299.711;  454.952
698.048;34772.570; 4971.887;  478.973
698.623;34861.371; 4452.513;  477.094
699.198;34992.773; 5220.988;  496.915
699.773;34280.977; 4741.614;  490.236
700.348;33890.680; 4612.189;  519.957
700.922;35459.484; 5259.115;  575.678
701.497;35950.188; 5148.090;  621.399
702.072;36018.789; 5743.716;  664.420
702.646;35284.992; 5594.742;  690.541
703.221;33824.996; 5313.967;  748.862
703.795;32301.598; 4632.393;  774.282
704.370;30862.699; 3778.718;  799.803
704.944;31998.402; 4895.394;  875.824
705.519;33766.504; 5308.319;  902.945
706.093;33993.508; 4681.495;  889.266
706.668;34379.711; 5455.021;  903.487
707.242;34779.613; 5654.146;  881.708
707.816;34191.016; 4947.872;  892.329
708.390;33730.020; 5124.697;  970.250
708.965;33247.223; 5301.323;  984.671
709.539;33017.426; 4990.148; 1026.092
710.113;33629.227; 5207.074; 1067.913
710.687;33282.332; 5640.149; 1166.434
711.261;31980.832; 4559.725; 1190.854
711.835;32988.137; 4612.951; 1197.275
712.409;34122.738; 4253.726; 1308.096
712.983;33994.242; 4290.602; 1461.617
713.557;33622.445; 4282.777; 1611.838
714.131;33975.746; 5013.153; 1554.359
714.704;33151.449; 4634.329; 1520.780
715.278;34575.051; 5144.154; 1575.101
715.852;35288.355; 5585.030; 1689.822
716.425;36180.559; 6407.255; 1829.143
716.999;33452.059; 4212.281; 2008.664
717.573;33687.965; 5429.156; 2000.485
718.146;34853.867; 6262.982; 1914.506
718.720;35650.570; 5259.257; 1818.026
719.293;37082.871; 5467.333; 1734.147
719.867;36328.875; 4764.059; 1716.968
720.440;37827.879; 6015.034; 1918.589
721.013;36671.480; 4811.760; 1975.410
721.587;35206.383; 4299.285; 2073.331
722.160;35732.387; 5726.411; 2357.852
722.733;34073.387; 5173.437; 2657.073
723.306;32843.691; 5141.112; 2703.894
723.880;32717.994; 5249.688; 2549.415
724.453;34302.496; 5992.313; 2414.336
725.026;32940.000; 4835.539; 2298.557
725.599;33554.203; 5329.164; 2168.778
726.172;33170.504; 5443.940; 2106.099
726.745;33256.809; 5378.465; 2253.320
727.318;34050.012; 5725.491; 2404.740
727.891;34647.012; 5322.967; 2680.161
728.463;34460.215; 5295.292; 2838.882
729.036;32983.316; 4689.868; 2755.103
729.609;32677.021; 4626.493; 2731.824
730.182;33987.824; 5631.519; 2855.645
730.754;33003.727; 3903.344; 2946.866
731.327;34575.930; 5446.720; 2840.187
731.900;33345.531; 4321.945; 2647.608
732.472;34339.035; 5046.071; 2473.929
733.045;35971.137; 4950.497; 2445.750
733.617;35077.441; 4246.672; 2511.771
734.190;35659.941; 5419.898; 2581.592
734.762;35586.348; 5102.974; 2710.813
735.334;35526.750; 5176.299; 3005.733
735.907;34757.551; 5168.075; 3154.954
736.479;35602.855; 5842.250; 3171.675
737.051;35551.758; 5445.776; 3217.496
737.623;36310.758; 5507.851; 3246.217
738.195;35512.262; 4769.227; 2985.238
738.768;33838.465; 4023.802; 2727.559
739.340;34523.469; 4860.628; 2666.880
739.912;34846.270; 5603.554; 2769.601
740.484;34169.574; 5436.879; 2731.422
741.056;33400.074; 4970.305; 2963.043
741.628;33611.379; 4624.780; 3361.364
742.199;34466.281; 5959.956; 3641.185
742.771;33072.883; 4440.481; 3932.005
743.343;33949.887; 4653.057; 4319.926
743.915;34559.191; 5345.033; 4706.647
744.487;36201.191; 5489.258; 4874.968
745.058;36939.195; 5553.984; 4616.589
745.630;35992.098; 5518.659; 4253.410
746.201;34848.801; 4827.835; 4056.131
746.773;35123.402; 5459.160; 3772.952
747.344;35206.105; 5104.136; 3642.473
747.916;35228.211; 5270.111; 3752.294
748.487;35702.910; 5635.887; 4106.215
749.059;34289.613; 4506.013; 4457.835
749.630;33853.918; 4721.138; 4366.457
750.201;34527.520; 5102.164; 4600.078
750.773;34334.121; 4777.889; 4658.499
751.344;34850.625; 5161.865; 4609.319
751.915;34630.027; 5092.241; 4526.440
752.486;34345.930; 4694.116; 4536.061
753.057;34388.836; 5222.992; 4383.282
753.628;34671.137; 4686.817; 4296.503
754.199;35741.039; 4885.593; 4383.224
754.770;36777.641; 5480.368; 4653.545
755.341;35854.746; 5749.894; 4831.666
755.912;33624.449; 4999.419; 4831.387
756.483;33658.652; 5448.545; 4735.808
757.054;32493.254; 4883.271; 4685.029
757.625;31687.057; 4503.046; 4994.250
758.195;32876.859; 4325.572; 5051.471
758.766;34424.160; 5270.748; 5317.792
759.337;33309.563; 4280.773; 5646.512
759.907;32670.168; 4342.999; 5404.133
760.478;33162.371; 4789.124; 5090.954
761.048;33984.871; 5493.399; 4871.175
761.619;33109.676; 5362.475; 4589.396
762.189;33154.078; 5069.951; 4171.317
762.760;32512.980; 5565.626; 3872.538
763.330;31714.484; 5503.752; 3832.259
763.900;31925.887; 5284.328; 4150.180
764.471;31064.090; 4638.003; 4529.801
765.041;31703.191; 5847.179; 4715.922
765.611;31738.195; 5437.304; 4681.442
766.181;31666.896; 5039.780; 4717.063
766.751;32274.301; 5119.005; 4710.285
767.321;30944.002; 4448.131; 4450.305
767.891;30572.805; 5204.557; 4274.126
768.461;30414.408; 5037.032; 4215.047
769.031;30831.811; 5077.508; 4173.068
769.601;32143.314; 5778.733; 4174.689
770.171;31008.416; 4328.109; 4229.310
770.741;31625.619; 4911.034; 4352.031
771.311;31794.922; 5448.910; 4336.652
771.880;29800.525; 4618.485; 4300.873
772.450;29878.127; 4677.311; 4387.194
773.020;30537.230; 4289.887; 4220.415
773.589;31088.732; 4754.562; 4075.835
774.159;30647.137; 4800.438; 4105.756
774.729;30865.539; 4720.813; 4114.978
775.298;31069.141; 4759.439; 3693.298
775.867;30617.645; 4757.714; 3343.119
776.437;30766.447; 5131.040; 3062.040
777.006;29619.549; 4302.866; 2927.161
777.576;31164.152; 5446.941; 3046.482
778.145;30845.555; 5370.917; 3230.203
778.714;29863.857; 5031.542; 3253.324
779.283;29632.561; 5439.118; 3129.745
779.853;29559.664; 5058.943; 2983.566
780.422;30009.766; 5060.219; 2929.887
780.991;29851.170; 5386.495; 2863.908
781.560;29894.271; 5965.070; 2948.029
782.129;28835.574; 5295.696; 3074.149
782.698;29437.877; 5900.921; 2893.970
783.267;28667.480; 4729.297; 2721.391
783.836;29219.883; 5276.172; 2659.712
784.404;28478.586; 4461.098; 2622.233
784.973;27902.188; 3851.023; 2600.754
785.542;28935.391; 5026.349; 2528.475
786.111;30172.094; 5830.775; 2404.396
786.679;29605.496; 5452.550; 2365.717
787.248;27228.799; 4330.676; 2498.438
787.817;27089.902; 4810.651; 2645.659
788.385;27699.404; 5724.877; 2709.280
788.954;26584.207; 4367.553; 2620.500
789.522;28324.910; 5565.378; 2625.422
790.090;27017.014; 4385.804; 2743.843
790.659;27415.615; 4865.079; 2635.163
791.227;28066.418; 4976.205; 2495.484
791.795;28645.721; 5255.430; 2413.705
792.364;28053.824; 4543.306; 2345.326
792.932;28700.627; 5377.682; 2350.447
793.500;27113.129; 4911.007; 2429.768
794.068;26005.533; 4323.183; 2513.589
794.636;26841.336; 4670.558; 2664.310
795.204;26694.438; 4202.534; 2721.431
795.772;27015.541; 4632.659; 2802.052
796.340;27339.244; 4759.435; 2847.173
796.908;26715.846; 4206.960; 2997.194
797.476;26129.049; 4502.336; 3151.615
798.044;26192.852; 4136.012; 3110.735
798.612;26829.254; 4980.737; 2931.656
799.180;26529.057; 5133.313; 2785.777
799.747;25638.959; 5083.138; 2899.098
800.315;24505.162; 4392.014; 2955.519
800.883;23989.066; 4061.490; 2948.940
801.450;24873.568; 5018.665; 2965.361
802.018;26102.971; 5292.940; 3070.582
802.585;25978.373; 5054.666; 3156.103
803.153;25354.977; 4664.492; 3199.524
803.720;25883.479; 4707.517; 3168.845
804.287;26864.883; 4887.243; 3248.366
804.855;28256.785; 5659.468; 3406.187
805.422;26690.387; 4918.644; 3430.907
805.989;25522.990; 4588.070; 3453.528
806.556;25332.693; 4591.795; 3612.649
807.124;25971.896; 5564.021; 3736.570
807.691;25205.299; 4479.996; 3770.491
808.258;26310.602; 5059.472; 3705.012
808.825;26242.703; 5589.797; 3828.733
809.392;26352.406; 5972.673; 3986.754
809.959;25936.510; 5256.549; 4410.075
810.526;26557.012; 6019.674; 4774.996
811.093;25759.814; 5721.400; 4754.217
811.659;24777.418; 5003.125; 4661.238
812.226;24806.721; 4971.901; 4672.559
812.793;24781.523; 5206.876; 4822.979
813.360;24867.227; 4989.102; 5189.800
813.926;25287.828; 5258.478; 5310.622
814.493;24459.432; 4367.403; 5414.542
815.060;24094.535; 4104.079; 5548.963
815.626;24493.838; 4424.154; 5452.284
816.193;24653.740; 5153.030; 5339.305
816.759;23569.143; 4596.655; 5544.426
817.325;23098.445; 4107.481; 5706.547
817.892;24183.148; 5512.756; 5623.468
818.458;23546.750; 5284.882; 5586.689
819.024;23675.154; 5746.008; 5647.910
819.591;23356.557; 5041.883; 5762.031
820.157;23369.359; 4388.759; 6284.452
820.723;24066.563; 5277.134; 6906.973
821.289;26206.465; 7644.560; 7086.894
821.855;23861.768; 5422.386; 7054.915
822.421;22580.770; 4781.211; 7112.035
822.987;21944.973; 4474.437; 7256.156
823.553;22315.875; 4880.512; 7538.077
824.119;22538.379; 5598.288; 7594.298
824.685;22091.980; 5809.763; 7613.619
825.251;21659.783; 5485.439; 7644.140
825.816;22085.688; 6152.064; 7720.261
826.382;21499.590; 5462.590; 8014.282
826.948;21866.592; 5587.666; 8281.503
827.513;21117.994; 4939.641; 8289.624
828.079;20001.297; 4576.167; 8587.045
828.645;21333.801; 5236.742; 8821.865
829.210;21075.703; 4476.118; 9054.486
829.776;21661.705; 5393.894; 9054.607
830.341;20808.508; 5571.819; 9415.628
830.906;20625.711; 5734.745; 9932.449
831.472;19343.414; 4652.970;10150.271
832.037;20958.717; 5600.096; 9420.391
832.602;20415.520; 4780.071; 8664.912
833.167;20544.922; 5128.247; 8491.933
833.733;20491.225; 5597.522; 8872.854
834.298;19016.729; 4517.298; 9370.575
834.863;19759.531; 5262.974; 9610.695
835.428;19275.033; 5239.899; 9655.616
835.993;19092.236; 5386.875; 9437.838
836.558;19708.939; 5484.250; 9441.459
837.123;21508.342; 6723.426; 9600.979
837.688;19975.844; 5300.852; 9798.301
838.253;19761.646; 5286.427; 9902.921
838.817;18843.551; 4945.703;10339.742
839.382;19716.953; 5909.928;10548.363
839.947;19194.455; 5175.404;10252.484
840.511;19948.658; 6070.330;10040.005
841.076;17247.961; 4079.655;10099.926
841.641;18348.463; 5452.181;10347.347
842.205;17843.566; 5323.656;10817.368
842.770;18733.670; 6296.932;11435.289
843.334;17565.572; 5019.107;12072.409
843.898;16799.475; 4823.783;12635.431
844.463;17442.377; 5928.008;12537.252
845.027;16413.381; 4890.584;12759.673
845.591;16847.482; 5662.259;12821.993
846.156;16339.086; 4826.035;12520.914
846.720;17471.189; 5556.960;12390.436
847.284;17283.391; 5252.386;12956.456
847.848;16904.193; 5441.262;13240.177
848.412;15896.097; 5169.087;13216.998
848.976;16183.199; 6061.613;13014.619
849.540;16517.102; 6527.588;12355.740
850.104;16053.605; 5991.064;12208.761
850.668;14613.108; 4184.590;12106.882
851.232;14763.011; 4307.315;11862.103
851.796;15312.113; 5074.941;11700.523
852.359;15559.017; 5627.167;12375.944
852.923;16081.719; 5804.642;13087.966
853.487;16121.821; 5520.167;13297.187
854.050;13861.225; 3571.143;13851.207
854.614;14660.327; 4908.619;14854.229
855.177;14923.930; 5336.494;15802.149
855.741;14854.333; 5383.170;16603.570
856.304;14816.136; 5697.095;16359.891
856.868;13652.738; 4635.771;14365.512
857.431;14233.041; 5137.597;13361.333
857.995;13419.644; 4962.522;14130.554
858.558;13249.547; 5337.897;14883.175
859.121;13694.249; 5622.773;15754.195
859.684;13557.952; 5279.549;15995.017
860.247;13445.154; 5129.674;15149.537
860.810;12911.157; 4926.800;14640.358
861.374;14310.860; 6596.625;15551.079
861.937;12017.963; 4535.751;16519.801
862.500;12330.565; 4851.626;16796.521
863.062;11939.769; 4611.952;16538.742
863.625;12593.972; 5352.228;16716.764
864.188;12196.974; 4892.903;17055.084
864.751;11983.776; 4850.029;17197.705
865.314;12230.779; 5205.104;17151.625
865.876;12980.383; 5766.130;17783.547
866.439;12717.285; 5567.105;19283.467
867.002;13678.688; 6460.231;20256.389
867.564;12873.791; 5861.807;20485.410
868.127;11985.793; 5149.032;20789.730
868.689;12167.496; 5392.908;21981.951
869.252;12564.099; 5834.233;23803.771
869.814;11380.602; 4718.109;24974.094
870.377;11926.004; 5351.635;24690.314
870.939;13760.307; 7392.760;23963.436
871.501;11625.910; 5303.736;25167.156
872.063; 9964.413; 3896.411;26995.477
872.626;10365.915; 4223.787;27443.098
873.188;11371.019; 5324.163;26718.418
873.750;10851.221; 5080.338;26558.840
874.312;10427.323; 4895.864;26701.561
874.874;11735.727; 6199.339;27970.582
875.436;11136.229; 5680.564;29173.402
875.998;11139.932; 6024.940;30376.623
876.560;10526.535; 5691.266;32507.344
877.122; 9496.537; 4768.292;34833.066
877.683;10201.340; 5575.017;36458.285
878.245; 9409.343; 4897.792;37248.207
878.807; 9924.445; 5480.068;36758.027
879.369; 8984.248; 4507.444;35223.551
879.930; 9230.551; 4623.719;33824.969
880.492;10528.854; 5949.395;34436.492
881.053; 9014.757; 4672.570;37745.313
881.615; 8924.060; 4868.146;41184.633
882.176; 8905.162; 5057.021;42871.555
882.738; 9410.865; 5618.397;41693.074
883.299; 7934.968; 4152.623;40289.895
883.860; 7992.471; 4284.748;39231.215
884.422; 9202.974; 5557.724;38264.039
884.983; 8155.976; 4626.299;37171.859
885.544; 8662.479; 5340.225;35842.379
886.105; 8314.981; 5211.150;34810.000
886.666; 7812.984; 4913.826;34519.020
887.227; 7128.887; 4302.852;33905.641
887.788; 8262.189; 5344.127;34502.965
888.349; 7279.792; 4439.103;34241.785
888.910; 8333.596; 5573.479;33722.203
889.471; 8015.898; 5316.104;32539.625
890.032; 7804.801; 5162.779;31528.346
890.593; 8151.204; 5543.855;32655.068
891.153; 7519.707; 5135.131;33882.289
891.714; 6696.109; 4414.606;33318.711
892.275; 6766.812; 4501.832;31848.930
892.835; 7921.814; 5723.458;30339.752
893.396; 7664.717; 5634.183;30074.973
893.956; 6975.320; 5032.409;30338.393
894.517; 7154.723; 5302.334;30864.113
895.077; 7168.926; 5403.359;29766.734
895.638; 7888.528; 6198.235;26379.557
896.198; 6134.531; 4584.511;24056.277
896.758; 7215.934; 5675.736;22961.898
897.319; 6570.637; 5074.512;21772.020
897.879; 6568.239; 5141.837;20877.539
898.439; 5660.842; 4307.613;19509.461
898.999; 6818.645; 5535.039;17297.582
899.559; 6712.048; 5431.164;14712.002
900.119; 5827.450; 4616.940;12790.224
900.679; 7286.253; 6113.965;11586.744
901.239; 6696.756; 5570.341;10776.465
901.799; 6283.958; 5233.517; 9691.687
902.359; 5722.861; 4687.342; 8725.907
902.919; 5647.264; 4621.167; 8305.728
903.479; 5644.267; 4659.443; 8172.649
904.038; 5414.770; 4449.169; 7913.870
904.598; 4808.873; 3875.344; 7262.291
905.158; 5783.575; 4863.920; 6609.012
905.717; 5963.878; 5072.996; 6236.133
906.277; 6041.781; 5162.421; 5829.054
906.836; 6276.383; 5462.646; 5396.674
907.396; 6165.486; 5392.572; 4964.195
907.955; 6239.889; 5429.648; 4528.917
908.515; 5704.292; 4933.723; 4223.837
909.074; 5735.495; 4988.649; 4023.958
909.633; 5765.197; 5010.174; 4065.379
910.192; 6989.400; 6207.950; 4066.300
910.752; 5677.400; 4959.600; 3971.600
911.311; 5579.500; 4865.850; 3839.600
911.870; 5400.700; 4688.450; 3684.500
912.429; 6504.900; 5783.650; 3635.600
912.988; 6375.500; 5661.550; 3689.800
913.547; 5302.400; 4605.900; 3737.700
914.106; 5921.200; 5258.100; 3740.300
914.665; 5891.700; 5208.000; 3604.600
915.224; 6436.600; 5768.550; 3358.700
915.782; 5508.400; 4839.550; 3188.400
916.341; 6625.000; 5962.050; 3091.400
916.900; 5573.100; 4909.900; 3044.800
917.458; 5298.000; 4651.400; 2888.600
918.017; 5825.600; 5178.650; 2818.900
918.576; 5568.600; 4931.300; 2838.600
919.134; 4967.100; 4303.950; 2880.100
919.693; 5540.100; 4873.500; 2996.300
920.251; 5437.800; 4780.050; 3183.100
920.809; 5135.800; 4494.900; 3247.000
921.368; 5474.700; 4778.200; 3156.600
921.926; 5260.800; 4589.350; 2964.900
922.484; 5768.600; 5097.850; 2846.300
923.042; 5550.800; 4926.600; 2890.400
923.601; 6600.800; 5921.450; 2987.700
924.159; 6053.800; 5421.100; 3049.800
924.717; 5236.000; 4566.750; 3087.000
925.275; 5772.300; 5131.200; 3093.400
925.833; 4763.800; 4094.750; 3182.400
926.391; 6057.000; 5383.850; 3397.900
926.949; 5467.900; 4799.250; 3575.400
927.506; 5826.100; 5168.150; 3713.400
928.064; 5569.900; 4871.550; 3871.300
928.622; 5664.800; 4950.850; 4092.800
929.180; 5068.400; 4394.550; 4499.300
929.737; 4963.300; 4262.150; 4813.200
930.295; 6044.900; 5342.700; 5084.100
930.853; 5337.600; 4611.400; 5185.000
931.410; 5064.400; 4362.650; 5313.100
931.968; 6139.800; 5435.750; 5339.600
932.525; 5805.300; 5058.050; 5399.900
933.082; 5021.000; 4274.850; 5457.500
933.640; 6000.500; 5255.400; 5692.900
934.197; 5604.100; 4870.600; 5821.200
934.754; 5648.300; 4870.050; 5617.900
935.312; 5355.600; 4606.400; 5512.400
935.869; 6641.900; 5887.300; 5582.400
936.426; 5396.900; 4637.950; 5650.100
936.983; 5540.900; 4807.450; 5657.400
937.540; 5077.600; 4325.550; 5564.300
938.097; 6006.900; 5211.850; 5574.000
938.654; 5512.700; 4733.500; 5665.900
939.211; 5994.300; 5207.750; 5931.600
939.768; 5722.600; 4927.300; 6153.600
940.324; 5594.000; 4788.500; 6397.600
940.881; 5396.800; 4588.100; 6454.200
941.438; 6522.800; 5707.300; 6206.900
941.995; 6304.500; 5495.300; 6003.900
942.551; 5163.400; 4355.850; 6228.300
943.108; 5711.500; 4900.450; 6603.500
943.664; 5214.200; 4401.000; 7188.100
944.221; 7030.800; 6214.550; 7579.900
944.777; 5156.600; 4352.050; 7658.100
945.334; 5285.500; 4460.300; 7670.400
945.890; 5780.600; 4974.650; 7525.100
946.446; 5815.700; 5010.250; 7261.500
947.003; 5940.800; 5163.700; 6949.200
947.559; 6716.000; 5954.200; 6773.100
948.115; 6371.700; 5645.200; 6668.400
948.671; 5899.700; 5137.900; 6488.400
949.227; 4982.800; 4193.750; 6236.600
949.783; 4890.400; 4117.050; 6008.900
950.339; 5979.100; 5242.800; 5934.100
950.895; 6315.300; 5574.850; 5933.500
951.451; 5478.600; 4741.800; 6074.700
952.007; 6117.400; 5352.750; 6066.400
952.563; 5528.400; 4791.800; 5884.100
953.118; 5382.200; 4613.750; 5733.800
953.674; 5708.900; 4922.500; 5734.300
954.230; 5686.400; 4959.300; 6039.700
954.785; 5657.300; 4916.850; 6383.500
955.341; 6117.000; 5416.850; 6568.200
955.897; 4839.400; 4133.300; 6488.600
956.452; 5857.700; 5157.200; 6239.200
957.008; 7055.400; 6357.800; 5954.600
957.563; 6393.200; 5679.400; 5816.700
958.118; 5268.700; 4559.100; 5828.200
958.674; 5816.200; 5078.700; 5717.400
959.229; 6458.000; 5788.900; 5506.800
959.784; 4988.700; 4272.350; 5292.200
960.339; 6465.900; 5738.950; 5101.900
960.894; 6121.600; 5417.000; 5093.200
961.449; 5216.300; 4517.750; 5227.900
962.004; 8225.000; 7532.950; 5349.300
962.559; 5244.100; 4597.600; 5514.900
963.114; 4283.600; 3622.400; 5717.300
963.669; 5695.700; 5023.250; 5841.400
964.224; 5435.400; 4740.150; 5805.900
964.779; 5060.800; 4358.550; 5723.400
965.334; 6462.900; 5790.050; 5779.500
965.888; 5368.800; 4670.950; 5948.500
966.443; 6204.900; 5528.700; 6344.200
966.998; 4819.600; 4132.900; 6666.300
967.552; 5585.800; 4962.650; 6710.100
968.107; 5290.900; 4647.700; 6593.500
968.661; 5796.900; 5145.450; 6344.100
969.216; 5247.700; 4608.150; 6062.400
969.770; 5767.900; 5152.800; 5785.500
970.324; 5813.900; 5182.700; 5426.800
970.879; 6062.700; 5463.500; 5016.800
971.433; 6122.500; 5521.200; 4904.500
971.987; 5675.500; 5071.450; 4991.000
972.541; 5875.600; 5259.650; 4978.500
973.095; 6615.700; 6011.200; 4832.000
973.649; 4936.700; 4331.800; 4767.900
974.203; 5124.200; 4502.500; 4881.200
974.757; 5343.600; 4730.300; 4969.500
975.311; 5567.400; 4921.050; 4953.000
975.865; 5628.800; 4997.600; 4884.300
976.419; 5406.000; 4821.850; 4739.800
976.973; 5330.100; 4742.950; 4698.100
977.526; 6218.100; 5635.700; 4631.100
978.080; 4908.900; 4325.400; 4621.600
978.634; 5930.200; 5383.250; 4650.200
979.187; 5813.200; 5267.150; 4669.200
979.741; 6827.500; 6253.100; 4658.000
980.294; 4909.100; 4361.800; 4579.100
980.848; 4316.400; 3796.150; 4452.800
981.401; 5228.400; 4698.600; 4271.900
981.955; 5510.900; 4978.100; 4087.800
982.508; 4653.500; 4129.250; 3973.900
983.061; 6144.500; 5614.150; 3928.600
983.615; 5055.900; 4550.500; 3851.200
984.168; 4853.900; 4374.550; 3734.800
984.721; 5817.800; 5297.850; 3628.300
985.274; 5652.100; 5179.000; 3564.300
985.827; 5446.100; 4956.350; 3558.100
986.380; 4498.900; 4019.650; 3559.900
986.933; 5686.200; 5235.600; 3688.700
987.486; 5705.400; 5250.250; 3778.500
988.039; 5687.900; 5211.400; 3559.900
988.591; 6002.700; 5577.650; 3219.300
989.144; 4705.600; 4254.600; 2902.900
989.697; 4968.600; 4526.200; 2722.600
990.250; 5853.800; 5416.950; 2618.000
990.802; 4978.400; 4538.700; 2523.900
991.355; 6950.600; 6484.450; 2436.500
991.907; 6009.700; 5581.450; 2412.200
992.460; 5068.800; 4678.450; 2387.900
993.012; 5079.700; 4678.000; 2365.800
993.565; 4781.200; 4384.000; 2311.100
994.117; 6751.100; 6381.400; 2308.700
994.669; 4778.200; 4400.700; 2249.300
995.221; 5612.800; 5229.250; 2158.100
995.774; 5484.700; 5121.500; 2085.600
996.326; 5132.700; 4758.800; 2068.100
996.878; 6052.000; 5677.700; 1975.300
997.430; 4885.500; 4524.900; 1929.500
997.982; 5323.700; 4971.100; 1861.900
998.534; 5262.000; 4937.900; 1830.200
999.086; 5228.800; 4910.300; 1823.200
999.638; 4586.000; 4255.000; 1815.000
1000.190; 5004.300; 4652.250; 1796.600
1000.741; 5332.200; 5014.250; 1738.800
1001.293; 4859.700; 4532.050; 1666.200
1001.845; 4869.600; 4533.200; 1566.500
1002.396; 5403.600; 5081.800; 1471.900
1002.948; 5349.100; 5048.700; 1398.000
1003.500; 5267.300; 4960.550; 1356.500
1004.051; 6918.800; 6624.850; 1294.200
1004.603; 5953.100; 5643.750; 1190.000
1005.154; 4410.400; 4166.050; 1063.900
1005.705; 5404.200; 5158.700;  968.300
1006.257; 5326.200; 5060.350;  889.800
1006.808; 5187.200; 4926.700;  801.500
1007.359; 5896.900; 5655.450;  716.400
1007.910; 4887.500; 4671.000;  639.100
1008.461; 5654.600; 5443.300;  561.600
1009.013; 4389.700; 4188.250;  500.400
1009.564; 6175.500; 5967.100;  476.100
1010.115; 4479.500; 4299.100;  431.600
1010.665; 4604.700; 4390.700;  409.300
1011.216; 5149.000; 4940.700;  399.700
1011.767; 5348.800; 5164.100;  388.100
1012.318; 5584.000; 5392.150;  381.400
1012.869; 5145.900; 4966.150;  375.400
1013.419; 4574.600; 4378.150;  357.600
1013.970; 5179.000; 4961.350;  358.300
1014.521; 4689.900; 4524.950;  344.100
1015.071; 5182.700; 5015.950;  322.800
1015.622; 4863.000; 4668.650;  320.600
1016.172; 4574.500; 4392.750;  301.700
1016.723; 4709.100; 4524.350;  289.800
1017.273; 4651.200; 4471.700;  287.600
1017.823; 5021.300; 4817.050;  278.700
1018.374; 4737.800; 4549.200;  274.400
1018.924; 5589.100; 5442.750;  283.200
1019.474; 5539.600; 5356.750;  278.500
1020.024; 5071.000; 4888.650;  274.700
1020.574; 5681.300; 5503.500;  272.700
1021.124; 5256.500; 5080.200;  278.400
1021.674; 4296.900; 4124.300;  269.200
1022.224; 5563.200; 5407.900;  267.800
1022.774; 5179.100; 5009.550;  258.100
1023.324; 5949.800; 5784.100;  260.000
1023.874; 7043.000; 6859.800;  260.700
1024.423; 4764.600; 4580.650;  252.700
1024.973; 4621.600; 4470.350;  234.700
1025.523; 4788.500; 4626.050;  226.500
1026.072; 4724.700; 4538.100;  225.500
1026.622; 5259.500; 5114.600;  210.100
1027.172; 5617.400; 5425.100;  213.000
1027.721; 4662.700; 4495.400;  207.700
1028.270; 5262.500; 5086.500;  205.400
1028.820; 4993.900; 4850.200;  201.000
1029.369; 4767.300; 4637.950;  201.000
1029.918; 5033.100; 4862.500;  198.400
1030.468; 4370.600; 4243.350;  199.200
1031.017; 4961.000; 4836.350;  192.600
1031.566; 4787.400; 4617.600;  197.400
1032.115; 5459.500; 5331.750;  188.300
1032.664; 4688.700; 4559.450;  193.700
1033.213; 5842.200; 5668.250;  191.900
1033.762; 4993.800; 4830.250;  184.500
1034.311; 5349.400; 5191.500;  194.300
1034.860; 5453.500; 5284.950;  192.300
1035.408; 5773.200; 5610.700;  182.600
1035.957; 5651.700; 5522.400;  173.900
1036.506; 4078.000; 3960.200;  185.200
1037.055; 6751.700; 6586.050;  182.500
1037.603; 5264.000; 5103.350;  167.600
1038.152; 4131.800; 3968.450;  168.200
1038.700; 4551.400; 4427.150;  169.600
1039.249; 5378.600; 5226.650;  164.300
1039.797; 5005.100; 4872.500;  169.600
1040.345; 5590.500; 5424.800;  167.100
1040.894; 4953.800; 4813.700;  164.400
1041.442; 5022.900; 4877.550;  158.300
1041.990; 4393.900; 4262.300;  160.000
1042.538; 4208.600; 4042.350;  156.800
1043.087; 4429.800; 4310.800;  146.600
1043.635; 5413.200; 5260.000;  162.400
1044.183; 4687.600; 4514.800;  156.300
1044.731; 4546.000; 4406.500;  158.100
1045.279; 5397.900; 5219.050;  154.500
1045.827; 7233.400; 7077.300;  146.200
1046.374; 4014.000; 3856.850;  154.000
1046.922; 4641.800; 4528.700;  149.000
1047.470; 5523.500; 5396.150;  154.900
1048.018; 5239.400; 5076.000;  148.400
1048.565; 5733.400; 5586.050;  146.300
1049.113; 4350.000; 4219.750;  156.100
1049.660; 4965.800; 4830.250;  154.300
1050.208; 5383.500; 5232.150;  149.400
1050.755; 4800.200; 4685.600;  157.500
1051.303; 5505.700; 5350.000;  157.700
1051.850; 5026.400; 4900.250;  152.800
1052.397; 3687.800; 3583.350;  146.300
1052.945; 4934.300; 4763.250;  149.500
1053.492; 6006.300; 5860.450;  149.300
1054.039; 5793.300; 5671.700;  163.100
1054.586; 4421.700; 4260.150;  150.400
1055.133; 5577.200; 5451.250;  153.500
1055.680; 5150.800; 5019.000;  155.600
1056.227; 4265.300; 4119.750;  148.700
1056.774; 6440.900; 6272.800;  151.500
1057.321; 4132.400; 3982.050;  143.700
1057.868; 5183.900; 5038.200;  145.300
1058.415; 5246.100; 5095.550;  153.500
1058.961; 5447.600; 5280.150;  149.900
1059.508; 5135.200; 4988.750;  147.300
1060.055; 4663.900; 4525.850;  151.000
1060.601; 4940.100; 4812.050;  148.700
1061.148; 5000.200; 4856.200;  153.800
1061.694; 4752.700; 4607.750;  150.500
1062.241; 4789.800; 4618.400;  149.100
1062.787; 5355.100; 5206.850;  153.000
1063.334; 6488.200; 6355.650;  153.200
1063.880; 5431.800; 5266.000;  148.400
1064.426; 5709.900; 5564.350;  149.200
1064.972; 4791.700; 4656.350;  156.400
1065.518; 4532.200; 4387.200;  144.700
1066.065; 5073.600; 4927.450;  139.400
1066.611; 4810.700; 4690.100;  139.300
1067.157; 5149.000; 5020.700;  138.400
1067.703; 5417.200; 5278.700;  142.700
1068.249; 4766.900; 4640.100;  136.700
1068.794; 5052.400; 4906.750;  139.400
1069.340; 4621.100; 4496.450;  142.700
1069.886; 4792.900; 4653.350;  135.600
1070.432; 4332.300; 4171.150;  133.400
1070.977; 4861.300; 4721.800;  138.200
1071.523; 4504.400; 4393.350;  132.400
1072.068; 4630.500; 4498.200;  132.700
1072.614; 4181.800; 4055.600;  127.000
1073.160; 5605.100; 5477.150;  131.300
1073.705; 4634.900; 4497.900;  135.700
1074.250; 4506.200; 4390.750;  133.000
1074.796; 5309.200; 5194.350;  138.000
1075.341; 5373.000; 5229.600;  137.300
1075.886; 4749.700; 4626.400;  134.300
1076.431; 5342.700; 5204.900;  138.200
1076.976; 5194.800; 5083.800;  132.200
1077.521; 4686.500; 4562.800;  138.900
1078.067; 4672.800; 4576.800;  128.600
1078.612; 5414.100; 5274.850;  138.900
1079.156; 4840.500; 4743.400;  128.900
1079.701; 5650.900; 5527.550;  129.700
1080.246; 5655.100; 5543.800;  128.600
1080.791; 5128.900; 4994.550;  122.600
1081.336; 5343.200; 5231.150;  122.000
1081.880; 5301.100; 5190.550;  123.900
1082.425; 4616.000; 4490.500;  120.600
1082.970; 5843.100; 5734.950;  124.500
1083.514; 4828.600; 4696.700;  112.000
1084.059; 4756.700; 4624.650;  120.700
1084.603; 4587.800; 4479.200;  116.000
1085.147; 5283.600; 5167.200;  116.300
1085.692; 5871.700; 5753.400;  108.200
1086.236; 4072.500; 3966.450;  114.600
1086.780; 6171.200; 6044.500;  118.900
1087.325; 5352.400; 5225.500;  120.400
1087.869; 4988.800; 4879.850;  110.500
1088.413; 5749.000; 5615.250;  114.000
1088.957; 4357.500; 4238.200;  114.300
1089.501; 6343.900; 6206.000;  114.600
1090.045; 5981.400; 5864.600;  114.200
1090.589; 4622.600; 4492.250;  105.500
1091.133; 5457.100; 5377.300;  111.800
1091.676; 4760.400; 4649.250;  110.900
1092.220; 4919.300; 4787.250;  110.100
1092.764; 5779.100; 5672.550;  108.100
1093.307; 5484.400; 5364.100;  109.900
1093.851; 4523.100; 4422.150;  107.500
1094.395; 5611.200; 5493.850;   96.200
1094.938; 5193.200; 5062.000;   99.300
1095.482; 4562.600; 4436.550;   97.700
1096.025; 5837.400; 5711.450;   84.900
1096.568; 6338.000; 6229.550;   88.500
1097.112; 4072.700; 3972.400;   95.700
1097.655; 4844.900; 4744.650;   97.300
1098.198; 4883.400; 4778.850;   92.600
1098.741; 5056.500; 4922.400;   91.800
1099.285; 5344.200; 5240.200;   88.000
1099.828; 3555.000; 3448.600;   91.700
1100.371; 5003.300; 4888.250;   89.900
1100.914; 5628.600; 5508.500;   91.500
1101.457; 5554.400; 5443.850;   88.100
1101.999; 4734.500; 4632.250;   86.400
1102.542; 5237.800; 5117.750;   90.800
1103.085; 5412.300; 5320.700;   95.400
1103.628; 6325.300; 6206.250;   97.700
1104.170; 4777.600; 4684.400;   84.000
1104.713; 5295.500; 5195.850;   93.900
1105.256; 4531.100; 4419.550;   93.000
1105.798; 4099.700; 3988.600;   85.600
1106.341; 5981.200; 5905.300;   87.100
1106.883; 4275.900; 4161.400;   85.200
1107.425; 5518.800; 5414.900;   85.000
1107.968; 5087.900; 4974.500;   84.300
1108.510; 5631.500; 5540.350;   88.200
1109.052; 5097.200; 4988.450;   86.600
1109.594; 4590.400; 4484.800;   79.400
1110.136; 5292.100; 5221.300;   81.700
1110.679; 5148.500; 5066.900;   75.500
1111.221; 5004.800; 4895.250;   88.500
1111.763; 4553.500; 4453.050;   87.700
1112.304; 4466.100; 4373.350;   89.700
1112.846; 5516.300; 5377.400;   81.900
1113.388; 7890.900; 7765.850;   86.400
1113.930; 5742.500; 5628.400;   84.700
1114.472; 5017.100; 4929.350;   78.900
1115.013; 4511.600; 4415.050;   78.100
1115.555; 4864.900; 4761.800;   84.900
1116.097; 4733.500; 4628.450;   79.200
1116.638; 5678.700; 5576.850;   83.700
1117.180; 5458.500; 5357.600;   85.500
1117.721; 4740.600; 4643.900;   78.800
1118.262; 5634.800; 5513.150;   77.400
1118.804; 5252.900; 5150.350;   81.400
1119.345; 4832.800; 4708.600;   77.800
1119.886; 5819.400; 5730.300;   81.200
1120.427; 4842.700; 4749.450;   77.200
1120.969; 4947.900; 4855.250;   75.200
1121.510; 4682.400; 4565.100;   80.900
1122.051; 6012.100; 5882.950;   77.300
1122.592; 5447.200; 5362.150;   73.300
1123.133; 4491.100; 4406.450;   90.100
1123.673; 5910.100; 5780.650;   75.000
1124.214; 5062.700; 4988.450;   80.600
1124.755; 5366.200; 5239.150;   78.000
1125.296; 5166.900; 5071.700;   77.500
1125.836; 5711.100; 5614.350;   80.400
1126.377; 4973.900; 4888.950;   75.600
1126.918; 5132.000; 4990.000;   78.900
1127.458; 5190.100; 5057.400;   78.000
1127.999; 5461.500; 5356.800;   76.100
1128.539; 5764.000; 5660.000;   81.400
1129.079; 5311.700; 5167.400;   77.400
1129.620; 4640.000; 4531.750;   68.000
1130.160; 4483.200; 4398.900;   77.500
1130.700; 5320.100; 5217.650;   76.300
1131.240; 5354.900; 5245.000;   66.800
1131.781; 5184.100; 5091.350;   70.600
1132.321; 4978.700; 4912.100;   77.200
1132.861; 4654.000; 4544.850;   70.400
1133.401; 4965.300; 4886.600;   68.700
1133.941; 5210.700; 5117.700;   68.500
1134.481; 5021.600; 4933.900;   75.900
1135.020; 5056.800; 4968.550;   66.600
1135.560; 5587.300; 5473.300;   68.100
1136.100; 4151.600; 4069.400;   64.900
1136.640; 4265.000; 4176.500;   72.500
1137.179; 4448.900; 4350.650;   69.700
1137.719; 5057.900; 4954.400;   68.400
1138.258; 4880.800; 4803.500;   67.000
1138.798; 5509.200; 5416.400;   69.600
1139.337; 3996.500; 3922.550;   64.000
1139.877; 5343.900; 5230.350;   64.500
1140.416; 7262.700; 7166.500;   74.900
1140.955; 4418.100; 4333.400;   67.200
1141.494; 5638.600; 5532.550;   69.900
1142.034; 4841.300; 4767.300;   59.100
1142.573; 5389.700; 5287.550;   65.900
1143.112; 4598.400; 4512.350;   70.600
1143.651; 4486.800; 4385.950;   67.100
1144.190; 5804.900; 5703.450;   56.700
1144.729; 5035.200; 4955.750;   61.800
1145.267; 4844.900; 4736.950;   62.500
1145.806; 5347.300; 5220.900;   68.500
1146.345; 5351.300; 5257.750;   58.300
1146.884; 5253.600; 5145.950;   63.100
1147.422; 4430.900; 4340.300;   54.800
1147.961; 5947.100; 5848.100;   67.600
1148.500; 5603.700; 5498.250;   64.700
1149.038; 5347.300; 5233.850;   61.000
1149.577; 5858.800; 5777.000;   65.100
1150.115; 3744.700; 3681.900;   58.100
1150.653; 5093.600; 5012.650;   60.500
1151.192; 4678.100; 4567.250;   56.600
1151.730; 5510.600; 5413.950;   62.300
1152.268; 4890.400; 4812.600;   55.500
1152.806; 4826.900; 4734.050;   58.200
1153.344; 4820.000; 4732.600;   55.000
1153.882; 4987.300; 4902.000;   64.200
1154.421; 3917.700; 3841.450;   60.300
1154.958; 5015.300; 4952.800;   58.100
1155.496; 5413.000; 5328.650;   55.800
1156.034; 6054.900; 5973.800;   61.000
1156.572; 5603.500; 5493.900;   56.200
1157.110; 3940.600; 3856.400;   53.200
1157.647; 5671.500; 5588.750;   57.400
1158.185; 4748.600; 4685.000;   55.500
1158.723; 4284.000; 4210.500;   58.000
1159.260; 5863.100; 5779.700;   53.700
1159.798; 5535.300; 5442.950;   51.700
1160.335; 5296.800; 5227.600;   59.600

