gmr_left
Integration time [ms]:   3.882
Averaging Nr. [scans]: 1000
Smoothing Nr. [pixels]: 0
Data measured with spectrometer [name]: 7414430SP
Wave   ;Sample   ;Dark     ;Reference
[nm]   ;[counts] ;[counts] ;[counts] 

288.544;  122.681;   10.292;  793.890
289.143;  125.561;    4.564;  681.602
289.742;  125.927;    6.144;  828.814
290.341;  113.320;    4.396;  789.841
290.940;  104.171;    0.938;  730.702
291.538;  106.423;   -0.684;  881.108
292.137;  104.815;   -2.845;  792.581
292.736;  108.405;   -0.144;  975.101
293.335;  104.006;   -6.352;  735.086
293.934;  104.467;   -7.642;  781.677
294.532;  105.509;   -4.992; 1031.958
295.131;   91.996;   -5.478;  834.394
295.730;   93.239;   -6.549;  809.588
296.328;   91.053;   -9.558;  783.442
296.927;   90.426;   -8.118;  779.652
297.525;   91.419;   -6.908;  781.236
298.124;   82.286;   -9.195;  654.009
298.722;   87.817;   -8.198;  761.933
299.321;   85.643;   -8.817;  708.597
299.919;   82.815;   -7.716;  751.918
300.518;   79.146;  -10.745;  689.338
301.116;   81.318;   -9.647;  691.381
301.715;   82.013;  -10.828;  730.222
302.313;   80.432;   -6.087;  704.943
302.911;   75.790;   -6.824;  733.830
303.509;   81.558;   -8.807;  925.627
304.108;   79.437;   -8.198;  760.383
304.706;   78.461;   -6.218;  801.664
305.304;   73.437;   -7.185;  796.707
305.902;   78.800;   -8.568;  784.484
306.500;   74.392;   -7.737;  728.200
307.098;   72.574;   -6.026;  746.560
307.696;   71.815;   -7.176;  780.432
308.294;   72.898;   -8.656;  731.359
308.892;   74.337;   -6.838;  759.769
309.490;   70.219;   -2.596;  712.161
310.088;   68.476;   -4.485;  788.444
310.686;   74.651;   -3.907;  821.749
311.284;   70.155;   -2.806;  766.040
311.882;   67.927;   -2.845;  731.225
312.480;   63.929;   -3.274;  697.167
313.078;   66.268;   -3.645;  808.331
313.675;   67.878;   -4.997;  691.600
314.273;   62.998;   -0.894;  797.837
314.871;   61.705;   -2.854;  589.829
315.468;   59.813;   -3.644;  652.090
316.066;   64.094;   -3.947;  694.427
316.664;   56.158;   -1.824;  656.351
317.261;   61.234;    1.565;  910.128
317.859;   56.359;   -3.955;  768.735
318.456;   58.167;   -2.886;  830.096
319.054;   54.472;   -0.995;  787.828
319.651;   53.182;   -1.765;  759.928
320.249;   53.440;   -3.685;  810.188
320.846;   51.166;   -3.736;  714.286
321.443;   48.705;   -2.065;  832.135
322.041;   46.077;   -5.635;  812.315
322.638;   45.066;   -5.985;  701.456
323.235;   47.427;   -6.677;  665.683
323.833;   44.330;   -3.497;  740.354
324.430;   40.055;   -6.756;  615.900
325.027;   41.909;   -7.647;  876.855
325.624;   43.078;   -7.598;  644.532
326.221;   39.501;   -5.848;  689.717
326.818;   39.271;   -5.777;  818.332
327.415;   42.267;   -8.769;  748.828
328.012;   41.718;   -6.299;  690.585
328.609;   40.280;   -6.639;  731.389
329.206;   38.063;   -6.358;  778.621
329.803;   38.089;   -8.698;  737.841
330.400;   39.864;   -8.379;  704.260
330.997;   39.596;   -6.178;  817.147
331.594;   37.449;   -5.646;  788.185
332.191;   41.370;   -6.928;  728.722
332.787;   42.867;   -6.057;  844.463
333.384;   40.779;   -6.445;  763.093
333.981;   39.162;   -8.002;  815.687
334.578;   40.626;   -8.443;  708.378
335.174;   42.442;   -6.053;  731.469
335.771;   42.227;   -5.791;  836.456
336.367;   39.512;   -6.570;  710.631
336.964;   42.132;   -6.741;  793.266
337.561;   40.814;   -5.710;  731.112
338.157;   37.992;   -3.928;  911.916
338.754;   34.718;   -5.577;  796.589
339.350;   33.465;   -9.667;  722.493
339.946;   37.319;   -5.269;  773.135
340.543;   29.638;   -4.485;  846.136
341.139;   24.440;   -7.584;  720.836
341.735;   23.868;   -8.553;  772.593
342.332;   23.222;   -4.984;  691.472
342.928;   23.103;   -3.475;  795.394
343.524;   18.175;   -6.653;  761.684
344.120;   15.825;   -7.173;  738.562
344.716;   19.285;   -4.385;  723.717
345.313;   16.588;   -3.565;  795.342
345.909;   12.236;   -7.495;  627.336
346.505;   14.936;   -8.276;  740.247
347.101;   16.119;   -5.697;  827.864
347.697;   15.838;   -4.767;  785.398
348.293;   10.191;   -7.226;  627.244
348.889;   11.497;   -7.547;  745.914
349.485;   11.440;   -9.147;  688.205
350.081;   11.690;   -6.568;  772.592
350.676;    6.720;   -6.516;  691.606
351.272;   12.303;   -7.378;  809.530
351.868;   12.002;   -6.759;  780.497
352.464;    8.714;   -4.798;  723.932
353.059;    5.492;   -7.977;  646.017
353.655;    9.631;   -8.769;  777.063
354.251;   10.360;   -5.920;  759.845
354.846;    4.647;   -7.647;  740.646
355.442;    2.668;   -6.956;  753.071
356.038;    4.631;   -9.928;  751.708
356.633;    5.482;   -7.698;  728.594
357.229;    3.259;   -6.307;  724.757
357.824;    1.111;   -7.647;  703.600
358.420;    0.858;  -10.047;  679.726
359.015;    1.912;   -7.458;  695.357
359.610;    2.833;   -5.748;  763.920
360.206;   -3.202;   -9.346;  603.240
360.801;   -0.369;  -11.268;  646.503
361.396;    2.669;   -8.789;  725.975
361.992;   -2.746;   -6.347;  668.220
362.587;   -5.008;   -6.476;  670.160
363.182;   -3.086;   -9.457;  689.631
363.777;   -1.079;   -7.147;  738.242
364.372;   -1.646;   -5.507;  737.314
364.967;   -5.491;   -6.386;  680.744
365.563;   -0.686;   -7.858;  815.567
366.158;   -4.186;   -8.517;  685.161
366.753;   -3.289;   -8.728;  649.263
367.348;   -5.161;   -7.677;  746.056
367.942;   -5.280;  -10.387;  697.298
368.537;   -5.364;   -7.187;  754.245
369.132;   -5.716;   -8.587;  703.428
369.727;   -9.871;   -8.606;  638.079
370.322;   -8.120;  -10.426;  580.186
370.917;   -7.643;   -5.776;  710.646
371.511;   -5.022;   -6.007;  861.834
372.106;   -9.105;   -6.686;  776.964
372.701;  -12.089;   -9.335;  585.988
373.296;   -5.166;   -6.777;  863.135
373.890;  -10.381;   -7.546;  647.840
374.485;  -12.699;   -8.755;  691.199
375.079;   -8.549;   -9.797;  738.685
375.674;   -6.863;   -6.327;  812.970
376.268;  -11.371;   -9.046;  691.759
376.863;  -17.105;   -7.993;  580.327
377.457;  -10.692;   -9.206;  662.490
378.052;  -11.839;   -5.345;  764.884
378.646;  -12.795;   -5.605;  741.167
379.240;  -13.165;   -6.825;  721.176
379.835;  -12.053;  -10.476;  636.978
380.429;  -14.388;   -8.676;  562.557
381.023;  -14.398;   -4.945;  779.205
381.617;  -16.395;   -8.094;  680.106
382.212;  -12.682;  -10.646;  685.303
382.806;  -11.990;   -8.136;  760.690
383.400;  -16.536;   -7.855;  672.281
383.994;  -16.838;   -8.125;  664.870
384.588;  -12.949;   -7.637;  697.701
385.182;  -11.384;   -7.458;  726.624
385.776;  -12.638;   -6.277;  706.875
386.370;  -16.192;   -7.485;  681.968
386.964;  -14.248;   -9.416;  684.155
387.558;  -12.430;   -8.518;  598.360
388.152;  -16.289;   -7.096;  681.959
388.745;  -14.457;   -7.656;  814.707
389.339;  -12.300;   -8.927;  747.642
389.933;  -10.634;   -9.538;  695.370
390.527;  -13.239;   -5.857;  859.029
391.120;  -19.601;   -9.455;  595.318
391.714;  -16.261;   -9.746;  711.633
392.308;  -12.477;   -7.857;  780.253
392.901;  -16.294;   -9.106;  642.460
393.495;  -18.156;  -10.365;  595.414
394.089;  -15.484;   -9.696;  760.452
394.682;  -15.831;   -7.016;  697.188
395.275;  -17.259;   -8.466;  719.927
395.869;  -18.451;   -8.985;  667.314
396.462;  -16.633;  -11.496;  616.609
397.056;  -11.956;   -7.838;  776.621
397.649;  -16.760;   -6.895;  731.575
398.242;  -14.067;   -5.017;  712.645
398.836;  -12.483;   -8.787;  766.408
399.429;  -14.064;   -8.967;  631.041
400.022;  -18.360;   -8.815;  665.902
400.615;  -15.066;   -6.276;  805.609
401.208;  -13.262;   -8.407;  691.451
401.802;  -15.311;   -7.296;  699.329
402.395;  -17.373;   -7.585;  683.502
402.988;  -17.432;   -8.015;  696.627
403.581;  -14.446;   -9.577;  646.878
404.174;  -11.662;   -7.588;  686.568
404.767;  -15.136;   -7.906;  638.583
405.360;  -17.278;   -7.875;  621.445
405.953;  -11.583;   -8.127;  759.034
406.545;  -10.854;   -7.198;  725.342
407.138;  -15.680;   -8.916;  618.350
407.731;  -14.172;   -9.767;  613.303
408.324;  -10.750;  -10.659;  660.554
408.917;  -10.778;   -8.068;  681.864
409.509;  -13.079;   -9.837;  740.396
410.102;  -14.787;   -8.146;  643.948
410.695;   -8.609;   -7.969;  665.758
411.287;   -9.404;   -8.579;  599.821
411.880;  -10.896;   -6.968;  585.421
412.472;  -13.960;   -9.487;  613.092
413.065;  -10.552;  -10.338;  629.408
413.657;   -9.049;   -9.169;  576.678
414.250;   -8.485;  -10.119;  646.681
414.842;  -10.641;   -9.938;  676.353
415.434;   -7.679;  -10.409;  570.463
416.027;   -3.668;   -9.591;  652.196
416.619;   -6.754;   -7.379;  713.400
417.211;   -7.006;   -9.159;  599.352
417.804;   -2.201;   -9.191;  628.499
418.396;   -6.113;   -8.159;  607.643
418.988;   -4.086;   -6.960;  659.238
419.580;   -8.419;  -11.389;  568.276
420.172;   -5.578;  -13.460;  536.196
420.764;   -1.092;  -10.701;  672.482
421.356;   -2.451;   -8.961;  636.898
421.948;   -3.185;   -9.770;  677.661
422.540;    1.485;   -8.832;  680.027
423.132;    1.479;   -8.153;  600.641
423.724;   -2.710;   -8.481;  561.267
424.316;   -0.579;   -9.261;  621.345
424.908;    2.654;   -9.643;  591.517
425.500;    4.157;   -8.663;  647.978
426.092;    4.575;   -8.503;  648.268
426.683;    3.514;  -10.522;  684.836
427.275;    6.658;  -11.734;  641.471
427.867;    8.729;  -10.264;  668.948
428.458;    8.977;   -7.644;  732.344
429.050;    6.676;   -7.853;  680.749
429.642;    9.408;   -8.904;  743.124
430.233;    9.927;  -10.795;  569.356
430.825;   10.892;   -7.665;  724.809
431.416;    8.327;   -8.843;  698.241
432.008;   11.803;   -9.885;  651.723
432.599;   13.131;   -9.966;  656.073
433.190;    9.663;   -9.164;  637.670
433.782;    8.665;   -8.584;  590.395
434.373;   17.306;   -8.296;  884.765
434.964;   15.673;   -9.896;  602.920
435.556;   12.679;   -8.255;  634.537
436.147;   16.161;   -8.075;  758.490
436.738;   15.419;   -9.716;  701.099
437.329;   21.053;   -7.318;  721.723
437.920;   14.632;   -6.694;  666.688
438.511;   13.298;   -9.644;  564.526
439.103;   20.030;   -9.427;  623.998
439.694;   22.768;  -10.748;  681.583
440.285;   24.230;   -7.997;  764.432
440.876;   22.453;  -10.046;  845.738
441.466;   21.062;  -13.467;  575.162
442.057;   26.468;   -9.329;  665.814
442.648;   25.211;   -7.707;  746.255
443.239;   22.690;   -9.017;  620.477
443.830;   28.224;  -10.279;  704.958
444.421;   29.839;  -12.630;  655.474
445.011;   26.460;   -8.697;  693.619
445.602;   26.839;   -7.787;  743.126
446.193;   28.744;  -13.329;  488.117
446.783;   32.768;   -9.171;  640.397
447.374;   27.581;   -7.457;  692.759
447.964;   28.528;   -9.277;  713.770
448.555;   37.199;   -9.041;  822.742
449.145;   34.019;   -8.969;  662.853
449.736;   34.943;   -6.809;  803.179
450.326;   34.630;   -7.229;  713.626
450.917;   39.565;  -11.391;  675.324
451.507;   38.662;   -9.501;  600.661
452.097;   39.438;   -8.460;  746.267
452.688;   41.085;  -10.080;  742.160
453.278;   40.274;  -12.861;  566.840
453.868;   44.831;   -8.372;  793.550
454.458;   42.098;   -8.131;  651.141
455.048;   43.199;   -8.520;  711.783
455.639;   44.029;  -13.632;  567.096
456.229;   48.697;  -10.143;  710.694
456.819;   49.978;   -9.163;  751.158
457.409;   50.199;   -8.652;  773.993
457.999;   53.505;   -9.933;  737.505
458.589;   53.485;  -10.363;  686.606
459.179;   52.290;  -10.633;  717.658
459.769;   50.313;  -12.442;  627.099
460.358;   55.860;   -9.844;  797.262
460.948;   55.583;   -9.924;  689.503
461.538;   56.957;  -10.484;  660.677
462.128;   54.685;  -10.703;  664.934
462.717;   61.488;  -11.486;  710.326
463.307;   65.193;  -10.767;  705.846
463.897;   60.841;   -8.814;  656.942
464.486;   60.447;   -8.182;  837.128
465.076;   64.103;   -9.985;  733.776
465.666;   68.478;  -10.447;  652.900
466.255;   66.151;   -7.754;  785.651
466.845;   64.643;  -10.884;  666.749
467.434;   68.032;  -12.525;  725.873
468.023;   69.218;  -11.456;  658.357
468.613;   65.785;   -9.173;  713.946
469.202;   69.622;   -9.306;  646.507
469.791;   74.853;   -8.917;  737.811
470.381;   76.964;   -9.657;  742.813
470.970;   76.027;   -9.947;  711.099
471.559;   76.462;   -9.256;  733.291
472.148;   79.241;  -13.397;  675.737
472.738;   82.442;   -9.928;  765.466
473.327;   81.251;  -10.897;  637.529
473.916;   81.328;   -8.526;  737.446
474.505;   86.076;  -11.078;  751.703
475.094;   88.783;   -9.559;  806.570
475.683;   88.235;   -8.838;  797.699
476.272;   88.829;  -10.198;  730.632
476.861;   92.588;  -11.489;  706.754
477.449;   99.001;  -10.721;  728.487
478.038;   92.469;   -9.818;  692.513
478.627;   92.886;   -9.887;  714.852
479.216;  100.485;  -10.030;  769.441
479.805;  103.379;   -9.401;  783.375
480.393;  103.577;   -5.739; 1008.945
480.982;  102.523;   -7.838;  874.501
481.571;  109.275;   -9.111;  858.333
482.159;  109.372;  -10.601;  705.386
482.748;  109.554;   -8.500;  821.385
483.336;  113.481;   -9.241;  858.209
483.925;  115.706;  -10.440;  774.373
484.513;  122.046;  -11.063;  758.962
485.102;  118.670;   -9.540;  810.965
485.690;  127.349;   -6.742; 1011.050
486.278;  130.071;   -8.442;  979.329
486.867;  131.007;  -10.472;  809.662
487.455;  132.431;   -8.811;  898.229
488.043;  134.321;  -10.721;  748.361
488.631;  143.577;  -10.393; 1005.079
489.220;  148.337;  -10.843;  908.626
489.808;  148.948;  -10.572;  741.415
490.396;  157.678;  -10.482;  914.645
490.984;  165.072;  -11.542;  830.161
491.572;  176.230;   -8.463;  940.315
492.160;  184.289;   -8.491;  919.081
492.748;  198.491;   -9.681;  884.341
493.336;  226.444;  -10.493; 1019.693
493.924;  260.047;   -9.354;  958.077
494.512;  301.028;   -9.132; 1066.638
495.100;  350.386;   -9.001; 1103.280
495.687;  419.786;  -11.924; 1206.373
496.275;  519.307;  -11.193; 1150.796
496.863;  618.672;   -9.241; 1281.171
497.451;  740.585;  -11.341; 1386.805
498.038;  884.580;  -11.364; 1556.729
498.626; 1010.514;   -8.104; 1741.407
499.214; 1233.607;   -8.842; 2016.609
499.801; 1540.191;  -10.112; 2220.633
500.389; 1787.128;  -11.953; 2312.494
500.976; 2033.956;  -10.023; 2744.849
501.564; 2340.957;   -8.662; 3148.565
502.151; 2757.299;  -10.531; 3515.999
502.738; 3263.167;  -13.853; 3971.274
503.326; 3860.779;  -10.794; 4403.796
503.913; 4404.504;   -8.663; 5161.749
504.500; 5165.045;  -10.172; 5986.420
505.088; 6226.178;  -13.472; 6381.201
505.675; 6883.968;  -10.924; 6925.547
506.262; 7009.607;   -8.551; 7619.060
506.849; 7660.659;  -10.523; 8733.969
507.436; 8773.984;  -10.834; 9790.121
508.023; 9080.557;   -9.093; 9985.472
508.610; 9398.977;  -10.073;10434.618
509.197;10709.566;   -9.500;11198.435
509.784;12681.661;  -13.242;12391.194
510.371;13600.883;  -10.964;13603.713
510.958;14284.087;   -9.772;14426.586
511.545;14420.172;   -7.842;15243.775
512.132;13868.700;  -12.184;15945.876
512.719;14622.229;   -9.733;16340.369
513.305;16415.625;   -9.172;18011.766
513.892;16868.723;   -9.581;19754.971
514.479;18245.713;  -10.253;20967.805
515.066;20466.611;   -8.183;22299.793
515.652;22888.641;   -9.253;22908.660
516.239;25207.613;   -9.412;23798.875
516.825;26514.861;  -11.153;25567.275
517.412;25789.895;  -10.263;28154.959
517.998;25365.125;   -8.802;28344.111
518.585;25895.283;  -10.401;27134.219
519.171;26199.824;  -12.744;27268.576
519.758;27361.518;  -11.793;28964.129
520.344;30421.082;   -8.912;30664.494
520.930;33633.082;  -10.901;32550.605
521.516;33642.082;  -12.034;35422.895
522.103;34459.781;  -10.473;38280.004
522.689;35494.387;   -8.311;37835.117
523.275;36149.879;  -10.691;37288.613
523.861;36703.492;  -11.193;37281.395
524.447;34117.258;  -11.484;37846.949
525.033;34752.156;   -7.702;38321.949
525.619;35374.906;  -11.241;38579.285
526.205;35590.543;  -12.152;40622.875
526.791;36165.352;  -11.423;42258.836
527.377;36836.152;   -7.981;42966.902
527.963;37021.582;   -9.450;42018.949
528.549;36678.008;  -11.351;42476.828
529.135;37176.656;  -10.202;41854.852
529.721;38035.762;   -8.672;41237.711
530.306;36501.621;   -9.111;41259.445
530.892;38309.402;  -11.252;41506.047
531.478;41208.023;  -10.432;43559.613
532.063;42643.039;  -10.721;47695.563
532.649;43351.063;   -7.450;50808.324
533.235;44520.602;  -11.811;51787.500
533.820;43376.254;   -9.383;52145.035
534.406;40813.355;   -9.400;51133.488
534.991;40879.578;   -8.861;49996.805
535.576;42704.320;  -10.612;48882.852
536.162;40686.801;   -7.322;46942.285
536.747;39516.582;   -9.360;45711.746
537.333;40977.465;  -10.450;48510.180
537.918;44002.914;  -12.610;50439.891
538.503;44862.281;  -12.132;50863.711
539.088;41533.488;  -10.831;50906.922
539.673;40455.414;  -11.220;52621.965
540.259;44203.668;  -11.481;52368.094
540.844;44250.332;  -11.462;50879.109
541.429;45001.762;   -7.869;52077.777
542.014;43944.133;  -11.859;52716.695
542.599;41895.250;  -11.061;52363.281
543.184;41625.945;  -12.300;53187.137
543.769;42420.590;   -9.369;54697.605
544.354;43770.066;  -12.020;53913.914
544.938;40328.492;  -10.350;49680.164
545.523;37540.313;  -10.841;47386.277
546.108;40141.195;   -8.579;49151.949
546.693;42727.941;   -8.818;51384.637
547.278;43882.598;  -11.331;51853.254
547.862;42328.129;  -10.292;51173.750
548.447;41582.984;   -8.349;51691.395
549.031;41477.879;  -10.838;52456.703
549.616;42566.426;  -11.681;52714.516
550.201;43585.648;  -11.140;52414.598
550.785;40904.793;   -8.649;52355.059
551.370;39566.566;  -11.889;54589.453
551.954;38680.629;  -11.239;58267.348
552.538;38868.949;   -8.850;59062.176
553.123;41869.422;  -10.829;58115.285
553.707;46123.504;   -8.887;56556.285
554.291;46210.852;  -10.430;56201.668
554.876;46472.422;   -9.799;55335.762
555.460;44785.449;  -10.018;54155.703
556.044;45254.523;   -7.307;53721.484
556.628;47959.398;  -12.229;53731.016
557.212;48036.637;   -9.820;54312.531
557.796;45939.051;   -9.109;53797.773
558.380;44038.824;   -9.707;56145.984
558.964;46131.547;  -10.980;57277.930
559.548;49521.734;  -12.010;56459.641
560.132;49668.988;   -7.928;54434.543
560.716;51528.262;  -10.247;54800.617
561.300;51817.117;  -11.250;57606.945
561.884;50479.891;  -10.568;58972.445
562.467;49730.480;   -9.727;57327.570
563.051;46817.047;  -11.847;54962.434
563.635;45839.594;  -10.747;52594.473
564.219;44403.309;  -13.108;50610.410
564.802;42330.359;  -11.417;49551.180
565.386;41168.445;  -10.457;48370.953
565.969;43764.629;   -8.959;48178.871
566.553;44656.941;  -10.328;49957.305
567.136;45335.621;  -10.257;50369.594
567.720;44588.914;  -10.186;49492.004
568.303;43702.820;  -10.027;50616.352
568.887;44477.016;  -10.397;50727.148
569.470;45909.191;   -8.185;51698.379
570.053;44238.633;  -11.596;52122.078
570.637;42660.000;  -11.378;52536.438
571.220;42992.355;   -9.138;51186.098
571.803;41739.273;   -7.675;51032.762
572.386;39625.359;   -8.976;49609.887
572.969;40132.703;  -12.477;48285.926
573.552;40622.453;   -9.767;47624.285
574.135;38941.930;   -8.175;45498.641
574.718;34081.250;  -11.096;41970.434
575.301;34146.141;  -11.966;41447.137
575.884;34211.031;  -12.836;40923.836
576.467;40064.414;   -9.116;45267.723
577.050;42515.426;  -10.536;48175.543
577.633;41747.277;  -11.027;47729.328
578.216;40099.082;   -9.946;47579.793
578.799;39907.867;   -9.645;47820.996
579.381;39618.527;   -9.446;48115.551
579.964;39571.375;  -12.217;47333.766
580.547;39551.578;  -10.586;46668.969
581.129;38986.445;   -8.374;44466.141
581.712;37811.895;  -10.434;44164.922
582.294;37054.258;  -10.896;46477.855
582.877;37746.520;   -8.906;48244.254
583.459;38846.305;   -9.994;47437.895
584.042;38391.609;  -10.084;46943.219
584.624;36612.133;  -13.534;46792.227
585.206;35819.633;  -12.716;46557.250
585.789;37278.992;  -11.614;45793.773
586.371;37432.781;  -10.203;43836.391
586.953;35094.340;  -10.314;42972.492
587.536;33243.207;   -9.776;42487.211
588.118;34305.941;   -9.821;42086.414
588.700;35841.094;  -10.073;43389.930
589.282;36939.754;  -12.395;43646.039
589.864;35896.922;  -11.514;43438.109
590.446;36791.824;  -10.803;43151.926
591.028;38244.859;  -11.043;42781.867
591.610;37338.809;  -13.244;42839.098
592.192;34226.453;  -11.095;42820.402
592.774;31680.254;  -10.823;40724.277
593.356;31091.105;  -11.052;39874.789
593.937;32955.449;  -11.664;39980.648
594.519;34727.289;  -10.454;42069.633
595.101;34935.035;  -10.322;42976.031
595.683;33397.930;  -10.042;44084.441
596.264;32972.039;  -14.334;43478.797
596.846;34142.156;  -10.863;43803.672
597.427;34421.367;   -9.901;42986.934
598.009;34712.566;  -10.911;42832.219
598.591;34853.160;  -10.483;42580.086
599.172;33821.809;   -9.663;43061.805
599.753;32568.867;  -10.631;41691.469
600.335;32092.080;   -9.371;40692.520
600.916;33807.723;  -13.992;39982.422
601.498;35249.465;   -8.352;40318.617
602.079;33516.426;   -8.411;40670.609
602.660;35499.930;  -10.841;41450.898
603.241;36821.840;  -12.963;41137.738
603.823;34758.957;  -11.523;38868.797
604.404;32101.559;  -11.881;38182.785
604.985;32290.809;  -11.721;38078.047
605.566;33645.070;   -9.293;38056.633
606.147;33244.723;  -10.940;37020.418
606.728;31820.225;  -11.840;37883.359
607.309;30694.451;  -11.781;38748.273
607.890;30570.244;  -11.262;38850.230
608.471;30496.449;  -10.111;37457.918
609.051;30998.701;   -7.709;36066.457
609.632;31440.969;  -12.409;35991.074
610.213;29800.824;  -10.811;37402.641
610.794;28831.264;  -11.630;38383.363
611.374;29901.207;   -8.030;40562.387
611.955;30868.748;  -10.809;38533.727
612.536;32822.000;  -10.531;36951.789
613.116;33750.375;  -12.820;37197.891
613.697;32945.430;  -11.419;38411.125
614.277;32088.275;   -9.768;38673.938
614.858;31115.373;  -10.251;37075.863
615.438;27834.025;  -11.981;35092.906
616.019;26721.385;   -8.978;33666.301
616.599;29432.730;  -12.219;34189.023
617.179;32622.783;  -14.170;36952.047
617.760;33850.902;   -9.211;39582.574
618.340;33900.871;   -9.018;38943.977
618.920;32722.584;   -9.249;37594.156
619.500;32333.270;  -12.728;37866.938
620.080;33686.980;  -12.939;37869.043
620.660;32695.633;  -11.586;36868.617
621.241;31758.355;  -11.538;36352.309
621.821;31740.740;  -11.398;35459.520
622.401;32634.213;  -10.179;35207.414
622.980;32752.680;  -11.587;35980.422
623.560;31417.465;  -12.888;37351.328
624.140;29177.389;  -13.149;34388.582
624.720;24945.303;   -9.928;32368.764
625.300;24524.549;  -10.869;32638.629
625.880;28519.992;   -8.617;34599.035
626.459;33251.695;  -12.138;36831.738
627.039;34503.043;  -12.267;38299.098
627.619;34128.809;   -7.476;38289.574
628.198;35040.367;  -11.347;37220.695
628.778;34134.770;  -11.678;37632.563
629.357;31849.811;  -12.438;38003.012
629.937;30114.303;   -9.576;38402.039
630.516;29716.012;  -11.096;37868.801
631.096;29450.424;  -11.828;35760.410
631.675;29404.762;  -11.565;35225.219
632.254;29439.455;  -11.845;35130.289
632.834;30399.824;  -11.545;35794.570
633.413;31242.930;  -10.887;35788.922
633.992;33004.016;  -10.175;34532.863
634.571;32228.221;   -9.704;33590.113
635.151;30012.219;  -10.815;34943.863
635.730;29715.619;  -11.617;35352.523
636.309;29178.908;  -10.836;35366.605
636.888;29729.504;   -9.755;36165.637
637.467;31040.543;  -11.684;37515.902
638.046;33399.445;  -11.987;39288.695
638.625;34189.387;  -10.455;38279.699
639.204;33053.691;  -11.234;37741.598
639.782;29855.654;  -12.023;38364.551
640.361;28883.969;  -11.506;36740.621
640.940;29069.088;  -12.316;34950.082
641.519;30164.758;  -11.616;34137.398
642.097;33154.195;   -9.266;35654.258
642.676;33909.105;  -12.936;35637.957
643.255;33140.117;   -9.966;36567.074
643.833;32296.881;   -8.916;37809.434
644.412;32899.918;  -10.936;37337.293
644.990;34771.063;  -12.176;37018.531
645.569;34799.832;  -12.246;36518.469
646.147;34750.824;  -12.107;36186.430
646.726;34536.156;  -12.937;36267.688
647.304;37046.246;  -12.547;36647.625
647.882;37845.441;  -12.597;39286.742
648.461;35598.809;   -9.427;39157.703
649.039;32468.387;   -8.937;35412.883
649.617;30644.172;  -11.067;34744.918
650.195;30971.236;  -10.657;35403.098
650.773;30409.008;  -10.097;35053.797
651.352;28186.824;  -11.887;33756.816
651.930;24423.080;  -13.557;31868.773
652.508;21803.156;  -11.767;33121.551
653.086;22706.941;  -10.777;33564.793
653.663;26988.729;  -12.067;34054.668
654.241;29920.232;  -14.918;35693.309
654.819;30349.295;  -11.788;36422.906
655.397;29911.762;  -11.268;38213.484
655.975;31563.180;  -11.738;39507.625
656.553;30738.967;  -11.018;39498.223
657.130;29396.625;  -12.848;40395.480
657.708;28999.949;  -10.098;39242.020
658.286;28995.326;  -11.678;38920.020
658.863;30021.475;  -11.498;40202.898
659.441;31677.371;  -11.008;39677.938
660.018;33120.266;  -11.048;40413.355
660.596;33202.348;  -12.058;39931.414
661.173;32574.006;  -14.158;39604.531
661.750;32475.027;  -12.298;39700.070
662.328;31755.254;  -10.699;39292.809
662.905;29583.533;  -12.119;38235.648
663.482;25450.012;  -11.829;36212.305
664.060;24603.158;  -11.009;35944.945
664.637;27646.502;  -10.369;35170.785
665.214;28340.188;  -10.459;34197.523
665.791;27150.123;  -12.599;34549.520
666.368;26885.703;  -12.919;35118.578
666.945;28742.299;  -10.699;36019.418
667.522;29570.260;  -11.359;36048.438
668.099;30053.922;  -13.529;36243.914
668.676;31197.803;  -10.229;35958.875
669.253;31316.262;   -9.279;37384.730
669.830;30647.609;  -11.370;36779.629
670.407;31084.236;  -10.950;35231.289
670.984;31573.938;  -12.850;35544.270
671.560;31373.248;   -8.440;35466.867
672.137;30037.160;  -13.520;34280.863
672.714;28804.740;  -13.620;34632.863
673.290;29289.938;  -10.450;35135.422
673.867;28557.359;  -10.960;36114.480
674.443;27457.910;  -13.300;36152.859
675.020;27780.889;  -12.370;35327.238
675.596;27625.439;  -11.250;35795.176
676.173;27903.617;  -11.080;35430.355
676.749;28255.109;  -13.220;33549.516
677.326;30655.383;  -13.000;32210.012
677.902;31988.826;  -12.701;32068.871
678.478;32390.414;  -12.801;32583.891
679.054;31663.346;   -8.601;32088.928
679.631;32322.768;  -12.631;30978.848
680.207;31870.283;   -9.451;33160.887
680.783;30617.646;  -11.701;35570.363
681.359;30354.295;  -12.701;36125.184
681.935;29580.773;  -13.271;35240.922
682.511;28310.529;  -10.791;34429.961
683.087;29220.301;  -10.791;34463.680
683.663;29982.502;   -8.121;34648.898
684.239;31613.324;  -13.261;34546.457
684.815;30288.631;  -10.581;35586.375
685.390;27363.270;   -9.961;35821.895
685.966;26223.648;  -11.182;35085.871
686.542;26159.809;  -13.512;34198.230
687.118;26806.135;  -11.472;32847.707
687.693;26950.586;  -10.152;32794.027
688.269;28430.734;  -14.442;33072.367
688.844;30083.625;  -11.852;33141.664
689.420;28298.568;  -13.942;33965.742
689.995;26937.174;   -9.702;34655.523
690.571;26601.580;  -11.312;33576.742
691.146;25981.682;  -14.332;32657.219
691.722;27209.586;  -11.192;32526.979
692.297;28904.430;  -10.962;33014.617
692.872;27803.178;  -11.082;34012.254
693.448;27318.775;  -14.732;34237.434
694.023;27811.182;  -12.363;34142.672
694.598;28169.703;  -12.393;34132.031
695.173;27149.721;  -11.023;34205.250
695.748;26903.000;  -12.743;32882.488
696.323;28281.004;  -11.103;32864.906
696.898;28881.223;   -8.123;33170.004
697.473;28429.793;  -12.603;32432.984
698.048;28072.754;  -12.553;31649.303
698.623;29433.330;  -12.573;30778.141
699.198;31968.068;  -12.743;31140.119
699.773;29684.477;  -12.843;31764.299
700.348;28666.080;  -16.683;31780.816
700.922;28991.158;  -11.403;32046.375
701.497;29309.863;  -11.253;32603.574
702.072;29349.590;  -10.044;34799.871
702.646;28492.707;  -13.054;35793.172
703.221;27582.070;  -11.414;35201.590
703.795;28460.656;  -10.644;34764.527
704.370;29819.436;  -13.484;34307.367
704.944;29594.895;  -12.144;33509.887
705.519;28831.338;  -12.024;31388.584
706.093;27690.555;  -11.234;31340.104
706.668;25774.332;   -9.874;32630.281
707.242;25071.115;  -12.404;32728.779
707.816;24875.924;  -10.644;32947.238
708.390;24919.262;  -11.174;33277.855
708.965;25698.010;  -10.324;33834.336
709.539;25927.299;  -12.014;33709.273
710.113;26254.227;  -12.295;33044.313
710.687;27043.191;  -10.965;31953.992
711.261;27423.189;  -13.685;30505.949
711.835;26687.502;  -15.335;30262.369
712.409;26046.828;  -13.785;31254.447
712.983;26423.422;  -10.525;32754.986
713.557;27178.184;  -13.175;34018.824
714.131;27619.170;  -13.245;34579.625
714.704;29413.092;  -13.175;33890.262
715.278;31577.662;  -11.545;33531.102
715.852;30853.816;  -10.975;33601.660
716.425;29383.225;  -10.075;33515.117
716.999;28660.922;  -12.185;33185.555
717.573;29205.527;   -9.685;33905.996
718.146;30773.131;  -10.516;35199.293
718.720;27663.203;  -12.106;35060.551
719.293;27661.713;  -12.386;34973.230
719.867;30526.752;  -12.456;36394.449
720.440;30222.785;  -10.686;36663.008
721.013;30408.145;  -12.596;35102.426
721.587;30572.004;  -13.956;33985.266
722.160;30279.865;   -9.806;33524.965
722.733;30623.631;  -11.676;32987.043
723.306;30336.580;  -14.276;33066.301
723.880;30573.123;  -12.126;33399.500
724.453;31569.156;  -10.156;33468.297
725.026;29906.291;  -12.956;33816.637
725.599;27356.736;  -11.676;32797.996
726.172;26386.072;  -12.337;33187.434
726.745;27645.842;  -11.277;35136.613
727.318;27146.809;  -11.927;35751.730
727.891;25804.100;  -13.607;35890.430
728.463;25729.949;  -11.327;34822.090
729.036;25212.625;  -11.917;32895.086
729.609;25780.303;  -12.697;31823.225
730.182;26575.992;  -11.787;31445.283
730.754;27678.104;  -12.957;32373.223
731.327;28518.891;  -11.017;33676.820
731.900;27158.996;  -12.797;33417.000
732.472;25151.803;  -10.677;31978.498
733.045;24717.070;  -12.797;30368.777
733.617;25384.605;  -13.908;30574.215
734.190;24970.008;  -12.258;31280.975
734.762;25603.793;  -13.438;31674.412
735.334;25546.600;  -11.758;31247.291
735.907;25589.504;  -11.158;29876.211
736.479;27147.514;  -11.258;29808.488
737.051;29538.580;  -10.918;30233.547
737.623;30775.104;  -11.038;31469.086
738.195;29914.660;  -12.188;31784.225
738.768;26178.906;  -11.378;32120.523
739.340;25184.227;  -12.598;32094.342
739.912;26853.492;  -11.568;31312.680
740.484;27518.533;   -9.348;31946.238
741.056;26749.049;  -12.628;32984.059
741.628;26762.555;  -13.349;33897.715
742.199;27114.326;  -11.309;33213.016
742.771;26939.387;  -12.699;31369.113
743.343;27657.025;  -11.919;31865.473
743.915;27423.428;  -11.679;32388.631
744.487;25936.949;  -12.249;31079.568
745.058;24434.846;  -11.119;30570.107
745.630;23577.314;   -9.439;29970.127
746.201;24208.219;  -11.949;29186.766
746.773;24049.373;  -12.639;28805.723
747.344;23550.850;  -11.039;29591.223
747.916;23153.996;  -12.549;31412.201
748.487;22380.033;  -12.659;32194.898
749.059;21830.012;  -13.059;32533.719
749.630;22730.535;  -12.080;32158.518
750.201;22660.248;  -13.100;30855.395
750.773;21751.439;  -15.310;28622.555
751.344;21049.834;  -12.240;28405.732
751.915;20533.324;  -11.960;28461.551
752.486;20611.443;  -13.200;27842.850
753.057;20636.111;  -15.230;27845.008
753.628;20740.082;  -13.130;27728.107
754.199;20817.588;  -12.720;27381.086
754.770;20638.443;  -10.680;25882.203
755.341;20693.666;  -11.010;25886.184
755.912;20067.916;  -12.990;26050.861
756.483;18873.748;  -11.110;26798.779
757.054;18650.662;  -12.190;27048.238
757.625;18910.686;  -13.981;26294.838
758.195;18763.242;  -11.041;26142.076
758.766;19601.781;  -11.861;26392.234
759.337;20194.408;  -11.461;26334.594
759.907;20871.236;  -15.001;27579.652
760.478;20648.236;   -9.681;28352.770
761.048;20129.895;  -12.421;27325.088
761.619;19772.865;  -11.761;26460.428
762.189;18423.910;  -12.391;26029.826
762.760;17522.664;  -10.201;26430.145
763.330;17847.998;  -10.811;26670.902
763.900;20097.156;  -10.261;26603.021
764.471;20178.406;  -13.061;25542.740
765.041;18946.912;  -11.051;24358.459
765.611;18749.357;  -11.032;23991.297
766.181;18599.055;  -10.532;24470.236
766.751;18240.264;  -13.502;24845.975
767.321;17947.902;  -11.392;24533.633
767.891;18099.217;  -11.522;24916.492
768.461;18939.215;  -13.672;24776.771
769.031;18958.189;  -14.652;24757.988
769.601;18227.930;  -10.182;24181.088
770.171;16429.229;  -11.752;23670.387
770.741;14946.072;  -12.272;22960.045
771.311;14738.590;  -13.112;22917.523
771.880;14886.622;  -14.122;23562.941
772.450;16015.444;  -11.782;24216.500
773.020;17676.934;  -12.642;24140.398
773.589;16915.139;  -13.043;24414.857
774.159;14917.644;  -11.783;23858.717
774.729;14126.646;  -13.473;22942.135
775.298;15050.676;  -14.523;22324.033
775.867;15835.238;  -12.013;21140.313
776.437;15139.729;  -12.113;20838.092
777.006;13911.521;  -13.543;20599.510
777.576;12678.464;  -12.523;20508.809
778.145;12479.854;  -12.173;20732.947
778.714;13259.886;  -12.153;21062.465
779.283;13638.146;  -11.833;20949.664
779.853;14163.001;  -13.483;20508.623
780.422;14687.663;  -12.933;20649.082
780.991;14040.323;  -13.173;21527.520
781.560;12440.055;  -10.224;22632.658
782.129;12064.284;  -12.684;23048.277
782.698;13366.629;  -11.284;23438.555
783.267;14417.471;  -11.684;23267.734
783.836;13564.946;  -10.974;22415.133
784.404;12451.788;  -13.534;20443.152
784.973;12511.994;  -16.734;19699.150
785.542;12564.778;  -12.594;19763.828
786.111;12184.597;  -11.644;20341.408
786.679;12421.366;  -11.384;20207.967
787.248;13046.635;  -12.014;19516.465
787.817;12109.151;  -12.804;18900.363
788.385;11052.131;  -11.994;17879.121
788.954;11102.174;  -12.564;17658.301
789.522;12071.694;  -12.225;17788.879
790.090;12132.540;  -13.775;18118.277
790.659;11280.690;  -12.485;18338.736
791.227;10886.283;  -12.295;18508.615
791.795;10897.236;  -13.415;17898.254
792.364;10378.611;  -12.995;17295.133
792.932;10092.645;   -8.365;16822.051
793.500;10181.375;  -11.925;17040.148
794.068;10381.527;  -13.245;17179.787
794.636;10272.820;  -13.815;16664.246
795.204; 9622.468;  -13.375;16524.545
795.772; 9618.676;  -12.125;17274.564
796.340;10152.735;  -13.855;17891.002
796.908;10490.086;  -13.456;17648.561
797.476; 9932.714;  -13.116;17064.080
798.044; 9302.136;  -13.226;16672.777
798.612; 9791.104;  -11.236;17023.996
799.180;10702.747;  -10.476;16561.615
799.747;10900.877;  -11.746;15962.773
800.315;10157.474;  -12.366;15296.992
800.883; 9323.602;  -14.616;14801.771
801.450; 9146.478;  -11.996;14534.430
802.018; 9693.722;  -11.206;14173.248
802.585; 8966.000;  -12.466;14029.547
803.153; 8030.276;  -12.846;13836.846
803.720; 7866.937;  -12.136;13567.324
804.287; 7928.756;  -10.966;13360.622
804.855; 8148.430;   -9.797;13681.981
805.422; 8087.643;  -13.037;13536.560
805.989; 7864.207;  -12.697;13355.958
806.556; 7992.636;  -11.737;13747.896
807.124; 8240.478;  -11.997;13987.376
807.691; 7777.783;  -13.997;14038.674
808.258; 7646.074;  -10.927;14120.152
808.825; 8162.021;  -13.727;13860.111
809.392; 8541.696;  -11.847;13268.790
809.959; 7961.805;  -14.217;12680.389
810.526; 7207.757;   -8.277;12427.308
811.093; 7076.956;   -9.647;12030.105
811.659; 6952.618;  -10.987;11653.664
812.226; 6527.156;  -13.447;11637.183
812.793; 6627.978;  -14.418;11611.521
813.360; 6981.415;  -13.908;11885.181
813.926; 7086.052;  -12.918;12770.539
814.493; 7010.604;  -14.888;12677.638
815.060; 7112.471;  -12.758;11974.336
815.626; 7425.503;  -13.478;11594.715
816.193; 7474.792;  -13.898;11579.474
816.759; 7144.844;  -13.588;11666.972
817.325; 7010.081;  -12.018;11325.530
817.892; 6619.448;  -14.068;11105.369
818.458; 6067.077;  -13.458;10843.928
819.024; 5870.336;  -11.968;10714.406
819.591; 5568.489;  -11.028;10469.165
820.157; 5335.639;  -12.088;10235.523
820.723; 5323.978;  -12.599;10847.563
821.289; 5579.524;  -10.419;11040.980
821.855; 6251.079;  -10.939;10357.100
822.421; 6822.691;  -12.539; 9978.918
822.987; 6742.345;  -13.259; 9754.177
823.553; 6195.032;  -15.369;10065.755
824.119; 6006.243;  -10.779;10036.294
824.685; 5615.208;   -9.999;10029.192
825.251; 5272.051;  -11.819;10199.230
825.816; 5069.695;  -13.369; 9820.189
826.382; 5178.967;  -12.679; 9297.248
826.948; 5434.128;  -11.199; 9381.347
827.513; 5408.078;  -11.179; 9450.726
828.079; 5421.026;  -13.489; 9472.444
828.645; 5733.331;  -12.500; 9292.643
829.210; 5973.325;  -15.120; 9065.341
829.776; 5880.419;  -12.590; 9132.620
830.341; 5786.487;  -11.540; 9092.878
830.906; 5848.224;  -12.400; 9078.557
831.472; 5776.145;  -12.720; 8534.535
832.037; 5335.751;  -11.490; 8677.874
832.602; 4927.231;  -14.380; 8628.692
833.167; 5155.051;  -12.780; 8879.031
833.733; 5394.754;  -11.100; 9189.790
834.298; 5663.167;  -12.080; 9052.608
834.863; 5705.347;  -13.910; 8895.087
835.428; 5436.256;  -13.470; 8824.266
835.993; 5692.068;  -11.760; 8845.385
836.558; 6101.804;  -12.731; 8888.563
837.123; 6169.606;  -12.431; 8966.582
837.688; 5876.396;  -11.241; 8617.860
838.253; 5519.048;  -13.681; 8590.699
838.817; 5218.930;  -12.531; 8443.797
839.382; 5370.917;  -12.671; 8799.356
839.947; 5399.445;  -11.541; 8810.595
840.511; 5230.976;  -12.021; 8796.394
841.076; 5222.152;  -13.071; 8347.231
841.641; 5132.209;  -11.411; 8224.330
842.205; 4927.396;  -13.671; 8223.349
842.770; 4882.414;  -11.291; 8622.107
843.334; 4988.689;  -12.951; 8410.386
843.898; 5045.472;  -11.221; 8337.465
844.463; 4984.480;  -11.322; 8506.283
845.027; 4765.043;  -11.412; 8280.962
845.591; 4547.362;  -11.512; 8231.141
846.156; 4785.795;  -14.042; 7969.179
846.720; 5070.747;  -12.152; 7768.278
847.284; 4966.797;  -10.922; 7630.957
847.848; 4530.410;  -10.962; 7472.395
848.412; 4120.028;  -14.612; 7437.394
848.976; 4168.302;  -11.492; 7674.592
849.540; 4214.801;   -9.172; 7836.011
850.104; 4527.798;  -11.232; 7913.669
850.668; 4980.410;  -15.182; 7694.508
851.232; 4711.750;  -15.332; 7756.887
851.796; 4395.197;  -13.703; 7926.545
852.359; 4452.916;  -11.113; 7827.844
852.923; 4379.394;  -11.843; 7641.163
853.487; 4118.875;  -11.173; 7342.501
854.050; 3690.229;  -13.443; 7042.820
854.614; 3241.341;  -13.823; 7151.338
855.177; 2961.563;  -16.393; 7105.077
855.741; 2755.738;  -11.693; 6989.675
856.304; 2544.975;  -10.843; 6596.634
856.868; 2374.391;  -13.783; 6356.272
857.431; 2237.082;  -11.953; 6468.571
857.995; 2247.972;  -13.683; 6373.210
858.558; 2395.609;  -11.433; 6324.448
859.121; 2578.527;  -12.493; 6408.327
859.684; 2781.786;  -12.384; 6347.886
860.247; 2874.193;  -14.774; 6321.264
860.810; 2792.753;  -13.154; 6301.903
861.374; 2724.312;  -11.264; 6607.881
861.937; 2676.524;  -15.424; 6408.200
862.500; 2650.696;  -12.854; 6572.639
863.062; 2673.688;  -12.344; 6387.297
863.625; 2689.710;  -13.314; 6190.836
864.188; 2561.253;  -14.724; 5807.254
864.751; 2483.748;  -13.464; 5682.413
865.314; 2446.347;  -11.684; 5547.492
865.876; 2473.708;  -11.104; 5500.150
866.439; 2618.495;  -12.344; 5415.909
867.002; 2654.734;  -13.494; 5501.567
867.564; 2699.931;  -10.935; 5413.946
868.127; 2642.049;  -12.665; 5160.325
868.689; 2516.114;  -14.515; 5133.183
869.252; 2520.819;  -13.425; 5252.382
869.814; 2517.405;  -11.595; 5297.141
870.377; 2474.311;  -12.175; 5390.919
870.939; 2343.812;  -10.265; 5599.898
871.501; 2262.484;  -12.375; 5248.336
872.063; 2245.596;  -14.355; 4854.235
872.626; 2286.265;  -14.435; 4817.074
873.188; 2205.131;  -12.415; 4987.732
873.750; 2139.404;  -14.555; 4868.651
874.312; 2145.434;  -11.185; 4779.330
874.874; 2122.984;  -12.715; 4866.348
875.436; 2047.676;  -13.196; 4718.887
875.998; 1985.616;  -11.426; 4660.005
876.560; 1910.779;   -9.786; 4462.964
877.122; 1885.214;  -12.796; 4145.042
877.683; 1828.428;  -13.226; 4056.481
878.245; 1704.589;  -12.036; 3950.740
878.807; 1576.185;  -11.536; 4058.958
879.369; 1561.684;  -10.806; 3954.677
879.930; 1675.770;  -13.946; 3941.495
880.492; 1764.996;  -11.876; 4067.014
881.053; 1665.537;  -13.216; 3859.633
881.615; 1569.894;  -12.226; 3776.071
882.176; 1530.572;  -12.946; 3734.750
882.738; 1541.548;  -10.736; 3678.489
883.299; 1510.645;  -12.057; 3405.407
883.860; 1412.709;  -12.677; 3351.106
884.422; 1350.175;  -14.097; 3394.044
884.983; 1285.300;  -13.667; 3166.443
885.544; 1216.252;  -10.717; 3189.802
886.105; 1164.018;  -14.357; 3160.360
886.666; 1116.203;  -14.287; 3093.059
887.227; 1059.818;  -14.297; 2941.957
887.788; 1014.661;  -13.137; 2974.836
888.349;  954.618;  -14.637; 2721.214
888.910;  901.919;  -12.247; 2696.493
889.471;  905.240;  -10.577; 2560.172
890.032;  906.606;  -12.937; 2558.190
890.593;  896.323;  -12.487; 2567.669
891.153;  878.091;  -11.898; 2460.307
891.714;  847.460;  -14.278; 2372.046
892.275;  820.792;  -13.308; 2309.505
892.835;  764.680;  -12.058; 2382.543
893.396;  686.728;  -15.268; 2295.502
893.956;  639.953;  -13.278; 2162.420
894.517;  620.854;  -11.968; 2125.439
895.077;  624.586;  -12.798; 2086.978
895.638;  596.970;  -11.908; 2126.316
896.198;  571.655;  -13.288; 1838.275
896.758;  546.475;  -12.198; 1892.813
897.319;  520.910;  -13.048; 1792.232
897.879;  488.691;  -13.718; 1762.751
898.439;  449.990;  -14.138; 1661.149
898.999;  416.872;  -13.659; 1781.468
899.559;  398.092;  -14.699; 1703.347
900.119;  376.198;  -14.339; 1537.525
900.679;  349.672;  -11.789; 1638.384
901.239;  321.697;  -13.629; 1527.902
901.799;  302.290;  -13.679; 1456.441
902.359;  292.318;  -13.679; 1357.140
902.919;  284.392;  -14.159; 1331.118
903.479;  269.204;  -13.419; 1317.257
904.038;  251.236;  -14.899; 1262.595
904.598;  235.683;  -14.339; 1152.034
905.158;  226.994;  -13.959; 1240.893
905.717;  222.869;  -12.749; 1233.691
906.277;  217.032;  -11.889; 1217.330
906.836;  210.145;  -12.870; 1222.408
907.396;  203.852;  -11.790; 1193.047
907.955;  195.062;  -13.750; 1182.526
908.515;  185.652;  -14.760; 1099.364
909.074;  181.321;  -12.540; 1092.863
909.633;  176.262;  -12.120; 1069.121
910.192;  170.524;  -12.550; 1196.460
910.752;  163.403;  -12.760; 1029.960
911.311;  160.534;  -14.750; 1009.780
911.870;  158.344;  -13.860;  971.460
912.429;  158.828;  -13.480; 1094.080
912.988;  157.837;  -12.370; 1081.060
913.547;  154.533;  -14.670;  940.380
914.106;  153.268;  -12.800;  999.420
914.665;  152.520;  -11.370;  984.020
915.224;  149.415;  -11.430; 1035.760
915.782;  145.905;  -12.260;  922.560
916.341;  145.532;  -12.540; 1049.840
916.900;  141.882;  -12.540;  925.260
917.458;  140.256;  -13.480;  884.220
918.017;  139.398;  -12.470;  942.600
918.576;  139.373;  -13.450;  904.440
919.134;  139.029;  -12.890;  837.980
919.693;  137.923;  -15.480;  893.060
920.251;  136.736;  -14.420;  876.500
920.809;  135.736;  -12.170;  839.580
921.368;  134.535;  -13.650;  885.360
921.926;  133.069;  -12.750;  842.940
922.484;  132.268;  -14.150;  903.360
923.042;  132.794;  -15.100;  880.340
923.601;  134.329;  -10.990;  998.680
924.159;  133.889;  -12.470;  935.560
924.717;  134.248;  -15.640;  841.080
925.275;  135.124;  -12.380;  903.240
925.833;  134.928;  -12.710;  779.320
926.391;  136.573;  -11.200;  938.380
926.949;  137.478;  -16.000;  857.680
927.506;  138.589;  -12.260;  903.500
928.064;  141.688;  -11.300;  877.580
928.622;  141.333;  -13.750;  880.100
929.180;  141.228;  -15.290;  814.180
929.737;  142.750;  -14.500;  808.540
930.295;  145.253;  -10.630;  928.480
930.853;  146.220;  -14.590;  849.100
931.410;  145.910;  -14.450;  821.120
931.968;  148.300;  -14.390;  940.660
932.525;  149.276;  -13.050;  909.380
933.082;  152.044;  -15.620;  811.440
933.640;  161.233;  -15.650;  925.900
934.197;  166.700;  -13.610;  886.360
934.754;  168.079;  -13.320;  897.780
935.312;  164.360;  -13.370;  863.340
935.869;  166.251;  -12.780; 1012.980
936.426;  172.814;  -14.480;  872.800
936.983;  180.539;  -13.180;  889.020
937.540;  176.072;  -15.710;  838.280
938.097;  161.748;  -14.980;  940.120
938.654;  149.348;  -13.060;  898.860
939.211;  146.911;  -12.760;  952.480
939.768;  152.818;  -16.230;  915.420
940.324;  162.778;  -10.940;  904.200
940.881;  170.990;  -12.570;  878.500
941.438;  176.410;  -13.650; 1021.200
941.995;  174.709;  -13.300;  992.560
942.551;  175.863;  -15.800;  875.620
943.108;  175.677;  -14.180;  937.920
943.664;  170.357;  -13.890;  869.340
944.221;  169.270;  -12.640; 1088.140
944.777;  169.965;  -14.700;  869.680
945.334;  171.249;  -13.010;  884.840
945.890;  171.328;  -13.480;  946.480
946.446;  168.497;  -14.920;  947.020
947.003;  169.540;  -13.860;  964.940
947.559;  170.922;  -12.000; 1063.040
948.115;  167.858;  -10.510; 1026.540
948.671;  164.620;  -12.760;  967.300
949.227;  162.420;  -15.390;  859.560
949.783;  160.252;  -15.570;  858.900
950.339;  162.015;  -12.800;  991.000
950.895;  159.712;  -13.780; 1023.840
951.451;  156.500;  -13.810;  925.280
952.007;  155.653;  -12.390;  998.540
952.563;  154.239;  -11.980;  937.780
953.118;  149.902;  -14.070;  904.940
953.674;  147.793;  -14.140;  935.780
954.230;  147.366;  -12.680;  949.640
954.785;  149.866;  -12.770;  936.640
955.341;  149.628;  -11.450;  998.160
955.897;  145.369;  -15.350;  834.660
956.452;  145.234;  -14.200;  953.840
957.008;  143.611;  -10.820; 1083.640
957.563;  138.249;  -13.200; 1009.540
958.118;  132.939;  -14.460;  877.700
958.674;  134.617;  -13.840;  946.780
959.229;  135.762;  -10.670; 1013.980
959.784;  136.581;  -17.040;  832.400
960.339;  139.022;  -12.970; 1001.280
960.894;  139.281;  -12.700;  963.760
961.449;  138.599;  -13.790;  859.960
962.004;  142.305;  -11.760; 1212.840
962.559;  140.938;  -14.840;  860.140
963.114;  139.813;  -14.530;  742.480
963.669;  141.755;  -12.780;  915.500
964.224;  140.785;  -14.330;  874.340
964.779;  138.102;  -14.380;  828.420
965.334;  134.233;  -12.460; 1017.860
965.888;  129.285;  -13.490;  875.360
966.443;  128.722;  -14.140;  972.380
966.998;  124.847;  -16.240;  819.460
967.552;  122.672;  -12.730;  908.380
968.107;  121.088;  -14.510;  868.300
968.661;  121.927;  -11.850;  922.440
969.216;  120.030;  -14.370;  856.280
969.770;  119.121;  -13.010;  917.200
970.324;  118.810;  -12.460;  923.140
970.879;  117.747;  -11.580;  947.180
971.433;  117.122;  -13.130;  952.720
971.987;  115.081;  -12.360;  895.340
972.541;  115.048;  -14.330;  917.100
973.095;  113.922;  -13.310; 1009.460
973.649;  112.909;  -15.830;  809.480
974.203;  114.730;  -15.830;  829.040
974.757;  117.794;  -13.480;  855.220
975.311;  117.175;  -13.720;  872.600
975.865;  113.373;  -15.780;  881.820
976.419;  110.504;  -14.290;  857.400
976.973;  108.864;  -13.210;  849.620
977.526;  107.257;  -12.300;  949.920
978.080;  103.573;  -14.840;  796.780
978.634;  104.339;  -13.100;  921.320
979.187;  100.879;  -12.300;  905.400
979.741;   99.458;  -12.020; 1018.380
980.294;   92.507;  -14.590;  789.160
980.848;   88.947;  -14.390;  717.220
981.401;   89.975;  -14.280;  816.540
981.955;   89.910;  -11.920;  844.300
982.508;   86.970;  -15.790;  746.340
983.061;   87.302;  -12.070;  915.260
983.615;   84.704;  -13.260;  798.800
984.168;   80.842;  -15.540;  770.080
984.721;   82.556;  -13.230;  880.760
985.274;   80.369;  -11.820;  867.500
985.827;   78.847;  -13.510;  834.220
986.380;   75.745;  -14.840;  721.340
986.933;   75.405;  -13.970;  864.800
987.486;   74.821;  -12.450;  861.920
988.039;   73.670;  -11.170;  863.100
988.591;   71.027;  -13.070;  893.260
989.144;   66.976;  -15.530;  737.260
989.697;   65.999;  -14.300;  758.740
990.250;   66.230;  -13.310;  858.100
990.802;   65.404;  -14.490;  755.860
991.355;   66.423;  -12.980;  974.880
991.907;   64.956;  -13.715;  864.320
992.460;   63.489;  -14.450;  753.760
993.012;   62.149;  -12.590;  749.540
993.565;   60.524;  -15.180;  711.360
994.117;   62.312;  -11.630;  950.780
994.669;   58.724;  -13.760;  701.320
995.221;   56.642;  -12.710;  791.920
995.774;   57.011;  -14.620;  787.580
996.326;   55.967;  -13.150;  740.220
996.878;   56.891;  -12.880;  838.420
997.430;   54.494;  -14.580;  699.860
997.982;   54.346;  -14.030;  750.140
998.534;   54.064;  -12.190;  739.060
999.086;   52.307;  -12.990;  738.220
999.638;   50.755;  -13.180;  661.380
1000.190;   49.246;  -14.970;  699.320
1000.741;   50.357;  -12.200;  742.700
1001.293;   50.380;  -13.400;  686.020
1001.845;   49.918;  -14.490;  676.640
1002.396;   49.408;  -15.280;  743.400
1002.948;   49.943;  -12.380;  737.400
1003.500;   48.639;  -13.260;  723.780
1004.051;   49.191;  -13.730;  907.580
1004.603;   48.020;  -12.300;  791.820
1005.154;   43.569;  -15.330;  608.980
1005.705;   43.721;  -12.800;  723.960
1006.257;   42.654;  -13.900;  707.220
1006.808;   42.224;  -14.430;  685.460
1007.359;   41.981;  -12.010;  763.240
1007.910;   40.332;  -12.690;  646.640
1008.461;   39.540;  -13.610;  732.940
1009.013;   37.798;  -14.990;  588.340
1009.564;   39.814;  -11.860;  793.520
1010.115;   36.532;  -12.640;  597.040
1010.665;   36.974;  -14.570;  602.160
1011.216;   37.314;  -15.190;  667.920
1011.767;   37.864;  -13.470;  697.920
1012.318;   37.387;  -13.760;  736.980
1012.869;   36.321;  -15.950;  679.000
1013.419;   35.516;  -15.880;  603.120
1013.970;   36.847;  -14.540;  666.640
1014.521;   36.374;  -13.220;  620.620
1015.071;   35.246;  -15.020;  670.380
1015.622;   34.790;  -17.510;  635.460
1016.172;   34.512;  -14.130;  596.820
1016.723;   34.800;  -14.220;  614.380
1017.273;   34.431;  -15.370;  604.160
1017.823;   34.383;  -15.290;  650.340
1018.374;   33.917;  -13.420;  611.760
1018.924;   34.360;  -11.740;  716.880
1019.474;   34.041;  -12.250;  718.880
1020.024;   32.105;  -15.850;  657.580
1020.574;   33.815;  -13.280;  726.160
1021.124;   32.566;  -13.560;  673.580
1021.674;   30.855;  -13.790;  559.120
1022.224;   32.293;  -14.610;  708.940
1022.774;   32.425;  -13.100;  668.820
1023.324;   33.203;  -11.470;  753.520
1023.874;   33.089;  -11.990;  875.760
1024.423;   31.118;  -14.550;  613.700
1024.973;   31.742;  -14.440;  610.760
1025.523;   30.475;  -13.250;  620.960
1026.072;   29.687;  -15.200;  606.420
1026.622;   30.212;  -14.590;  675.740
1027.172;   30.721;  -11.080;  715.660
1027.721;   29.538;  -14.010;  601.220
1028.270;   30.167;  -13.690;  663.400
1028.820;   29.573;  -15.380;  638.080
1029.369;   28.780;  -14.980;  612.700
1029.918;   30.016;  -13.100;  649.840
1030.468;   28.374;  -13.680;  564.780
1031.017;   28.902;  -13.770;  634.800
1031.566;   27.227;  -14.100;  608.900
1032.115;   29.603;  -11.770;  694.500
1032.664;   27.788;  -14.940;  596.480
1033.213;   28.634;  -13.370;  735.420
1033.762;   27.759;  -13.660;  635.620
1034.311;   27.601;  -13.650;  677.220
1034.860;   27.328;  -13.820;  691.000
1035.408;   27.833;  -12.860;  722.720
1035.957;   28.561;  -13.060;  719.540
1036.506;   25.820;  -14.510;  530.800
1037.055;   28.072;  -13.470;  844.320
1037.603;   26.353;  -14.800;  664.000
1038.152;   24.612;  -14.190;  534.760
1038.700;   25.941;  -11.810;  585.740
1039.249;   26.141;  -12.850;  681.220
1039.797;   25.762;  -14.610;  633.360
1040.345;   25.690;  -15.220;  705.420
1040.894;   25.627;  -13.480;  625.300
1041.442;   24.363;  -13.310;  632.200
1041.990;   24.108;  -14.510;  559.160
1042.538;   23.332;  -15.700;  536.180
1043.087;   24.011;  -13.910;  570.860
1043.635;   25.510;  -13.620;  670.500
1044.183;   23.582;  -14.230;  586.400
1044.731;   24.513;  -13.730;  576.000
1045.279;   24.786;  -13.970;  674.920
1045.827;   26.185;  -10.750;  892.400
1046.374;   21.982;  -15.230;  515.420
1046.922;   22.703;  -15.390;  590.580
1047.470;   24.153;  -12.320;  691.300
1048.018;   22.827;  -13.230;  647.960
1048.565;   24.123;  -13.390;  708.600
1049.113;   22.080;  -15.030;  557.000
1049.660;   22.337;  -12.540;  629.660
1050.208;   22.405;  -15.040;  675.640
1050.755;   22.026;  -14.680;  606.580
1051.303;   22.823;  -13.610;  686.820
1051.850;   22.179;  -14.340;  635.120
1052.397;   19.610;  -16.330;  473.960
1052.945;   20.845;  -15.710;  617.760
1053.492;   22.292;  -12.320;  741.840
1054.039;   22.379;  -13.730;  720.180
1054.586;   20.738;  -16.140;  557.240
1055.133;   21.329;  -14.020;  693.140
1055.680;   21.639;  -13.430;  646.620
1056.227;   20.151;  -14.570;  542.780
1056.774;   22.315;  -14.400;  794.980
1057.321;   19.751;  -14.230;  523.260
1057.868;   20.288;  -14.220;  651.320
1058.415;   20.090;  -14.060;  651.980
1058.961;   20.414;  -14.640;  678.940
1059.508;   20.213;  -13.970;  643.820
1060.055;   19.448;  -15.100;  581.780
1060.601;   20.027;  -12.180;  624.300
1061.148;   19.288;  -15.010;  616.820
1061.694;   19.311;  -14.750;  592.580
1062.241;   18.851;  -14.130;  596.320
1062.787;   19.663;  -14.770;  663.140
1063.334;   21.147;  -13.130;  808.560
1063.880;   19.213;  -14.420;  668.360
1064.426;   20.149;  -13.130;  706.820
1064.972;   17.937;  -13.960;  601.340
1065.518;   16.780;  -13.680;  566.640
1066.065;   18.638;  -15.720;  624.460
1066.611;   17.038;  -13.970;  598.800
1067.157;   17.802;  -13.920;  641.860
1067.703;   17.941;  -14.760;  668.480
1068.249;   17.678;  -14.490;  605.220
1068.794;   17.737;  -14.740;  626.880
1069.340;   16.929;  -13.220;  578.960
1069.886;   17.284;  -14.930;  590.700
1070.432;   16.042;  -14.700;  541.720
1070.977;   15.738;  -14.470;  601.080
1071.523;   16.838;  -14.330;  573.060
1072.068;   16.471;  -14.960;  582.000
1072.614;   15.388;  -16.220;  527.760
1073.160;   17.400;  -11.280;  687.040
1073.705;   16.042;  -15.990;  572.520
1074.250;   16.123;  -16.550;  559.900
1074.796;   16.738;  -14.600;  655.160
1075.341;   16.865;  -13.440;  664.100
1075.886;   15.879;  -14.450;  594.240
1076.431;   16.363;  -13.160;  649.880
1076.976;   15.243;  -14.710;  639.220
1077.521;   15.470;  -14.000;  583.080
1078.067;   15.580;  -14.470;  579.400
1078.612;   15.492;  -14.530;  661.620
1079.156;   15.269;  -15.660;  601.540
1079.701;   15.584;  -16.120;  693.260
1080.246;   15.405;  -12.960;  696.300
1080.791;   14.446;  -13.700;  625.020
1081.336;   15.223;  -15.540;  659.320
1081.880;   14.509;  -14.640;  649.680
1082.425;   13.716;  -14.220;  573.480
1082.970;   16.170;  -11.890;  717.040
1083.514;   14.051;  -13.820;  597.000
1084.059;   13.214;  -14.280;  586.720
1084.603;   13.025;  -12.890;  565.840
1085.147;   14.167;  -13.590;  645.220
1085.692;   13.958;  -14.050;  716.800
1086.236;   11.920;  -14.990;  503.140
1086.780;   15.287;  -12.640;  751.440
1087.325;   14.114;  -15.550;  654.620
1087.869;   13.257;  -14.980;  610.700
1088.413;   13.612;  -13.440;  705.040
1088.957;   12.623;  -12.170;  543.400
1089.501;   14.258;  -12.730;  766.640
1090.045;   13.964;  -14.650;  726.480
1090.589;   11.290;  -14.500;  569.920
1091.133;   12.802;  -12.320;  673.340
1091.676;   12.211;  -16.130;  591.940
1092.220;   11.652;  -13.930;  600.920
1092.764;   13.264;  -12.820;  706.960
1093.307;   12.418;  -11.700;  673.780
1093.851;   11.479;  -15.600;  556.540
1094.395;   11.879;  -13.920;  683.140
1094.938;   11.332;  -16.090;  632.520
1095.482;   11.623;  -13.820;  559.800
1096.025;   12.415;  -12.720;  710.880
1096.568;   12.646;  -12.100;  779.280
1097.112;    9.305;  -15.450;  508.180
1097.655;   12.057;  -14.310;  603.000
1098.198;   10.342;  -14.740;  600.180
1098.741;   10.447;  -15.550;  612.860
1099.285;   11.515;  -12.600;  657.300
1099.828;    9.492;  -15.050;  439.400
1100.371;   10.234;  -14.800;  608.160
1100.914;   10.796;  -16.480;  682.660
1101.457;   11.500;  -12.990;  679.900
1101.999;    8.867;  -14.110;  584.680
1102.542;   10.834;  -11.450;  641.440
1103.085;    9.615;  -13.350;  658.500
1103.628;   10.960;  -13.200;  762.060
1104.170;    9.481;  -12.310;  588.280
1104.713;   10.399;  -14.320;  646.700
1105.256;    8.744;  -16.110;  557.440
1105.798;    8.268;  -15.910;  499.980
1106.341;   10.886;  -12.200;  728.900
1106.883;    8.737;  -14.910;  521.340
1107.425;    9.197;  -14.960;  668.180
1107.968;    8.739;  -13.440;  612.380
1108.510;   10.511;  -14.010;  684.960
1109.052;    7.911;  -15.430;  612.620
1109.594;    8.695;  -15.290;  554.440
1110.136;    9.241;  -13.360;  643.220
1110.679;    8.473;  -13.820;  633.080
1111.221;    8.717;  -13.690;  604.460
1111.763;    7.505;  -14.890;  559.220
1112.304;    7.528;  -14.550;  547.140
1112.846;    8.558;  -12.760;  666.240
1113.388;   11.723;  -10.780;  942.180
1113.930;    8.192;  -12.690;  694.200
1114.472;    8.075;  -15.730;  606.540
1115.013;    6.238;  -14.620;  551.280
1115.555;    7.700;  -14.950;  587.100
1116.097;    6.962;  -16.460;  579.480
1116.638;    7.867;  -13.730;  684.600
1117.180;    7.687;  -13.810;  667.740
1117.721;    6.596;  -13.280;  568.580
1118.262;    8.116;  -15.080;  677.960
1118.804;    7.414;  -14.040;  637.340
1119.345;    6.626;  -15.430;  578.400
1119.886;    7.300;  -15.240;  704.040
1120.427;    6.329;  -15.820;  589.020
1120.969;    5.949;  -14.550;  597.920
1121.510;    6.533;  -14.030;  563.060
1122.051;    6.571;  -11.990;  723.580
1122.592;    5.873;  -16.490;  655.420
1123.133;    4.893;  -15.580;  547.940
1123.673;    6.861;  -12.850;  706.480
1124.214;    6.364;  -13.630;  612.460
1124.755;    6.350;  -14.830;  639.460
1125.296;    6.047;  -13.110;  627.320
1125.836;    7.083;  -11.320;  691.500
1126.377;    5.834;  -14.330;  599.660
1126.918;    6.248;  -12.800;  614.980
1127.458;    4.951;  -13.580;  622.220
1127.999;    6.158;  -10.330;  656.980
1128.539;    5.882;  -13.390;  694.240
1129.079;    4.918;  -16.420;  632.720
1129.620;    4.145;  -15.700;  558.100
1130.160;    4.018;  -14.790;  539.480
1130.700;    5.102;  -12.910;  640.840
1131.240;    5.467;  -15.610;  643.700
1131.781;    4.801;  -12.920;  619.680
1132.321;    4.662;  -15.300;  599.120
1132.861;    3.816;  -14.760;  564.200
1133.401;    3.790;  -15.470;  593.940
1133.941;    4.335;  -13.710;  626.280
1134.481;    4.343;  -11.820;  597.580
1135.020;    4.117;  -14.810;  609.160
1135.560;    4.645;  -13.660;  674.940
1136.100;    3.394;  -13.940;  501.160
1136.640;    3.386;  -15.410;  510.480
1137.179;    3.471;  -16.920;  537.960
1137.719;    3.880;  -16.430;  605.400
1138.258;    3.247;  -16.300;  587.360
1138.798;    4.324;  -13.710;  663.780
1139.337;    2.505;  -13.840;  482.840
1139.877;    3.967;  -16.140;  642.360
1140.416;    5.363;  -11.410;  878.060
1140.955;    2.964;  -12.820;  535.380
1141.494;    3.848;  -12.310;  669.280
1142.034;    2.227;  -16.280;  583.520
1142.573;    3.733;  -13.090;  646.280
1143.112;    3.111;  -13.770;  553.480
1143.651;    2.420;  -15.830;  536.480
1144.190;    4.277;  -15.010;  691.640
1144.729;    2.598;  -13.650;  607.420
1145.267;    3.134;  -13.670;  584.900
1145.806;    3.420;  -13.630;  637.040
1146.345;    2.594;  -14.160;  635.020
1146.884;    2.304;  -11.180;  622.500
1147.422;    2.281;  -15.890;  533.060
1147.961;    3.786;  -12.760;  708.460
1148.500;    3.140;  -15.220;  669.720
1149.038;    3.345;  -13.720;  632.500
1149.577;    3.219;  -13.250;  698.640
1150.115;    0.250;  -16.790;  452.280
1150.653;    2.148;  -15.810;  607.340
1151.192;    2.026;  -14.730;  552.920
1151.730;    2.545;  -13.660;  652.560
1152.268;    1.494;  -15.120;  589.520
1152.806;    2.028;  -15.580;  571.180
1153.344;    0.560;  -16.210;  577.640
1153.882;    1.769;  -12.810;  600.060
1154.421;    0.130;  -14.150;  470.620
1154.958;    0.846;  -15.360;  595.240
1155.496;    2.140;  -14.710;  645.280
1156.034;    2.415;  -13.640;  721.880
1156.572;    1.958;  -13.740;  667.060
1157.110;    0.989;  -16.960;  473.940
1157.647;    1.466;  -11.940;  676.960
1158.185;    0.801;  -14.090;  564.320
1158.723;   -0.211;  -13.610;  509.200
1159.260;    1.398;  -14.760;  701.700
1159.798;    1.591;  -13.700;  658.160
1160.335;    0.919;  -13.820;  631.820

