membrane
Integration time [ms]:   3.882
Averaging Nr. [scans]: 1000
Smoothing Nr. [pixels]: 0
Data measured with spectrometer [name]: 7414430SP
Wave   ;Sample   ;Dark     ;Reference
[nm]   ;[counts] ;[counts] ;[counts] 

288.544;  132.570;   10.292;  793.890
289.143;  135.057;    4.564;  681.602
289.742;  136.339;    6.144;  828.814
290.341;  121.989;    4.396;  789.841
290.940;  110.944;    0.938;  730.702
291.538;  113.733;   -0.684;  881.108
292.137;  112.721;   -2.845;  792.581
292.736;  117.192;   -0.144;  975.101
293.335;  112.507;   -6.352;  735.086
293.934;  112.781;   -7.642;  781.677
294.532;  112.472;   -4.992; 1031.958
295.131;   98.380;   -5.478;  834.394
295.730;   99.467;   -6.549;  809.588
296.328;   98.008;   -9.558;  783.442
296.927;   98.703;   -8.118;  779.652
297.525;   98.538;   -6.908;  781.236
298.124;   88.947;   -9.195;  654.009
298.722;   93.991;   -8.198;  761.933
299.321;   92.449;   -8.817;  708.597
299.919;   89.690;   -7.716;  751.918
300.518;   85.400;  -10.745;  689.338
301.116;   88.286;   -9.647;  691.381
301.715;   87.334;  -10.828;  730.222
302.313;   86.363;   -6.087;  704.943
302.911;   82.758;   -6.824;  733.830
303.509;   87.891;   -8.807;  925.627
304.108;   84.782;   -8.198;  760.383
304.706;   84.323;   -6.218;  801.664
305.304;   79.713;   -7.185;  796.707
305.902;   85.752;   -8.568;  784.484
306.500;   79.898;   -7.737;  728.200
307.098;   78.854;   -6.026;  746.560
307.696;   76.384;   -7.176;  780.432
308.294;   77.606;   -8.656;  731.359
308.892;   79.130;   -6.838;  759.769
309.490;   75.241;   -2.596;  712.161
310.088;   73.310;   -4.485;  788.444
310.686;   78.722;   -3.907;  821.749
311.284;   74.402;   -2.806;  766.040
311.882;   72.297;   -2.845;  731.225
312.480;   68.474;   -3.274;  697.167
313.078;   70.754;   -3.645;  808.331
313.675;   71.187;   -4.997;  691.600
314.273;   66.397;   -0.894;  797.837
314.871;   65.122;   -2.854;  589.829
315.468;   64.130;   -3.644;  652.090
316.066;   67.376;   -3.947;  694.427
316.664;   60.326;   -1.824;  656.351
317.261;   64.443;    1.565;  910.128
317.859;   60.128;   -3.955;  768.735
318.456;   61.287;   -2.886;  830.096
319.054;   57.547;   -0.995;  787.828
319.651;   56.393;   -1.765;  759.928
320.249;   55.695;   -3.685;  810.188
320.846;   53.365;   -3.736;  714.286
321.443;   50.932;   -2.065;  832.135
322.041;   48.966;   -5.635;  812.315
322.638;   47.462;   -5.985;  701.456
323.235;   49.159;   -6.677;  665.683
323.833;   46.835;   -3.497;  740.354
324.430;   42.262;   -6.756;  615.900
325.027;   44.309;   -7.647;  876.855
325.624;   44.871;   -7.598;  644.532
326.221;   41.514;   -5.848;  689.717
326.818;   41.843;   -5.777;  818.332
327.415;   45.023;   -8.769;  748.828
328.012;   43.638;   -6.299;  690.585
328.609;   42.243;   -6.639;  731.389
329.206;   40.193;   -6.358;  778.621
329.803;   39.775;   -8.698;  737.841
330.400;   41.886;   -8.379;  704.260
330.997;   43.006;   -6.178;  817.147
331.594;   40.927;   -5.646;  788.185
332.191;   45.320;   -6.928;  728.722
332.787;   45.937;   -6.057;  844.463
333.384;   43.999;   -6.445;  763.093
333.981;   42.153;   -8.002;  815.687
334.578;   44.283;   -8.443;  708.378
335.174;   45.513;   -6.053;  731.469
335.771;   44.256;   -5.791;  836.456
336.367;   42.135;   -6.570;  710.631
336.964;   45.625;   -6.741;  793.266
337.561;   43.650;   -5.710;  731.112
338.157;   39.225;   -3.928;  911.916
338.754;   36.055;   -5.577;  796.589
339.350;   35.489;   -9.667;  722.493
339.946;   39.161;   -5.269;  773.135
340.543;   31.380;   -4.485;  846.136
341.139;   25.682;   -7.584;  720.836
341.735;   23.328;   -8.553;  772.593
342.332;   23.844;   -4.984;  691.472
342.928;   23.688;   -3.475;  795.394
343.524;   18.583;   -6.653;  761.684
344.120;   15.974;   -7.173;  738.562
344.716;   19.226;   -4.385;  723.717
345.313;   16.864;   -3.565;  795.342
345.909;   12.651;   -7.495;  627.336
346.505;   15.192;   -8.276;  740.247
347.101;   15.227;   -5.697;  827.864
347.697;   15.321;   -4.767;  785.398
348.293;    9.747;   -7.226;  627.244
348.889;   11.790;   -7.547;  745.914
349.485;   11.388;   -9.147;  688.205
350.081;   11.928;   -6.568;  772.592
350.676;    7.248;   -6.516;  691.606
351.272;   12.696;   -7.378;  809.530
351.868;   11.642;   -6.759;  780.497
352.464;    9.050;   -4.798;  723.932
353.059;    5.997;   -7.977;  646.017
353.655;    9.557;   -8.769;  777.063
354.251;   10.630;   -5.920;  759.845
354.846;    4.683;   -7.647;  740.646
355.442;    2.599;   -6.956;  753.071
356.038;    5.022;   -9.928;  751.708
356.633;    4.434;   -7.698;  728.594
357.229;    3.084;   -6.307;  724.757
357.824;    1.217;   -7.647;  703.600
358.420;    1.628;  -10.047;  679.726
359.015;    1.065;   -7.458;  695.357
359.610;    2.481;   -5.748;  763.920
360.206;   -3.524;   -9.346;  603.240
360.801;   -0.825;  -11.268;  646.503
361.396;    1.547;   -8.789;  725.975
361.992;   -2.722;   -6.347;  668.220
362.587;   -5.311;   -6.476;  670.160
363.182;   -2.356;   -9.457;  689.631
363.777;   -2.084;   -7.147;  738.242
364.372;   -2.341;   -5.507;  737.314
364.967;   -5.355;   -6.386;  680.744
365.563;   -1.172;   -7.858;  815.567
366.158;   -3.877;   -8.517;  685.161
366.753;   -3.594;   -8.728;  649.263
367.348;   -5.750;   -7.677;  746.056
367.942;   -5.716;  -10.387;  697.298
368.537;   -6.110;   -7.187;  754.245
369.132;   -5.878;   -8.587;  703.428
369.727;  -10.420;   -8.606;  638.079
370.322;   -9.156;  -10.426;  580.186
370.917;   -7.854;   -5.776;  710.646
371.511;   -6.054;   -6.007;  861.834
372.106;   -8.795;   -6.686;  776.964
372.701;  -12.263;   -9.335;  585.988
373.296;   -6.727;   -6.777;  863.135
373.890;  -11.482;   -7.546;  647.840
374.485;  -13.137;   -8.755;  691.199
375.079;   -8.913;   -9.797;  738.685
375.674;   -7.668;   -6.327;  812.970
376.268;  -12.570;   -9.046;  691.759
376.863;  -17.788;   -7.993;  580.327
377.457;  -10.871;   -9.206;  662.490
378.052;  -13.441;   -5.345;  764.884
378.646;  -14.385;   -5.605;  741.167
379.240;  -14.017;   -6.825;  721.176
379.835;  -13.278;  -10.476;  636.978
380.429;  -15.752;   -8.676;  562.557
381.023;  -14.594;   -4.945;  779.205
381.617;  -17.403;   -8.094;  680.106
382.212;  -13.686;  -10.646;  685.303
382.806;  -12.116;   -8.136;  760.690
383.400;  -17.520;   -7.855;  672.281
383.994;  -17.714;   -8.125;  664.870
384.588;  -13.855;   -7.637;  697.701
385.182;  -12.181;   -7.458;  726.624
385.776;  -14.185;   -6.277;  706.875
386.370;  -17.324;   -7.485;  681.968
386.964;  -15.055;   -9.416;  684.155
387.558;  -13.314;   -8.518;  598.360
388.152;  -17.913;   -7.096;  681.959
388.745;  -15.187;   -7.656;  814.707
389.339;  -12.959;   -8.927;  747.642
389.933;  -12.801;   -9.538;  695.370
390.527;  -13.092;   -5.857;  859.029
391.120;  -19.656;   -9.455;  595.318
391.714;  -16.280;   -9.746;  711.633
392.308;  -12.696;   -7.857;  780.253
392.901;  -17.426;   -9.106;  642.460
393.495;  -18.896;  -10.365;  595.414
394.089;  -16.462;   -9.696;  760.452
394.682;  -17.859;   -7.016;  697.188
395.275;  -17.680;   -8.466;  719.927
395.869;  -19.212;   -8.985;  667.314
396.462;  -17.386;  -11.496;  616.609
397.056;  -12.792;   -7.838;  776.621
397.649;  -17.240;   -6.895;  731.575
398.242;  -15.238;   -5.017;  712.645
398.836;  -13.864;   -8.787;  766.408
399.429;  -14.781;   -8.967;  631.041
400.022;  -18.952;   -8.815;  665.902
400.615;  -15.699;   -6.276;  805.609
401.208;  -13.081;   -8.407;  691.451
401.802;  -16.300;   -7.296;  699.329
402.395;  -17.579;   -7.585;  683.502
402.988;  -18.288;   -8.015;  696.627
403.581;  -15.069;   -9.577;  646.878
404.174;  -12.849;   -7.588;  686.568
404.767;  -15.598;   -7.906;  638.583
405.360;  -17.616;   -7.875;  621.445
405.953;  -11.243;   -8.127;  759.034
406.545;  -11.605;   -7.198;  725.342
407.138;  -16.427;   -8.916;  618.350
407.731;  -14.534;   -9.767;  613.303
408.324;  -10.177;  -10.659;  660.554
408.917;  -11.406;   -8.068;  681.864
409.509;  -13.453;   -9.837;  740.396
410.102;  -15.249;   -8.146;  643.948
410.695;   -8.561;   -7.969;  665.758
411.287;   -9.982;   -8.579;  599.821
411.880;  -10.872;   -6.968;  585.421
412.472;  -14.124;   -9.487;  613.092
413.065;  -10.919;  -10.338;  629.408
413.657;   -8.656;   -9.169;  576.678
414.250;   -8.044;  -10.119;  646.681
414.842;  -10.346;   -9.938;  676.353
415.434;   -7.255;  -10.409;  570.463
416.027;   -4.088;   -9.591;  652.196
416.619;   -6.157;   -7.379;  713.400
417.211;   -7.116;   -9.159;  599.352
417.804;   -1.644;   -9.191;  628.499
418.396;   -6.928;   -8.159;  607.643
418.988;   -4.002;   -6.960;  659.238
419.580;   -7.115;  -11.389;  568.276
420.172;   -4.513;  -13.460;  536.196
420.764;   -1.068;  -10.701;  672.482
421.356;   -1.565;   -8.961;  636.898
421.948;   -2.980;   -9.770;  677.661
422.540;    2.317;   -8.832;  680.027
423.132;    1.609;   -8.153;  600.641
423.724;   -2.247;   -8.481;  561.267
424.316;    0.303;   -9.261;  621.345
424.908;    4.096;   -9.643;  591.517
425.500;    4.959;   -8.663;  647.978
426.092;    5.667;   -8.503;  648.268
426.683;    4.809;  -10.522;  684.836
427.275;    7.941;  -11.734;  641.471
427.867;   10.013;  -10.264;  668.948
428.458;   10.149;   -7.644;  732.344
429.050;    7.067;   -7.853;  680.749
429.642;   10.488;   -8.904;  743.124
430.233;   10.456;  -10.795;  569.356
430.825;   12.064;   -7.665;  724.809
431.416;    9.469;   -8.843;  698.241
432.008;   14.242;   -9.885;  651.723
432.599;   14.198;   -9.966;  656.073
433.190;   10.606;   -9.164;  637.670
433.782;   10.255;   -8.584;  590.395
434.373;   18.820;   -8.296;  884.765
434.964;   16.861;   -9.896;  602.920
435.556;   13.659;   -8.255;  634.537
436.147;   17.454;   -8.075;  758.490
436.738;   17.475;   -9.716;  701.099
437.329;   22.872;   -7.318;  721.723
437.920;   15.544;   -6.694;  666.688
438.511;   16.275;   -9.644;  564.526
439.103;   22.716;   -9.427;  623.998
439.694;   24.648;  -10.748;  681.583
440.285;   25.647;   -7.997;  764.432
440.876;   23.936;  -10.046;  845.738
441.466;   22.835;  -13.467;  575.162
442.057;   28.580;   -9.329;  665.814
442.648;   26.650;   -7.707;  746.255
443.239;   25.097;   -9.017;  620.477
443.830;   30.892;  -10.279;  704.958
444.421;   32.782;  -12.630;  655.474
445.011;   29.639;   -8.697;  693.619
445.602;   28.427;   -7.787;  743.126
446.193;   30.897;  -13.329;  488.117
446.783;   35.664;   -9.171;  640.397
447.374;   30.410;   -7.457;  692.759
447.964;   31.364;   -9.277;  713.770
448.555;   41.192;   -9.041;  822.742
449.145;   36.765;   -8.969;  662.853
449.736;   38.056;   -6.809;  803.179
450.326;   37.514;   -7.229;  713.626
450.917;   43.122;  -11.391;  675.324
451.507;   41.769;   -9.501;  600.661
452.097;   43.247;   -8.460;  746.267
452.688;   43.706;  -10.080;  742.160
453.278;   43.879;  -12.861;  566.840
453.868;   48.396;   -8.372;  793.550
454.458;   46.117;   -8.131;  651.141
455.048;   47.015;   -8.520;  711.783
455.639;   48.550;  -13.632;  567.096
456.229;   52.043;  -10.143;  710.694
456.819;   53.955;   -9.163;  751.158
457.409;   54.668;   -8.652;  773.993
457.999;   58.111;   -9.933;  737.505
458.589;   57.136;  -10.363;  686.606
459.179;   56.596;  -10.633;  717.658
459.769;   54.801;  -12.442;  627.099
460.358;   60.712;   -9.844;  797.262
460.948;   59.819;   -9.924;  689.503
461.538;   61.713;  -10.484;  660.677
462.128;   59.458;  -10.703;  664.934
462.717;   66.486;  -11.486;  710.326
463.307;   70.218;  -10.767;  705.846
463.897;   65.587;   -8.814;  656.942
464.486;   65.366;   -8.182;  837.128
465.076;   70.534;   -9.985;  733.776
465.666;   73.236;  -10.447;  652.900
466.255;   70.581;   -7.754;  785.651
466.845;   70.430;  -10.884;  666.749
467.434;   74.268;  -12.525;  725.873
468.023;   74.960;  -11.456;  658.357
468.613;   71.811;   -9.173;  713.946
469.202;   75.603;   -9.306;  646.507
469.791;   80.955;   -8.917;  737.811
470.381;   82.584;   -9.657;  742.813
470.970;   82.293;   -9.947;  711.099
471.559;   82.586;   -9.256;  733.291
472.148;   85.610;  -13.397;  675.737
472.738;   87.467;   -9.928;  765.466
473.327;   87.712;  -10.897;  637.529
473.916;   88.029;   -8.526;  737.446
474.505;   92.913;  -11.078;  751.703
475.094;   96.550;   -9.559;  806.570
475.683;   94.935;   -8.838;  797.699
476.272;   95.992;  -10.198;  730.632
476.861;   99.480;  -11.489;  706.754
477.449;  105.833;  -10.721;  728.487
478.038;   99.897;   -9.818;  692.513
478.627;  100.775;   -9.887;  714.852
479.216;  107.847;  -10.030;  769.441
479.805;  111.947;   -9.401;  783.375
480.393;  111.790;   -5.739; 1008.945
480.982;  110.598;   -7.838;  874.501
481.571;  117.502;   -9.111;  858.333
482.159;  118.395;  -10.601;  705.386
482.748;  117.236;   -8.500;  821.385
483.336;  122.690;   -9.241;  858.209
483.925;  124.752;  -10.440;  774.373
484.513;  130.441;  -11.063;  758.962
485.102;  127.385;   -9.540;  810.965
485.690;  137.299;   -6.742; 1011.050
486.278;  139.093;   -8.442;  979.329
486.867;  139.849;  -10.472;  809.662
487.455;  142.531;   -8.811;  898.229
488.043;  144.160;  -10.721;  748.361
488.631;  154.034;  -10.393; 1005.079
489.220;  158.712;  -10.843;  908.626
489.808;  159.360;  -10.572;  741.415
490.396;  169.705;  -10.482;  914.645
490.984;  178.455;  -11.542;  830.161
491.572;  189.453;   -8.463;  940.315
492.160;  198.542;   -8.491;  919.081
492.748;  214.397;   -9.681;  884.341
493.336;  242.481;  -10.493; 1019.693
493.924;  274.246;   -9.354;  958.077
494.512;  317.093;   -9.132; 1066.638
495.100;  373.660;   -9.001; 1103.280
495.687;  450.060;  -11.924; 1206.373
496.275;  557.908;  -11.193; 1150.796
496.863;  660.548;   -9.241; 1281.171
497.451;  776.666;  -11.341; 1386.805
498.038;  942.043;  -11.364; 1556.729
498.626; 1094.592;   -8.104; 1741.407
499.214; 1303.441;   -8.842; 2016.609
499.801; 1651.876;  -10.112; 2220.633
500.389; 1955.338;  -11.953; 2312.494
500.976; 2247.669;  -10.023; 2744.849
501.564; 2606.587;   -8.662; 3148.565
502.151; 3003.707;  -10.531; 3515.999
502.738; 3479.055;  -13.853; 3971.274
503.326; 4067.292;  -10.794; 4403.796
503.913; 4584.439;   -8.663; 5161.749
504.500; 5506.121;  -10.172; 5986.420
505.088; 6807.411;  -13.472; 6381.201
505.675; 7445.339;  -10.924; 6925.547
506.262; 7478.890;   -8.551; 7619.060
506.849; 7929.433;  -10.523; 8733.969
507.436; 8883.375;  -10.834; 9790.121
508.023; 9326.915;   -9.093; 9985.472
508.610; 9539.841;  -10.073;10434.618
509.197;10892.732;   -9.500;11198.435
509.784;12380.268;  -13.242;12391.194
510.371;13477.410;  -10.964;13603.713
510.958;14091.691;   -9.772;14426.586
511.545;14518.839;   -7.842;15243.775
512.132;14476.629;  -12.184;15945.876
512.719;15301.407;   -9.733;16340.369
513.305;18507.445;   -9.172;18011.766
513.892;20134.783;   -9.581;19754.971
514.479;21494.555;  -10.253;20967.805
515.066;22682.701;   -8.183;22299.793
515.652;23570.961;   -9.253;22908.660
516.239;25546.207;   -9.412;23798.875
516.825;26425.645;  -11.153;25567.275
517.412;26189.891;  -10.263;28154.959
517.998;26932.318;   -8.802;28344.111
518.585;28507.682;  -10.401;27134.219
519.171;28073.510;  -12.744;27268.576
519.758;28161.586;  -11.793;28964.129
520.344;30733.617;   -8.912;30664.494
520.930;34488.590;  -10.901;32550.605
521.516;34722.480;  -12.034;35422.895
522.103;34993.043;  -10.473;38280.004
522.689;36868.855;   -8.311;37835.117
523.275;39259.613;  -10.691;37288.613
523.861;41292.801;  -11.193;37281.395
524.447;38373.828;  -11.484;37846.949
525.033;38483.457;   -7.702;38321.949
525.619;39616.461;  -11.241;38579.285
526.205;39601.297;  -12.152;40622.875
526.791;40359.309;  -11.423;42258.836
527.377;40505.055;   -7.981;42966.902
527.963;41562.176;   -9.450;42018.949
528.549;41218.980;  -11.351;42476.828
529.135;40078.250;  -10.202;41854.852
529.721;42079.457;   -8.672;41237.711
530.306;43072.109;   -9.111;41259.445
530.892;44651.734;  -11.252;41506.047
531.478;48303.480;  -10.432;43559.613
532.063;49530.098;  -10.721;47695.563
532.649;49722.828;   -7.450;50808.324
533.235;51441.402;  -11.811;51787.500
533.820;50332.184;   -9.383;52145.035
534.406;47192.555;   -9.400;51133.488
534.991;46205.512;   -8.861;49996.805
535.576;47949.133;  -10.612;48882.852
536.162;46977.934;   -7.322;46942.285
536.747;45992.508;   -9.360;45711.746
537.333;46093.234;  -10.450;48510.180
537.918;48418.785;  -12.610;50439.891
538.503;49418.262;  -12.132;50863.711
539.088;46471.344;  -10.831;50906.922
539.673;44633.105;  -11.220;52621.965
540.259;49138.734;  -11.481;52368.094
540.844;50420.875;  -11.462;50879.109
541.429;49445.055;   -7.869;52077.777
542.014;47777.672;  -11.859;52716.695
542.599;47072.043;  -11.061;52363.281
543.184;48427.938;  -12.300;53187.137
543.769;49290.852;   -9.369;54697.605
544.354;50199.738;  -12.020;53913.914
544.938;46583.848;  -10.350;49680.164
545.523;43285.762;  -10.841;47386.277
546.108;45620.063;   -8.579;49151.949
546.693;47397.371;   -8.818;51384.637
547.278;48719.070;  -11.331;51853.254
547.862;47508.660;  -10.292;51173.750
548.447;45079.813;   -8.349;51691.395
549.031;44473.879;  -10.838;52456.703
549.616;47215.871;  -11.681;52714.516
550.201;49931.215;  -11.140;52414.598
550.785;49307.789;   -8.649;52355.059
551.370;49305.457;  -11.889;54589.453
551.954;49921.227;  -11.239;58267.348
552.538;49582.895;   -8.850;59062.176
553.123;51721.164;  -10.829;58115.285
553.707;54117.926;   -8.887;56556.285
554.291;51938.012;  -10.430;56201.668
554.876;49224.715;   -9.799;55335.762
555.460;46915.336;  -10.018;54155.703
556.044;46027.852;   -7.307;53721.484
556.628;48872.188;  -12.229;53731.016
557.212;49048.770;   -9.820;54312.531
557.796;46672.605;   -9.109;53797.773
558.380;44196.137;   -9.707;56145.984
558.964;44439.824;  -10.980;57277.930
559.548;48302.527;  -12.010;56459.641
560.132;50018.520;   -7.928;54434.543
560.716;51457.316;  -10.247;54800.617
561.300;51784.387;  -11.250;57606.945
561.884;50700.945;  -10.568;58972.445
562.467;50846.848;   -9.727;57327.570
563.051;48876.461;  -11.847;54962.434
563.635;47164.961;  -10.747;52594.473
564.219;45733.168;  -13.108;50610.410
564.802;43401.691;  -11.417;49551.180
565.386;41450.188;  -10.457;48370.953
565.969;42947.844;   -8.959;48178.871
566.553;42270.199;  -10.328;49957.305
567.136;42713.285;  -10.257;50369.594
567.720;43402.570;  -10.186;49492.004
568.303;42422.820;  -10.027;50616.352
568.887;42678.066;  -10.397;50727.148
569.470;44012.023;   -8.185;51698.379
570.053;43364.168;  -11.596;52122.078
570.637;42460.223;  -11.378;52536.438
571.220;42990.422;   -9.138;51186.098
571.803;42201.555;   -7.675;51032.762
572.386;38997.730;   -8.976;49609.887
572.969;39373.254;  -12.477;48285.926
573.552;40083.398;   -9.767;47624.285
574.135;38465.270;   -8.175;45498.641
574.718;33394.609;  -11.096;41970.434
575.301;32861.688;  -11.966;41447.137
575.884;32328.768;  -12.836;40923.836
576.467;37516.031;   -9.116;45267.723
577.050;40340.926;  -10.536;48175.543
577.633;40676.949;  -11.027;47729.328
578.216;39181.090;   -9.946;47579.793
578.799;37204.059;   -9.645;47820.996
579.381;36985.777;   -9.446;48115.551
579.964;38319.969;  -12.217;47333.766
580.547;38733.871;  -10.586;46668.969
581.129;38435.352;   -8.374;44466.141
581.712;36527.957;  -10.434;44164.922
582.294;35836.938;  -10.896;46477.855
582.877;37607.004;   -8.906;48244.254
583.459;39878.879;   -9.994;47437.895
584.042;39576.043;  -10.084;46943.219
584.624;37872.105;  -13.534;46792.227
585.206;35228.723;  -12.716;46557.250
585.789;35616.762;  -11.614;45793.773
586.371;37294.367;  -10.203;43836.391
586.953;35416.660;  -10.314;42972.492
587.536;33332.609;   -9.776;42487.211
588.118;34349.461;   -9.821;42086.414
588.700;36045.750;  -10.073;43389.930
589.282;37565.852;  -12.395;43646.039
589.864;35086.527;  -11.514;43438.109
590.446;34815.734;  -10.803;43151.926
591.028;36052.477;  -11.043;42781.867
591.610;36471.641;  -13.244;42839.098
592.192;33508.285;  -11.095;42820.402
592.774;30939.182;  -10.823;40724.277
593.356;29966.275;  -11.052;39874.789
593.937;32490.781;  -11.664;39980.648
594.519;34983.309;  -10.454;42069.633
595.101;35830.102;  -10.322;42976.031
595.683;34396.660;  -10.042;44084.441
596.264;32476.293;  -14.334;43478.797
596.846;32698.227;  -10.863;43803.672
597.427;33843.375;   -9.901;42986.934
598.009;35141.047;  -10.911;42832.219
598.591;37176.266;  -10.483;42580.086
599.172;36208.805;   -9.663;43061.805
599.753;33046.742;  -10.631;41691.469
600.335;31303.111;   -9.371;40692.520
600.916;32027.701;  -13.992;39982.422
601.498;33609.805;   -8.352;40318.617
602.079;32792.977;   -8.411;40670.609
602.660;33637.980;  -10.841;41450.898
603.241;36102.004;  -12.963;41137.738
603.823;36136.777;  -11.523;38868.797
604.404;33949.977;  -11.881;38182.785
604.985;32453.035;  -11.721;38078.047
605.566;33815.328;   -9.293;38056.633
606.147;33870.285;  -10.940;37020.418
606.728;32226.752;  -11.840;37883.359
607.309;31036.846;  -11.781;38748.273
607.890;31812.490;  -11.262;38850.230
608.471;31854.416;  -10.111;37457.918
609.051;31819.633;   -7.709;36066.457
609.632;32775.160;  -12.409;35991.074
610.213;32746.904;  -10.811;37402.641
610.794;31200.605;  -11.630;38383.363
611.374;31590.295;   -8.030;40562.387
611.955;32184.994;  -10.809;38533.727
612.536;33963.336;  -10.531;36951.789
613.116;35585.883;  -12.820;37197.891
613.697;33827.469;  -11.419;38411.125
614.277;32861.668;   -9.768;38673.938
614.858;33386.805;  -10.251;37075.863
615.438;31051.520;  -11.981;35092.906
616.019;28420.635;   -8.978;33666.301
616.599;30814.139;  -12.219;34189.023
617.179;34586.434;  -14.170;36952.047
617.760;35645.051;   -9.211;39582.574
618.340;35314.633;   -9.018;38943.977
618.920;34630.066;   -9.249;37594.156
619.500;33621.891;  -12.728;37866.938
620.080;34489.355;  -12.939;37869.043
620.660;34099.363;  -11.586;36868.617
621.241;32386.789;  -11.538;36352.309
621.821;32530.555;  -11.398;35459.520
622.401;33341.441;  -10.179;35207.414
622.980;35241.473;  -11.587;35980.422
623.560;34530.445;  -12.888;37351.328
624.140;31587.254;  -13.149;34388.582
624.720;27405.574;   -9.928;32368.764
625.300;26870.723;  -10.869;32638.629
625.880;31574.746;   -8.617;34599.035
626.459;36360.641;  -12.138;36831.738
627.039;38259.145;  -12.267;38299.098
627.619;37409.289;   -7.476;38289.574
628.198;38319.152;  -11.347;37220.695
628.778;38649.660;  -11.678;37632.563
629.357;36742.480;  -12.438;38003.012
629.937;34639.746;   -9.576;38402.039
630.516;33522.426;  -11.096;37868.801
631.096;32243.076;  -11.828;35760.410
631.675;31054.436;  -11.565;35225.219
632.254;30313.922;  -11.845;35130.289
632.834;31217.717;  -11.545;35794.570
633.413;31790.797;  -10.887;35788.922
633.992;33425.672;  -10.175;34532.863
634.571;33083.414;   -9.704;33590.113
635.151;31348.242;  -10.815;34943.863
635.730;31298.414;  -11.617;35352.523
636.309;29721.906;  -10.836;35366.605
636.888;29569.570;   -9.755;36165.637
637.467;30429.348;  -11.684;37515.902
638.046;32081.176;  -11.987;39288.695
638.625;33680.469;  -10.455;38279.699
639.204;34449.500;  -11.234;37741.598
639.782;32289.123;  -12.023;38364.551
640.361;29786.857;  -11.506;36740.621
640.940;29346.078;  -12.316;34950.082
641.519;31050.754;  -11.616;34137.398
642.097;34603.859;   -9.266;35654.258
642.676;35654.039;  -12.936;35637.957
643.255;34734.672;   -9.966;36567.074
643.833;33535.090;   -8.916;37809.434
644.412;33893.500;  -10.936;37337.293
644.990;36018.793;  -12.176;37018.531
645.569;36577.172;  -12.246;36518.469
646.147;36040.480;  -12.107;36186.430
646.726;35537.082;  -12.937;36267.688
647.304;37089.453;  -12.547;36647.625
647.882;38242.496;  -12.597;39286.742
648.461;36711.234;   -9.427;39157.703
649.039;33954.953;   -8.937;35412.883
649.617;31078.969;  -11.067;34744.918
650.195;31534.217;  -10.657;35403.098
650.773;32270.498;  -10.097;35053.797
651.352;30768.305;  -11.887;33756.816
651.930;26431.807;  -13.557;31868.773
652.508;22751.973;  -11.767;33121.551
653.086;23952.822;  -10.777;33564.793
653.663;27912.301;  -12.067;34054.668
654.241;30496.301;  -14.918;35693.309
654.819;31876.822;  -11.788;36422.906
655.397;30712.893;  -11.268;38213.484
655.975;31940.412;  -11.738;39507.625
656.553;31298.906;  -11.018;39498.223
657.130;29936.334;  -12.848;40395.480
657.708;28972.172;  -10.098;39242.020
658.286;28677.645;  -11.678;38920.020
658.863;31149.238;  -11.498;40202.898
659.441;35281.516;  -11.008;39677.938
660.018;36941.633;  -11.048;40413.355
660.596;36956.223;  -12.058;39931.414
661.173;35993.719;  -14.158;39604.531
661.750;35277.648;  -12.298;39700.070
662.328;33984.262;  -10.699;39292.809
662.905;31858.416;  -12.119;38235.648
663.482;26921.256;  -11.829;36212.305
664.060;25710.258;  -11.009;35944.945
664.637;28365.156;  -10.369;35170.785
665.214;28878.230;  -10.459;34197.523
665.791;27854.086;  -12.599;34549.520
666.368;27466.316;  -12.919;35118.578
666.945;28909.170;  -10.699;36019.418
667.522;30176.070;  -11.359;36048.438
668.099;30490.857;  -13.529;36243.914
668.676;31465.539;  -10.229;35958.875
669.253;32564.359;   -9.279;37384.730
669.830;31513.969;  -11.370;36779.629
670.407;30230.424;  -10.950;35231.289
670.984;30882.131;  -12.850;35544.270
671.560;30282.564;   -8.440;35466.867
672.137;29254.213;  -13.520;34280.863
672.714;28873.832;  -13.620;34632.863
673.290;30118.980;  -10.450;35135.422
673.867;30065.926;  -10.960;36114.480
674.443;29072.691;  -13.300;36152.859
675.020;29715.674;  -12.370;35327.238
675.596;30130.121;  -11.250;35795.176
676.173;30374.711;  -11.080;35430.355
676.749;30458.033;  -13.220;33549.516
677.326;32327.227;  -13.000;32210.012
677.902;34388.152;  -12.701;32068.871
678.478;35369.848;  -12.801;32583.891
679.054;35471.547;   -8.601;32088.928
679.631;35041.770;  -12.631;30978.848
680.207;33910.449;   -9.451;33160.887
680.783;32745.146;  -11.701;35570.363
681.359;32207.543;  -12.701;36125.184
681.935;31833.146;  -13.271;35240.922
682.511;31177.148;  -10.791;34429.961
683.087;31733.695;  -10.791;34463.680
683.663;32403.068;   -8.121;34648.898
684.239;33730.926;  -13.261;34546.457
684.815;33647.852;  -10.581;35586.375
685.390;30919.877;   -9.961;35821.895
685.966;29928.012;  -11.182;35085.871
686.542;28988.658;  -13.512;34198.230
687.118;28250.521;  -11.472;32847.707
687.693;27919.291;  -10.152;32794.027
688.269;28344.131;  -14.442;33072.367
688.844;30443.371;  -11.852;33141.664
689.420;29865.484;  -13.942;33965.742
689.995;29103.967;   -9.702;34655.523
690.571;28406.463;  -11.312;33576.742
691.146;27645.631;  -14.332;32657.219
691.722;28000.584;  -11.192;32526.979
692.297;30633.223;  -10.962;33014.617
692.872;30610.582;  -11.082;34012.254
693.448;29301.479;  -14.732;34237.434
694.023;29180.721;  -12.363;34142.672
694.598;29357.604;  -12.393;34132.031
695.173;28144.086;  -11.023;34205.250
695.748;27375.600;  -12.743;32882.488
696.323;28793.873;  -11.103;32864.906
696.898;29418.115;   -8.123;33170.004
697.473;28424.932;  -12.603;32432.984
698.048;28537.572;  -12.553;31649.303
698.623;30488.529;  -12.573;30778.141
699.198;34271.137;  -12.743;31140.119
699.773;32828.055;  -12.843;31764.299
700.348;31227.436;  -16.683;31780.816
700.922;31357.943;  -11.403;32046.375
701.497;31278.377;  -11.253;32603.574
702.072;31310.963;  -10.044;34799.871
702.646;31932.777;  -13.054;35793.172
703.221;31394.191;  -11.414;35201.590
703.795;31353.078;  -10.644;34764.527
704.370;32432.891;  -13.484;34307.367
704.944;32864.629;  -12.144;33509.887
705.519;32362.797;  -12.024;31388.584
706.093;31276.285;  -11.234;31340.104
706.668;29109.486;   -9.874;32630.281
707.242;27822.205;  -12.404;32728.779
707.816;28416.328;  -10.644;32947.238
708.390;27851.166;  -11.174;33277.855
708.965;27226.578;  -10.324;33834.336
709.539;27255.145;  -12.014;33709.273
710.113;27861.477;  -12.295;33044.313
710.687;28621.158;  -10.965;31953.992
711.261;29932.115;  -13.685;30505.949
711.835;30066.576;  -15.335;30262.369
712.409;29603.230;  -13.785;31254.447
712.983;29190.988;  -10.525;32754.986
713.557;29588.092;  -13.175;34018.824
714.131;30493.848;  -13.245;34579.625
714.704;32615.516;  -13.175;33890.262
715.278;35275.277;  -11.545;33531.102
715.852;35349.445;  -10.975;33601.660
716.425;33646.297;  -10.075;33515.117
716.999;32263.711;  -12.185;33185.555
717.573;32167.703;   -9.685;33905.996
718.146;34177.465;  -10.516;35199.293
718.720;32153.697;  -12.106;35060.551
719.293;30159.961;  -12.386;34973.230
719.867;33072.777;  -12.456;36394.449
720.440;33830.016;  -10.686;36663.008
721.013;34375.063;  -12.596;35102.426
721.587;34357.703;  -13.956;33985.266
722.160;34179.621;   -9.806;33524.965
722.733;34328.781;  -11.676;32987.043
723.306;33480.711;  -14.276;33066.301
723.880;32833.738;  -12.126;33399.500
724.453;34241.258;  -10.156;33468.297
725.026;33167.359;  -12.956;33816.637
725.599;30721.096;  -11.676;32797.996
726.172;28850.969;  -12.337;33187.434
726.745;28801.271;  -11.277;35136.613
727.318;28711.846;  -11.927;35751.730
727.891;27983.094;  -13.607;35890.430
728.463;28198.729;  -11.327;34822.090
729.036;26993.203;  -11.917;32895.086
729.609;25847.770;  -12.697;31823.225
730.182;26660.553;  -11.787;31445.283
730.754;27954.793;  -12.957;32373.223
731.327;28860.516;  -11.017;33676.820
731.900;27782.229;  -12.797;33417.000
732.472;26141.924;  -10.677;31978.498
733.045;25234.986;  -12.797;30368.777
733.617;25936.764;  -13.908;30574.215
734.190;25843.850;  -12.258;31280.975
734.762;26277.953;  -13.438;31674.412
735.334;26620.217;  -11.758;31247.291
735.907;26375.906;  -11.158;29876.211
736.479;28074.416;  -11.258;29808.488
737.051;31243.148;  -10.918;30233.547
737.623;32947.781;  -11.038;31469.086
738.195;33321.516;  -12.188;31784.225
738.768;29620.357;  -11.378;32120.523
739.340;27804.539;  -12.598;32094.342
739.912;29856.916;  -11.568;31312.680
740.484;31170.273;   -9.348;31946.238
741.056;30037.209;  -12.628;32984.059
741.628;29215.592;  -13.349;33897.715
742.199;29675.406;  -11.309;33213.016
742.771;28518.223;  -12.699;31369.113
743.343;28388.455;  -11.919;31865.473
743.915;28149.654;  -11.679;32388.631
744.487;27530.365;  -12.249;31079.568
745.058;26384.852;  -11.119;30570.107
745.630;25082.756;   -9.439;29970.127
746.201;26008.578;  -11.949;29186.766
746.773;27334.865;  -12.639;28805.723
747.344;27348.895;  -11.039;29591.223
747.916;26433.430;  -12.549;31412.201
748.487;25413.158;  -12.659;32194.898
749.059;23766.971;  -13.059;32533.719
749.630;24704.992;  -12.080;32158.518
750.201;25661.182;  -13.100;30855.395
750.773;25671.021;  -15.310;28622.555
751.344;24732.203;  -12.240;28405.732
751.915;23229.105;  -11.960;28461.551
752.486;21663.996;  -13.200;27842.850
753.057;21314.748;  -15.230;27845.008
753.628;22214.469;  -13.130;27728.107
754.199;22900.516;  -12.720;27381.086
754.770;22510.193;  -10.680;25882.203
755.341;22283.375;  -11.010;25886.184
755.912;21685.953;  -12.990;26050.861
756.483;20188.164;  -11.110;26798.779
757.054;19714.889;  -12.190;27048.238
757.625;20714.498;  -13.981;26294.838
758.195;20633.270;  -11.041;26142.076
758.766;21085.207;  -11.861;26392.234
759.337;21382.971;  -11.461;26334.594
759.907;22104.648;  -15.001;27579.652
760.478;21945.127;   -9.681;28352.770
761.048;21252.826;  -12.421;27325.088
761.619;21231.268;  -11.761;26460.428
762.189;19988.514;  -12.391;26029.826
762.760;18724.246;  -10.201;26430.145
763.330;18212.225;  -10.811;26670.902
763.900;20274.889;  -10.261;26603.021
764.471;22090.457;  -13.061;25542.740
765.041;20572.199;  -11.051;24358.459
765.611;19725.943;  -11.032;23991.297
766.181;18959.123;  -10.532;24470.236
766.751;18496.313;  -13.502;24845.975
767.321;18440.064;  -11.392;24533.633
767.891;18433.949;  -11.522;24916.492
768.461;18709.986;  -13.672;24776.771
769.031;18653.377;  -14.652;24757.988
769.601;18463.240;  -10.182;24181.088
770.171;17830.688;  -11.752;23670.387
770.741;15862.447;  -12.272;22960.045
771.311;14324.637;  -13.112;22917.523
771.880;14342.120;  -14.122;23562.941
772.450;15129.048;  -11.782;24216.500
773.020;17361.191;  -12.642;24140.398
773.589;18256.670;  -13.043;24414.857
774.159;16555.379;  -11.783;23858.717
774.729;15166.509;  -13.473;22942.135
775.298;15408.334;  -14.523;22324.033
775.867;16264.311;  -12.013;21140.313
776.437;15981.550;  -12.113;20838.092
777.006;14983.602;  -13.543;20599.510
777.576;13980.348;  -12.523;20508.809
778.145;12931.071;  -12.173;20732.947
778.714;12947.995;  -12.153;21062.465
779.283;12958.293;  -11.833;20949.664
779.853;13771.522;  -13.483;20508.623
780.422;14735.830;  -12.933;20649.082
780.991;14473.355;  -13.173;21527.520
781.560;12831.406;  -10.224;22632.658
782.129;11920.544;  -12.684;23048.277
782.698;12884.493;  -11.284;23438.555
783.267;13937.498;  -11.684;23267.734
783.836;13604.207;  -10.974;22415.133
784.404;12358.438;  -13.534;20443.152
784.973;12083.276;  -16.734;19699.150
785.542;12290.595;  -12.594;19763.828
786.111;12012.254;  -11.644;20341.408
786.679;11808.290;  -11.384;20207.967
787.248;12106.052;  -12.014;19516.465
787.817;11184.815;  -12.804;18900.363
788.385;10157.330;  -11.994;17879.121
788.954;10424.985;  -12.564;17658.301
789.522;11825.303;  -12.225;17788.879
790.090;12157.152;  -13.775;18118.277
790.659;11425.134;  -12.485;18338.736
791.227;10765.107;  -12.295;18508.615
791.795;10673.522;  -13.415;17898.254
792.364;10248.794;  -12.995;17295.133
792.932;10084.445;   -8.365;16822.051
793.500;10258.136;  -11.925;17040.148
794.068;10555.616;  -13.245;17179.787
794.636;10708.396;  -13.815;16664.246
795.204;10043.624;  -13.375;16524.545
795.772; 9619.835;  -12.125;17274.564
796.340; 9737.275;  -13.855;17891.002
796.908;10052.463;  -13.456;17648.561
797.476; 9702.954;  -13.116;17064.080
798.044; 8918.044;  -13.226;16672.777
798.612; 8978.962;  -11.236;17023.996
799.180; 9935.217;  -10.476;16561.615
799.747;10041.336;  -11.746;15962.773
800.315; 9133.502;  -12.366;15296.992
800.883; 8279.975;  -14.616;14801.771
801.450; 8080.151;  -11.996;14534.430
802.018; 8887.678;  -11.206;14173.248
802.585; 8885.070;  -12.466;14029.547
803.153; 8168.128;  -12.846;13836.846
803.720; 7848.191;  -12.136;13567.324
804.287; 7669.047;  -10.966;13360.622
804.855; 7694.496;   -9.797;13681.981
805.422; 7611.835;  -13.037;13536.560
805.989; 7447.416;  -12.697;13355.958
806.556; 7489.411;  -11.737;13747.896
807.124; 7791.041;  -11.997;13987.376
807.691; 7489.310;  -13.997;14038.674
808.258; 7223.006;  -10.927;14120.152
808.825; 7524.779;  -13.727;13860.111
809.392; 7886.491;  -11.847;13268.790
809.959; 7576.067;  -14.217;12680.389
810.526; 6934.820;   -8.277;12427.308
811.093; 6506.742;   -9.647;12030.105
811.659; 6267.437;  -10.987;11653.664
812.226; 6023.801;  -13.447;11637.183
812.793; 6222.068;  -14.418;11611.521
813.360; 6681.690;  -13.908;11885.181
813.926; 6878.633;  -12.918;12770.539
814.493; 6707.435;  -14.888;12677.638
815.060; 6748.916;  -12.758;11974.336
815.626; 7073.682;  -13.478;11594.715
816.193; 7250.696;  -13.898;11579.474
816.759; 7079.472;  -13.588;11666.972
817.325; 7029.124;  -12.018;11325.530
817.892; 6847.559;  -14.068;11105.369
818.458; 6154.279;  -13.458;10843.928
819.024; 5850.582;  -11.968;10714.406
819.591; 5577.833;  -11.028;10469.165
820.157; 5242.814;  -12.088;10235.523
820.723; 5250.359;  -12.599;10847.563
821.289; 5452.292;  -10.419;11040.980
821.855; 5948.188;  -10.939;10357.100
822.421; 6538.979;  -12.539; 9978.918
822.987; 6598.927;  -13.259; 9754.177
823.553; 6148.992;  -15.369;10065.755
824.119; 6006.896;  -10.779;10036.294
824.685; 5806.542;   -9.999;10029.192
825.251; 5497.542;  -11.819;10199.230
825.816; 5238.635;  -13.369; 9820.189
826.382; 5254.579;  -12.679; 9297.248
826.948; 5506.722;  -11.199; 9381.347
827.513; 5555.563;  -11.179; 9450.726
828.079; 5409.742;  -13.489; 9472.444
828.645; 5500.813;  -12.500; 9292.643
829.210; 5810.570;  -15.120; 9065.341
829.776; 5900.280;  -12.590; 9132.620
830.341; 5839.558;  -11.540; 9092.878
830.906; 5786.253;  -12.400; 9078.557
831.472; 5742.097;  -12.720; 8534.535
832.037; 5468.044;  -11.490; 8677.874
832.602; 5013.766;  -14.380; 8628.692
833.167; 4996.692;  -12.780; 8879.031
833.733; 5108.268;  -11.100; 9189.790
834.298; 5272.854;  -12.080; 9052.608
834.863; 5505.348;  -13.910; 8895.087
835.428; 5443.156;  -13.470; 8824.266
835.993; 5605.053;  -11.760; 8845.385
836.558; 5847.408;  -12.731; 8888.563
837.123; 6006.447;  -12.431; 8966.582
837.688; 5871.684;  -11.241; 8617.860
838.253; 5637.666;  -13.681; 8590.699
838.817; 5280.396;  -12.531; 8443.797
839.382; 5164.079;  -12.671; 8799.356
839.947; 5173.800;  -11.541; 8810.595
840.511; 4988.837;  -12.021; 8796.394
841.076; 4868.064;  -13.071; 8347.231
841.641; 4872.908;  -11.411; 8224.330
842.205; 4649.813;  -13.671; 8223.349
842.770; 4420.140;  -11.291; 8622.107
843.334; 4491.792;  -12.951; 8410.386
843.898; 4617.568;  -11.221; 8337.465
844.463; 4589.518;  -11.322; 8506.283
845.027; 4479.385;  -11.412; 8280.962
845.591; 4324.956;  -11.512; 8231.141
846.156; 4534.034;  -14.042; 7969.179
846.720; 4825.426;  -12.152; 7768.278
847.284; 4740.510;  -10.922; 7630.957
847.848; 4349.057;  -10.962; 7472.395
848.412; 3868.138;  -14.612; 7437.394
848.976; 3685.951;  -11.492; 7674.592
849.540; 3662.549;   -9.172; 7836.011
850.104; 3785.145;  -11.232; 7913.669
850.668; 4223.529;  -15.182; 7694.508
851.232; 4161.670;  -15.332; 7756.887
851.796; 3728.290;  -13.703; 7926.545
852.359; 3677.110;  -11.113; 7827.844
852.923; 3822.917;  -11.843; 7641.163
853.487; 3880.898;  -11.173; 7342.501
854.050; 3796.364;  -13.443; 7042.820
854.614; 3533.833;  -13.823; 7151.338
855.177; 3321.514;  -16.393; 7105.077
855.741; 3371.767;  -11.693; 6989.675
856.304; 3462.763;  -10.843; 6596.634
856.868; 3432.421;  -13.783; 6356.272
857.431; 3290.853;  -11.953; 6468.571
857.995; 3181.540;  -13.683; 6373.210
858.558; 3206.142;  -11.433; 6324.448
859.121; 3207.710;  -12.493; 6408.327
859.684; 3125.535;  -12.384; 6347.886
860.247; 3015.566;  -14.774; 6321.264
860.810; 2878.889;  -13.154; 6301.903
861.374; 2777.056;  -11.264; 6607.881
861.937; 2757.234;  -15.424; 6408.200
862.500; 2777.315;  -12.854; 6572.639
863.062; 2772.076;  -12.344; 6387.297
863.625; 2743.326;  -13.314; 6190.836
864.188; 2598.612;  -14.724; 5807.254
864.751; 2484.091;  -13.464; 5682.413
865.314; 2442.989;  -11.684; 5547.492
865.876; 2468.232;  -11.104; 5500.150
866.439; 2602.378;  -12.344; 5415.909
867.002; 2613.811;  -13.494; 5501.567
867.564; 2613.980;  -10.935; 5413.946
868.127; 2559.802;  -12.665; 5160.325
868.689; 2419.245;  -14.515; 5133.183
869.252; 2402.870;  -13.425; 5252.382
869.814; 2384.280;  -11.595; 5297.141
870.377; 2355.497;  -12.175; 5390.919
870.939; 2241.355;  -10.265; 5599.898
871.501; 2138.144;  -12.375; 5248.336
872.063; 2123.172;  -14.355; 4854.235
872.626; 2172.923;  -14.435; 4817.074
873.188; 2106.878;  -12.415; 4987.732
873.750; 2063.747;  -14.555; 4868.651
874.312; 2062.848;  -11.185; 4779.330
874.874; 2013.420;  -12.715; 4866.348
875.436; 1908.087;  -13.196; 4718.887
875.998; 1869.651;  -11.426; 4660.005
876.560; 1833.054;   -9.786; 4462.964
877.122; 1829.563;  -12.796; 4145.042
877.683; 1787.395;  -13.226; 4056.481
878.245; 1713.042;  -12.036; 3950.740
878.807; 1631.532;  -11.536; 4058.958
879.369; 1564.539;  -10.806; 3954.677
879.930; 1612.706;  -13.946; 3941.495
880.492; 1743.747;  -11.876; 4067.014
881.053; 1723.671;  -13.216; 3859.633
881.615; 1631.583;  -12.226; 3776.071
882.176; 1610.532;  -12.946; 3734.750
882.738; 1605.934;  -10.736; 3678.489
883.299; 1532.161;  -12.057; 3405.407
883.860; 1405.139;  -12.677; 3351.106
884.422; 1311.164;  -14.097; 3394.044
884.983; 1241.329;  -13.667; 3166.443
885.544; 1177.448;  -10.717; 3189.802
886.105; 1135.903;  -14.357; 3160.360
886.666; 1114.303;  -14.287; 3093.059
887.227; 1080.454;  -14.297; 2941.957
887.788; 1037.771;  -13.137; 2974.836
888.349;  966.944;  -14.637; 2721.214
888.910;  904.679;  -12.247; 2696.493
889.471;  906.328;  -10.577; 2560.172
890.032;  905.622;  -12.937; 2558.190
890.593;  883.762;  -12.487; 2567.669
891.153;  863.766;  -11.898; 2460.307
891.714;  820.109;  -14.278; 2372.046
892.275;  788.419;  -13.308; 2309.505
892.835;  750.934;  -12.058; 2382.543
893.396;  674.824;  -15.268; 2295.502
893.956;  618.043;  -13.278; 2162.420
894.517;  593.193;  -11.968; 2125.439
895.077;  596.855;  -12.798; 2086.978
895.638;  585.954;  -11.908; 2126.316
896.198;  573.692;  -13.288; 1838.275
896.758;  550.293;  -12.198; 1892.813
897.319;  522.365;  -13.048; 1792.232
897.879;  496.893;  -13.718; 1762.751
898.439;  461.389;  -14.138; 1661.149
898.999;  420.532;  -13.659; 1781.468
899.559;  392.176;  -14.699; 1703.347
900.119;  368.847;  -14.339; 1537.525
900.679;  340.488;  -11.789; 1638.384
901.239;  312.584;  -13.629; 1527.902
901.799;  293.683;  -13.679; 1456.441
902.359;  282.132;  -13.679; 1357.140
902.919;  273.981;  -14.159; 1331.118
903.479;  263.099;  -13.419; 1317.257
904.038;  246.918;  -14.899; 1262.595
904.598;  232.234;  -14.339; 1152.034
905.158;  222.888;  -13.959; 1240.893
905.717;  218.933;  -12.749; 1233.691
906.277;  215.442;  -11.889; 1217.330
906.836;  210.053;  -12.870; 1222.408
907.396;  203.467;  -11.790; 1193.047
907.955;  195.992;  -13.750; 1182.526
908.515;  186.902;  -14.760; 1099.364
909.074;  180.197;  -12.540; 1092.863
909.633;  175.471;  -12.120; 1069.121
910.192;  170.815;  -12.550; 1196.460
910.752;  165.457;  -12.760; 1029.960
911.311;  161.834;  -14.750; 1009.780
911.870;  158.594;  -13.860;  971.460
912.429;  157.511;  -13.480; 1094.080
912.988;  157.014;  -12.370; 1081.060
913.547;  153.345;  -14.670;  940.380
914.106;  152.574;  -12.800;  999.420
914.665;  152.671;  -11.370;  984.020
915.224;  149.168;  -11.430; 1035.760
915.782;  147.125;  -12.260;  922.560
916.341;  145.277;  -12.540; 1049.840
916.900;  141.777;  -12.540;  925.260
917.458;  139.378;  -13.480;  884.220
918.017;  139.703;  -12.470;  942.600
918.576;  139.323;  -13.450;  904.440
919.134;  138.376;  -12.890;  837.980
919.693;  137.367;  -15.480;  893.060
920.251;  136.603;  -14.420;  876.500
920.809;  135.777;  -12.170;  839.580
921.368;  135.199;  -13.650;  885.360
921.926;  135.879;  -12.750;  842.940
922.484;  135.670;  -14.150;  903.360
923.042;  134.692;  -15.100;  880.340
923.601;  135.743;  -10.990;  998.680
924.159;  133.366;  -12.470;  935.560
924.717;  132.891;  -15.640;  841.080
925.275;  134.097;  -12.380;  903.240
925.833;  133.372;  -12.710;  779.320
926.391;  135.220;  -11.200;  938.380
926.949;  135.726;  -16.000;  857.680
927.506;  136.436;  -12.260;  903.500
928.064;  137.858;  -11.300;  877.580
928.622;  137.751;  -13.750;  880.100
929.180;  138.896;  -15.290;  814.180
929.737;  139.732;  -14.500;  808.540
930.295;  142.459;  -10.630;  928.480
930.853;  143.039;  -14.590;  849.100
931.410;  144.075;  -14.450;  821.120
931.968;  145.755;  -14.390;  940.660
932.525;  147.877;  -13.050;  909.380
933.082;  149.352;  -15.620;  811.440
933.640;  155.791;  -15.650;  925.900
934.197;  160.527;  -13.610;  886.360
934.754;  164.830;  -13.320;  897.780
935.312;  164.632;  -13.370;  863.340
935.869;  166.751;  -12.780; 1012.980
936.426;  165.395;  -14.480;  872.800
936.983;  167.410;  -13.180;  889.020
937.540;  168.231;  -15.710;  838.280
938.097;  169.449;  -14.980;  940.120
938.654;  167.480;  -13.060;  898.860
939.211;  165.090;  -12.760;  952.480
939.768;  166.577;  -16.230;  915.420
940.324;  172.623;  -10.940;  904.200
940.881;  178.882;  -12.570;  878.500
941.438;  183.025;  -13.650; 1021.200
941.995;  180.639;  -13.300;  992.560
942.551;  180.047;  -15.800;  875.620
943.108;  177.532;  -14.180;  937.920
943.664;  172.488;  -13.890;  869.340
944.221;  173.027;  -12.640; 1088.140
944.777;  169.639;  -14.700;  869.680
945.334;  169.774;  -13.010;  884.840
945.890;  170.509;  -13.480;  946.480
946.446;  168.361;  -14.920;  947.020
947.003;  168.505;  -13.860;  964.940
947.559;  170.534;  -12.000; 1063.040
948.115;  171.947;  -10.510; 1026.540
948.671;  167.580;  -12.760;  967.300
949.227;  162.627;  -15.390;  859.560
949.783;  159.215;  -15.570;  858.900
950.339;  160.575;  -12.800;  991.000
950.895;  159.065;  -13.780; 1023.840
951.451;  155.978;  -13.810;  925.280
952.007;  156.537;  -12.390;  998.540
952.563;  154.794;  -11.980;  937.780
953.118;  150.809;  -14.070;  904.940
953.674;  148.351;  -14.140;  935.780
954.230;  147.481;  -12.680;  949.640
954.785;  148.798;  -12.770;  936.640
955.341;  148.518;  -11.450;  998.160
955.897;  145.118;  -15.350;  834.660
956.452;  144.735;  -14.200;  953.840
957.008;  143.700;  -10.820; 1083.640
957.563;  139.527;  -13.200; 1009.540
958.118;  133.449;  -14.460;  877.700
958.674;  132.647;  -13.840;  946.780
959.229;  133.462;  -10.670; 1013.980
959.784;  134.282;  -17.040;  832.400
960.339;  137.761;  -12.970; 1001.280
960.894;  136.198;  -12.700;  963.760
961.449;  134.292;  -13.790;  859.960
962.004;  139.115;  -11.760; 1212.840
962.559;  137.370;  -14.840;  860.140
963.114;  136.451;  -14.530;  742.480
963.669;  140.738;  -12.780;  915.500
964.224;  140.983;  -14.330;  874.340
964.779;  139.716;  -14.380;  828.420
965.334;  134.758;  -12.460; 1017.860
965.888;  128.957;  -13.490;  875.360
966.443;  127.890;  -14.140;  972.380
966.998;  123.224;  -16.240;  819.460
967.552;  121.940;  -12.730;  908.380
968.107;  118.504;  -14.510;  868.300
968.661;  120.440;  -11.850;  922.440
969.216;  118.821;  -14.370;  856.280
969.770;  117.944;  -13.010;  917.200
970.324;  118.759;  -12.460;  923.140
970.879;  119.004;  -11.580;  947.180
971.433;  118.294;  -13.130;  952.720
971.987;  115.924;  -12.360;  895.340
972.541;  115.007;  -14.330;  917.100
973.095;  114.323;  -13.310; 1009.460
973.649;  112.503;  -15.830;  809.480
974.203;  113.943;  -15.830;  829.040
974.757;  117.647;  -13.480;  855.220
975.311;  116.846;  -13.720;  872.600
975.865;  113.358;  -15.780;  881.820
976.419;  110.572;  -14.290;  857.400
976.973;  108.260;  -13.210;  849.620
977.526;  106.243;  -12.300;  949.920
978.080;  103.557;  -14.840;  796.780
978.634;  104.931;  -13.100;  921.320
979.187;  101.389;  -12.300;  905.400
979.741;   99.974;  -12.020; 1018.380
980.294;   93.995;  -14.590;  789.160
980.848;   90.707;  -14.390;  717.220
981.401;   89.888;  -14.280;  816.540
981.955;   89.835;  -11.920;  844.300
982.508;   87.518;  -15.790;  746.340
983.061;   88.258;  -12.070;  915.260
983.615;   85.477;  -13.260;  798.800
984.168;   81.954;  -15.540;  770.080
984.721;   82.290;  -13.230;  880.760
985.274;   80.458;  -11.820;  867.500
985.827;   78.476;  -13.510;  834.220
986.380;   75.899;  -14.840;  721.340
986.933;   76.471;  -13.970;  864.800
987.486;   76.068;  -12.450;  861.920
988.039;   74.058;  -11.170;  863.100
988.591;   71.840;  -13.070;  893.260
989.144;   68.857;  -15.530;  737.260
989.697;   67.228;  -14.300;  758.740
990.250;   67.256;  -13.310;  858.100
990.802;   66.284;  -14.490;  755.860
991.355;   67.327;  -12.980;  974.880
991.907;   65.484;  -13.715;  864.320
992.460;   63.641;  -14.450;  753.760
993.012;   62.301;  -12.590;  749.540
993.565;   61.485;  -15.180;  711.360
994.117;   63.533;  -11.630;  950.780
994.669;   58.664;  -13.760;  701.320
995.221;   58.257;  -12.710;  791.920
995.774;   58.503;  -14.620;  787.580
996.326;   56.119;  -13.150;  740.220
996.878;   56.757;  -12.880;  838.420
997.430;   55.342;  -14.580;  699.860
997.982;   54.501;  -14.030;  750.140
998.534;   54.714;  -12.190;  739.060
999.086;   52.576;  -12.990;  738.220
999.638;   51.815;  -13.180;  661.380
1000.190;   52.142;  -14.970;  699.320
1000.741;   51.982;  -12.200;  742.700
1001.293;   51.042;  -13.400;  686.020
1001.845;   50.483;  -14.490;  676.640
1002.396;   51.465;  -15.280;  743.400
1002.948;   51.262;  -12.380;  737.400
1003.500;   49.608;  -13.260;  723.780
1004.051;   50.131;  -13.730;  907.580
1004.603;   49.194;  -12.300;  791.820
1005.154;   45.221;  -15.330;  608.980
1005.705;   43.978;  -12.800;  723.960
1006.257;   44.039;  -13.900;  707.220
1006.808;   42.818;  -14.430;  685.460
1007.359;   42.485;  -12.010;  763.240
1007.910;   40.725;  -12.690;  646.640
1008.461;   40.850;  -13.610;  732.940
1009.013;   39.577;  -14.990;  588.340
1009.564;   40.908;  -11.860;  793.520
1010.115;   37.857;  -12.640;  597.040
1010.665;   37.690;  -14.570;  602.160
1011.216;   38.337;  -15.190;  667.920
1011.767;   38.363;  -13.470;  697.920
1012.318;   38.823;  -13.760;  736.980
1012.869;   37.151;  -15.950;  679.000
1013.419;   36.712;  -15.880;  603.120
1013.970;   37.052;  -14.540;  666.640
1014.521;   36.464;  -13.220;  620.620
1015.071;   36.815;  -15.020;  670.380
1015.622;   35.920;  -17.510;  635.460
1016.172;   36.117;  -14.130;  596.820
1016.723;   35.413;  -14.220;  614.380
1017.273;   35.188;  -15.370;  604.160
1017.823;   35.738;  -15.290;  650.340
1018.374;   34.952;  -13.420;  611.760
1018.924;   34.782;  -11.740;  716.880
1019.474;   34.800;  -12.250;  718.880
1020.024;   33.643;  -15.850;  657.580
1020.574;   33.865;  -13.280;  726.160
1021.124;   33.771;  -13.560;  673.580
1021.674;   32.312;  -13.790;  559.120
1022.224;   34.394;  -14.610;  708.940
1022.774;   32.886;  -13.100;  668.820
1023.324;   33.620;  -11.470;  753.520
1023.874;   35.079;  -11.990;  875.760
1024.423;   31.512;  -14.550;  613.700
1024.973;   31.979;  -14.440;  610.760
1025.523;   31.354;  -13.250;  620.960
1026.072;   30.944;  -15.200;  606.420
1026.622;   30.918;  -14.590;  675.740
1027.172;   31.990;  -11.080;  715.660
1027.721;   30.521;  -14.010;  601.220
1028.270;   30.828;  -13.690;  663.400
1028.820;   30.819;  -15.380;  638.080
1029.369;   29.789;  -14.980;  612.700
1029.918;   30.482;  -13.100;  649.840
1030.468;   28.998;  -13.680;  564.780
1031.017;   29.669;  -13.770;  634.800
1031.566;   28.879;  -14.100;  608.900
1032.115;   29.686;  -11.770;  694.500
1032.664;   27.874;  -14.940;  596.480
1033.213;   30.272;  -13.370;  735.420
1033.762;   28.446;  -13.660;  635.620
1034.311;   28.140;  -13.650;  677.220
1034.860;   28.016;  -13.820;  691.000
1035.408;   28.819;  -12.860;  722.720
1035.957;   28.428;  -13.060;  719.540
1036.506;   27.001;  -14.510;  530.800
1037.055;   29.622;  -13.470;  844.320
1037.603;   27.800;  -14.800;  664.000
1038.152;   25.841;  -14.190;  534.760
1038.700;   26.208;  -11.810;  585.740
1039.249;   26.517;  -12.850;  681.220
1039.797;   26.756;  -14.610;  633.360
1040.345;   26.687;  -15.220;  705.420
1040.894;   25.924;  -13.480;  625.300
1041.442;   24.985;  -13.310;  632.200
1041.990;   25.059;  -14.510;  559.160
1042.538;   23.814;  -15.700;  536.180
1043.087;   24.603;  -13.910;  570.860
1043.635;   25.650;  -13.620;  670.500
1044.183;   25.011;  -14.230;  586.400
1044.731;   24.894;  -13.730;  576.000
1045.279;   24.432;  -13.970;  674.920
1045.827;   27.389;  -10.750;  892.400
1046.374;   23.227;  -15.230;  515.420
1046.922;   23.013;  -15.390;  590.580
1047.470;   24.480;  -12.320;  691.300
1048.018;   23.831;  -13.230;  647.960
1048.565;   24.452;  -13.390;  708.600
1049.113;   22.868;  -15.030;  557.000
1049.660;   23.047;  -12.540;  629.660
1050.208;   23.429;  -15.040;  675.640
1050.755;   22.889;  -14.680;  606.580
1051.303;   22.844;  -13.610;  686.820
1051.850;   22.540;  -14.340;  635.120
1052.397;   19.588;  -16.330;  473.960
1052.945;   21.952;  -15.710;  617.760
1053.492;   23.668;  -12.320;  741.840
1054.039;   22.589;  -13.730;  720.180
1054.586;   21.409;  -16.140;  557.240
1055.133;   22.021;  -14.020;  693.140
1055.680;   22.898;  -13.430;  646.620
1056.227;   21.072;  -14.570;  542.780
1056.774;   23.108;  -14.400;  794.980
1057.321;   20.709;  -14.230;  523.260
1057.868;   20.947;  -14.220;  651.320
1058.415;   21.612;  -14.060;  651.980
1058.961;   20.114;  -14.640;  678.940
1059.508;   20.686;  -13.970;  643.820
1060.055;   20.179;  -15.100;  581.780
1060.601;   20.476;  -12.180;  624.300
1061.148;   19.461;  -15.010;  616.820
1061.694;   19.265;  -14.750;  592.580
1062.241;   20.082;  -14.130;  596.320
1062.787;   19.282;  -14.770;  663.140
1063.334;   21.946;  -13.130;  808.560
1063.880;   19.638;  -14.420;  668.360
1064.426;   19.814;  -13.130;  706.820
1064.972;   18.927;  -13.960;  601.340
1065.518;   17.363;  -13.680;  566.640
1066.065;   18.854;  -15.720;  624.460
1066.611;   17.318;  -13.970;  598.800
1067.157;   17.906;  -13.920;  641.860
1067.703;   18.322;  -14.760;  668.480
1068.249;   18.498;  -14.490;  605.220
1068.794;   18.678;  -14.740;  626.880
1069.340;   16.566;  -13.220;  578.960
1069.886;   17.704;  -14.930;  590.700
1070.432;   17.373;  -14.700;  541.720
1070.977;   16.670;  -14.470;  601.080
1071.523;   16.622;  -14.330;  573.060
1072.068;   17.128;  -14.960;  582.000
1072.614;   16.343;  -16.220;  527.760
1073.160;   17.556;  -11.280;  687.040
1073.705;   15.497;  -15.990;  572.520
1074.250;   15.977;  -16.550;  559.900
1074.796;   17.180;  -14.600;  655.160
1075.341;   17.150;  -13.440;  664.100
1075.886;   15.873;  -14.450;  594.240
1076.431;   16.453;  -13.160;  649.880
1076.976;   16.148;  -14.710;  639.220
1077.521;   15.888;  -14.000;  583.080
1078.067;   14.207;  -14.470;  579.400
1078.612;   15.526;  -14.530;  661.620
1079.156;   15.544;  -15.660;  601.540
1079.701;   15.877;  -16.120;  693.260
1080.246;   15.517;  -12.960;  696.300
1080.791;   15.935;  -13.700;  625.020
1081.336;   15.279;  -15.540;  659.320
1081.880;   15.587;  -14.640;  649.680
1082.425;   14.482;  -14.220;  573.480
1082.970;   15.735;  -11.890;  717.040
1083.514;   15.175;  -13.820;  597.000
1084.059;   13.582;  -14.280;  586.720
1084.603;   13.174;  -12.890;  565.840
1085.147;   13.775;  -13.590;  645.220
1085.692;   15.368;  -14.050;  716.800
1086.236;   13.011;  -14.990;  503.140
1086.780;   15.665;  -12.640;  751.440
1087.325;   14.714;  -15.550;  654.620
1087.869;   13.899;  -14.980;  610.700
1088.413;   13.928;  -13.440;  705.040
1088.957;   12.699;  -12.170;  543.400
1089.501;   14.804;  -12.730;  766.640
1090.045;   14.181;  -14.650;  726.480
1090.589;   11.465;  -14.500;  569.920
1091.133;   12.937;  -12.320;  673.340
1091.676;   12.773;  -16.130;  591.940
1092.220;   12.584;  -13.930;  600.920
1092.764;   13.312;  -12.820;  706.960
1093.307;   12.767;  -11.700;  673.780
1093.851;   11.299;  -15.600;  556.540
1094.395;   13.288;  -13.920;  683.140
1094.938;   12.025;  -16.090;  632.520
1095.482;   11.529;  -13.820;  559.800
1096.025;   13.005;  -12.720;  710.880
1096.568;   13.406;  -12.100;  779.280
1097.112;   10.489;  -15.450;  508.180
1097.655;   11.511;  -14.310;  603.000
1098.198;   10.836;  -14.740;  600.180
1098.741;   10.301;  -15.550;  612.860
1099.285;   11.539;  -12.600;  657.300
1099.828;    9.391;  -15.050;  439.400
1100.371;   10.634;  -14.800;  608.160
1100.914;   11.146;  -16.480;  682.660
1101.457;   10.990;  -12.990;  679.900
1101.999;    9.310;  -14.110;  584.680
1102.542;   10.933;  -11.450;  641.440
1103.085;   10.012;  -13.350;  658.500
1103.628;   11.843;  -13.200;  762.060
1104.170;    9.212;  -12.310;  588.280
1104.713;    9.814;  -14.320;  646.700
1105.256;    9.565;  -16.110;  557.440
1105.798;    8.200;  -15.910;  499.980
1106.341;   10.367;  -12.200;  728.900
1106.883;    9.151;  -14.910;  521.340
1107.425;    9.883;  -14.960;  668.180
1107.968;    8.914;  -13.440;  612.380
1108.510;    9.784;  -14.010;  684.960
1109.052;    7.995;  -15.430;  612.620
1109.594;    8.785;  -15.290;  554.440
1110.136;    9.131;  -13.360;  643.220
1110.679;    8.791;  -13.820;  633.080
1111.221;    8.765;  -13.690;  604.460
1111.763;    7.572;  -14.890;  559.220
1112.304;    8.268;  -14.550;  547.140
1112.846;    8.576;  -12.760;  666.240
1113.388;   11.888;  -10.780;  942.180
1113.930;    8.999;  -12.690;  694.200
1114.472;    7.766;  -15.730;  606.540
1115.013;    6.761;  -14.620;  551.280
1115.555;    7.472;  -14.950;  587.100
1116.097;    6.096;  -16.460;  579.480
1116.638;    8.425;  -13.730;  684.600
1117.180;    7.485;  -13.810;  667.740
1117.721;    7.077;  -13.280;  568.580
1118.262;    8.622;  -15.080;  677.960
1118.804;    8.339;  -14.040;  637.340
1119.345;    6.408;  -15.430;  578.400
1119.886;    7.644;  -15.240;  704.040
1120.427;    6.568;  -15.820;  589.020
1120.969;    6.655;  -14.550;  597.920
1121.510;    5.934;  -14.030;  563.060
1122.051;    7.010;  -11.990;  723.580
1122.592;    5.719;  -16.490;  655.420
1123.133;    5.365;  -15.580;  547.940
1123.673;    7.238;  -12.850;  706.480
1124.214;    6.408;  -13.630;  612.460
1124.755;    6.878;  -14.830;  639.460
1125.296;    5.973;  -13.110;  627.320
1125.836;    7.112;  -11.320;  691.500
1126.377;    5.919;  -14.330;  599.660
1126.918;    6.540;  -12.800;  614.980
1127.458;    4.874;  -13.580;  622.220
1127.999;    6.199;  -10.330;  656.980
1128.539;    5.951;  -13.390;  694.240
1129.079;    5.190;  -16.420;  632.720
1129.620;    5.214;  -15.700;  558.100
1130.160;    4.436;  -14.790;  539.480
1130.700;    5.435;  -12.910;  640.840
1131.240;    5.636;  -15.610;  643.700
1131.781;    5.389;  -12.920;  619.680
1132.321;    4.798;  -15.300;  599.120
1132.861;    4.622;  -14.760;  564.200
1133.401;    4.573;  -15.470;  593.940
1133.941;    4.767;  -13.710;  626.280
1134.481;    4.373;  -11.820;  597.580
1135.020;    4.138;  -14.810;  609.160
1135.560;    4.815;  -13.660;  674.940
1136.100;    3.180;  -13.940;  501.160
1136.640;    3.294;  -15.410;  510.480
1137.179;    2.852;  -16.920;  537.960
1137.719;    4.183;  -16.430;  605.400
1138.258;    3.520;  -16.300;  587.360
1138.798;    4.018;  -13.710;  663.780
1139.337;    2.675;  -13.840;  482.840
1139.877;    4.391;  -16.140;  642.360
1140.416;    6.332;  -11.410;  878.060
1140.955;    2.575;  -12.820;  535.380
1141.494;    3.270;  -12.310;  669.280
1142.034;    3.584;  -16.280;  583.520
1142.573;    4.078;  -13.090;  646.280
1143.112;    2.713;  -13.770;  553.480
1143.651;    2.540;  -15.830;  536.480
1144.190;    3.654;  -15.010;  691.640
1144.729;    3.015;  -13.650;  607.420
1145.267;    3.203;  -13.670;  584.900
1145.806;    3.610;  -13.630;  637.040
1146.345;    2.792;  -14.160;  635.020
1146.884;    2.564;  -11.180;  622.500
1147.422;    2.199;  -15.890;  533.060
1147.961;    4.354;  -12.760;  708.460
1148.500;    2.957;  -15.220;  669.720
1149.038;    2.730;  -13.720;  632.500
1149.577;    2.466;  -13.250;  698.640
1150.115;    0.661;  -16.790;  452.280
1150.653;    2.347;  -15.810;  607.340
1151.192;    2.279;  -14.730;  552.920
1151.730;    2.326;  -13.660;  652.560
1152.268;    2.063;  -15.120;  589.520
1152.806;    1.921;  -15.580;  571.180
1153.344;    0.266;  -16.210;  577.640
1153.882;    2.107;  -12.810;  600.060
1154.421;    0.252;  -14.150;  470.620
1154.958;    1.646;  -15.360;  595.240
1155.496;    2.825;  -14.710;  645.280
1156.034;    1.609;  -13.640;  721.880
1156.572;    2.441;  -13.740;  667.060
1157.110;    0.128;  -16.960;  473.940
1157.647;    1.983;  -11.940;  676.960
1158.185;    0.122;  -14.090;  564.320
1158.723;   -0.258;  -13.610;  509.200
1159.260;    1.346;  -14.760;  701.700
1159.798;    1.633;  -13.700;  658.160
1160.335;    0.642;  -13.820;  631.820

