
Integration time [ms]:   3.276
Averaging Nr. [scans]: 1000
Smoothing Nr. [pixels]: 0
Data measured with spectrometer [name]: 7414430SP
Wave   ;Sample   ;Dark     ;Reference
[nm]   ;[counts] ;[counts] ;[counts] 

288.544;  150.619;    7.793;  793.890
289.143;  153.665;    7.462;  681.602
289.742;  153.660;    8.602;  828.814
290.341;  139.968;    1.321;  789.841
290.940;  129.761;   -0.709;  730.702
291.538;  130.287;    0.881;  881.108
292.137;  129.169;    0.122;  792.581
292.736;  134.589;   -1.929;  975.101
293.335;  132.130;   -8.229;  735.086
293.934;  131.063;   -5.279;  781.677
294.532;  128.813;   -1.369; 1031.958
295.131;  116.423;   -7.641;  834.394
295.730;  116.687;   -8.420;  809.588
296.328;  114.753;   -5.611;  783.442
296.927;  114.419;   -5.781;  779.652
297.525;  117.112;   -6.361;  781.236
298.124;  107.747;  -11.382;  654.009
298.722;  110.584;   -7.641;  761.933
299.321;  107.528;   -6.811;  708.597
299.919;  106.230;   -6.991;  751.918
300.518;  104.742;  -10.362;  689.338
301.116;  104.833;   -9.581;  691.381
301.715;  104.525;   -4.891;  730.222
302.313;  104.294;   -8.801;  704.943
302.911;  100.746;   -8.522;  733.830
303.509;  104.807;   -6.171;  925.627
304.108;  101.457;   -7.311;  760.383
304.706;  102.267;   -8.321;  801.664
305.304;   97.164;  -10.222;  796.707
305.902;  101.303;   -6.021;  784.484
306.500;   95.827;   -4.971;  728.200
307.098;   95.856;   -7.061;  746.560
307.696;   95.035;   -8.801;  780.432
308.294;   93.535;   -6.411;  731.359
308.892;   96.081;   -2.901;  759.769
309.490;   92.829;   -5.041;  712.161
310.088;   91.849;   -5.002;  788.444
310.686;   94.312;   -2.041;  821.749
311.284;   89.717;   -2.351;  766.040
311.882;   87.907;   -4.422;  731.225
312.480;   86.154;   -4.192;  697.167
313.078;   86.508;   -1.172;  808.331
313.675;   86.519;   -2.601;  691.600
314.273;   83.335;   -1.312;  797.837
314.871;   82.792;   -3.942;  589.829
315.468;   80.751;   -2.802;  652.090
316.066;   82.676;   -0.701;  694.427
316.664;   76.456;   -4.362;  656.351
317.261;   80.099;   -2.872;  910.128
317.859;   74.741;   -2.022;  768.735
318.456;   75.359;   -0.531;  830.096
319.054;   71.673;   -3.912;  787.828
319.651;   71.929;   -4.752;  759.928
320.249;   69.433;   -2.602;  810.188
320.846;   67.270;   -0.821;  714.286
321.443;   65.004;   -4.642;  832.135
322.041;   62.491;   -5.002;  812.315
322.638;   59.157;   -3.982;  701.456
323.235;   60.383;   -3.411;  665.683
323.833;   58.027;   -7.361;  740.354
324.430;   54.399;   -8.611;  615.900
325.027;   53.912;   -4.061;  876.855
325.624;   52.650;   -4.031;  644.532
326.221;   51.357;   -7.481;  689.717
326.818;   51.256;   -5.281;  818.332
327.415;   54.009;   -7.460;  748.828
328.012;   52.728;   -5.510;  690.585
328.609;   52.611;   -7.880;  731.389
329.206;   51.147;   -8.331;  778.621
329.803;   49.701;   -5.121;  737.841
330.400;   51.489;   -4.510;  704.260
330.997;   54.237;   -6.441;  817.147
331.594;   53.539;   -8.831;  788.185
332.191;   57.901;   -7.621;  728.722
332.787;   60.439;   -4.591;  844.463
333.384;   59.580;   -7.412;  763.093
333.981;   58.542;   -8.293;  815.687
334.578;   61.472;   -7.052;  708.378
335.174;   62.508;   -3.102;  731.469
335.771;   63.492;   -5.943;  836.456
336.367;   60.638;   -7.393;  710.631
336.964;   64.192;   -4.063;  793.266
337.561;   60.490;   -3.813;  731.112
338.157;   58.089;   -4.654;  911.916
338.754;   55.628;   -7.934;  796.589
339.350;   52.525;   -4.414;  722.493
339.946;   54.782;   -4.664;  773.135
340.543;   47.603;   -6.375;  846.136
341.139;   42.682;   -9.815;  720.836
341.735;   40.195;   -4.526;  772.593
342.332;   36.854;   -4.895;  691.472
342.928;   39.809;   -4.295;  795.394
343.524;   34.037;   -5.476;  761.684
344.120;   28.370;   -5.856;  738.562
344.716;   31.800;   -2.155;  723.717
345.313;   30.075;   -6.275;  795.342
345.909;   25.553;   -8.815;  627.336
346.505;   27.517;   -5.305;  740.247
347.101;   26.849;   -2.674;  827.864
347.697;   27.455;   -4.344;  785.398
348.293;   23.140;   -9.975;  627.244
348.889;   23.320;   -5.774;  745.914
349.485;   21.443;   -5.004;  688.205
350.081;   22.779;   -4.704;  772.592
350.676;   19.128;   -6.635;  691.606
351.272;   22.491;   -4.504;  809.530
351.868;   22.413;   -3.914;  780.497
352.464;   19.077;   -9.044;  723.932
353.059;   16.665;   -8.314;  646.017
353.655;   18.812;   -7.024;  777.063
354.251;   20.131;   -5.343;  759.845
354.846;   15.265;   -8.604;  740.646
355.442;   13.329;   -6.945;  753.071
356.038;   14.522;   -7.564;  751.708
356.633;   14.146;   -5.814;  728.594
357.229;   12.043;   -7.364;  724.757
357.824;   11.650;   -8.024;  703.600
358.420;    9.609;   -9.384;  679.726
359.015;    9.738;   -5.104;  695.357
359.610;   11.476;   -6.854;  763.920
360.206;    5.906;  -10.185;  603.240
360.801;    7.837;   -7.054;  646.503
361.396;   10.071;   -5.034;  725.975
361.992;    5.564;   -8.284;  668.220
362.587;    3.416;   -8.625;  670.160
363.182;    4.766;   -7.674;  689.631
363.777;    5.716;   -5.164;  738.242
364.372;    5.584;   -8.604;  737.314
364.967;    2.379;   -9.055;  680.744
365.563;    5.239;   -6.114;  815.567
366.158;    2.530;   -5.814;  685.161
366.753;    3.568;   -7.854;  649.263
367.348;    2.736;   -7.804;  746.056
367.942;    1.420;   -7.954;  697.298
368.537;    0.357;   -4.984;  754.245
369.132;    0.824;   -8.564;  703.428
369.727;   -2.374;   -8.855;  638.079
370.322;   -1.781;   -6.245;  580.186
370.917;   -2.901;   -6.425;  710.646
371.511;    0.610;   -6.294;  861.834
372.106;   -1.875;   -7.685;  776.964
372.701;   -5.854;   -7.335;  585.988
373.296;   -0.809;   -4.564;  863.135
373.890;   -5.154;  -10.235;  647.840
374.485;   -6.864;   -7.885;  691.199
375.079;   -3.451;   -7.324;  738.685
375.674;   -2.448;   -3.494;  812.970
376.268;   -6.094;   -8.525;  691.759
376.863;  -11.778;  -10.086;  580.327
377.457;   -6.204;   -7.025;  662.490
378.052;   -8.599;   -3.585;  764.884
378.646;   -8.767;   -7.595;  741.167
379.240;   -8.186;   -8.335;  721.176
379.835;   -8.737;   -5.785;  636.978
380.429;  -10.834;   -4.335;  562.557
381.023;   -9.380;   -6.805;  779.205
381.617;  -12.239;   -9.195;  680.106
382.212;   -9.260;   -6.905;  685.303
382.806;   -9.024;   -3.745;  760.690
383.400;  -12.403;   -7.745;  672.281
383.994;  -12.050;   -9.765;  664.870
384.588;   -9.732;   -6.564;  697.701
385.182;   -9.384;   -5.344;  726.624
385.776;  -10.072;   -8.514;  706.875
386.370;  -12.618;   -9.555;  681.968
386.964;  -12.202;   -8.715;  684.155
387.558;  -10.955;   -6.174;  598.360
388.152;  -14.264;   -8.725;  681.959
388.745;  -11.439;   -7.965;  814.707
389.339;   -9.754;   -5.924;  747.642
389.933;   -9.551;   -5.524;  695.370
390.527;  -10.071;   -7.114;  859.029
391.120;  -16.254;  -10.725;  595.318
391.714;  -14.489;   -8.035;  711.633
392.308;  -11.311;   -3.574;  780.253
392.901;  -14.210;   -7.245;  642.460
393.495;  -15.292;   -9.285;  595.414
394.089;  -14.024;   -5.895;  760.452
394.682;  -15.709;   -4.295;  697.188
395.275;  -15.223;   -9.875;  719.927
395.869;  -15.554;   -8.485;  667.314
396.462;  -15.229;   -7.455;  616.609
397.056;  -11.197;   -5.424;  776.621
397.649;  -15.591;   -6.605;  731.575
398.242;  -12.535;   -8.224;  712.645
398.836;  -12.730;   -7.474;  766.408
399.429;  -13.906;   -7.094;  631.041
400.022;  -16.960;   -9.475;  665.902
400.615;  -13.817;   -7.145;  805.609
401.208;  -12.479;   -7.174;  691.451
401.802;  -15.144;   -5.515;  699.329
402.395;  -15.592;   -9.875;  683.502
402.988;  -16.265;   -8.845;  696.627
403.581;  -13.163;   -8.874;  646.878
404.174;  -11.632;   -5.324;  686.568
404.767;  -14.126;   -9.575;  638.583
405.360;  -15.965;  -10.965;  621.445
405.953;  -11.068;   -8.764;  759.034
406.545;  -12.684;   -7.514;  725.342
407.138;  -14.914;  -10.025;  618.350
407.731;  -13.456;  -10.034;  613.303
408.324;   -9.685;   -9.374;  660.554
408.917;  -11.171;   -6.534;  681.864
409.509;  -12.106;   -8.004;  740.396
410.102;  -13.339;   -9.875;  643.948
410.695;   -8.888;   -8.604;  665.758
411.287;  -10.122;   -6.794;  599.821
411.880;  -10.358;   -9.334;  585.421
412.472;  -13.117;  -10.254;  613.092
413.065;  -11.407;   -6.714;  629.408
413.657;   -9.856;   -7.234;  576.678
414.250;   -8.623;  -10.544;  646.681
414.842;   -9.843;   -9.744;  676.353
415.434;   -8.599;   -6.994;  570.463
416.027;   -4.709;   -5.893;  652.196
416.619;   -6.517;   -7.264;  713.400
417.211;   -6.298;  -10.374;  599.352
417.804;   -3.110;   -7.993;  628.499
418.396;   -7.768;   -7.234;  607.643
418.988;   -4.548;   -9.443;  659.238
419.580;   -7.099;  -10.724;  568.276
420.172;   -6.257;  -10.323;  536.196
420.764;   -2.231;   -8.793;  672.482
421.356;   -2.999;  -11.143;  636.898
421.948;   -3.398;   -8.293;  677.661
422.540;    0.846;   -7.893;  680.027
423.132;   -0.094;   -7.082;  600.641
423.724;   -3.125;   -8.653;  561.267
424.316;   -0.159;  -10.213;  621.345
424.908;    1.850;   -9.762;  591.517
425.500;    2.695;   -5.572;  647.978
426.092;    3.585;   -8.422;  648.268
426.683;    2.935;   -9.283;  684.836
427.275;    5.324;   -7.852;  641.471
427.867;    6.439;   -5.272;  668.948
428.458;    6.931;   -7.682;  732.344
429.050;    7.050;  -10.612;  680.749
429.642;    8.009;   -9.882;  743.124
430.233;    7.444;   -6.962;  569.356
430.825;    9.781;   -6.842;  724.809
431.416;    7.793;   -9.672;  698.241
432.008;   10.706;   -6.552;  651.723
432.599;   11.229;   -6.891;  656.073
433.190;    8.503;  -10.912;  637.670
433.782;    7.911;  -11.172;  590.395
434.373;   14.496;   -6.061;  884.765
434.964;   13.390;   -8.251;  602.920
435.556;   11.612;   -9.722;  634.537
436.147;   15.357;   -9.082;  758.490
436.738;   14.700;   -8.041;  701.099
437.329;   18.904;   -7.341;  721.723
437.920;   12.461;   -8.162;  666.688
438.511;   13.346;  -11.802;  564.526
439.103;   18.566;  -10.191;  623.998
439.694;   20.707;   -7.601;  681.583
440.285;   21.496;   -8.541;  764.432
440.876;   19.751;   -9.751;  845.738
441.466;   19.262;   -9.401;  575.162
442.057;   24.124;   -7.760;  665.814
442.648;   23.634;   -9.971;  746.255
443.239;   22.268;  -11.001;  620.477
443.830;   26.091;   -7.990;  704.958
444.421;   28.164;   -7.910;  655.474
445.011;   24.987;   -8.131;  693.619
445.602;   24.568;   -7.111;  743.126
446.193;   25.340;  -10.920;  488.117
446.783;   30.416;   -6.500;  640.397
447.374;   26.248;   -8.671;  692.759
447.964;   27.929;  -10.781;  713.770
448.555;   35.217;   -9.650;  822.742
449.145;   31.320;   -8.660;  662.853
449.736;   32.163;   -8.990;  803.179
450.326;   32.906;   -9.500;  713.626
450.917;   37.067;   -8.680;  675.324
451.507;   35.725;   -7.520;  600.661
452.097;   37.308;   -8.590;  746.267
452.688;   38.783;  -11.340;  742.160
453.278;   38.067;  -10.100;  566.840
453.868;   41.200;   -6.019;  793.550
454.458;   39.916;   -9.440;  651.141
455.048;   40.795;  -10.560;  711.783
455.639;   40.986;  -11.799;  567.096
456.229;   45.165;   -6.899;  710.694
456.819;   47.347;   -7.389;  751.158
457.409;   48.542;  -11.119;  773.993
457.999;   50.034;   -9.289;  737.505
458.589;   49.021;   -6.139;  686.606
459.179;   50.292;   -8.729;  717.658
459.769;   48.830;   -9.789;  627.099
460.358;   53.685;  -10.259;  797.262
460.948;   52.518;   -7.299;  689.503
461.538;   54.746;  -10.289;  660.677
462.128;   52.983;  -11.269;  664.934
462.717;   59.086;   -9.368;  710.326
463.307;   61.168;   -7.908;  705.846
463.897;   57.818;   -9.599;  656.942
464.486;   57.652;   -9.769;  837.128
465.076;   61.820;   -8.048;  733.776
465.666;   64.156;   -9.358;  652.900
466.255;   62.855;   -7.919;  785.651
466.845;   62.822;  -11.689;  666.749
467.434;   65.032;   -7.818;  725.873
468.023;   65.711;   -7.678;  658.357
468.613;   63.580;  -10.939;  713.946
469.202;   68.485;  -10.118;  646.507
469.791;   71.739;   -9.108;  737.811
470.381;   73.121;   -6.058;  742.813
470.970;   73.240;  -10.428;  711.099
471.559;   74.555;  -10.268;  733.291
472.148;   76.929;   -8.448;  675.737
472.738;   78.662;   -6.917;  765.466
473.327;   78.263;  -11.978;  637.529
473.916;   78.740;  -11.888;  737.446
474.505;   81.355;   -9.437;  751.703
475.094;   84.983;   -6.747;  806.570
475.683;   84.668;   -9.367;  797.699
476.272;   86.418;  -12.637;  730.632
476.861;   88.461;  -10.027;  706.754
477.449;   94.558;   -8.716;  728.487
478.038;   89.159;   -9.577;  692.513
478.627;   90.926;   -9.718;  714.852
479.216;   97.003;   -8.947;  769.441
479.805;   99.604;   -6.256;  783.375
480.393;   99.084;   -7.937; 1008.945
480.982;   99.019;   -7.717;  874.501
481.571;  105.245;   -9.266;  858.333
482.159;  105.326;   -7.636;  705.386
482.748;  105.439;   -9.667;  821.385
483.336;  110.703;  -10.376;  858.209
483.925;  111.008;   -7.147;  774.373
484.513;  116.034;   -7.996;  758.962
485.102;  113.849;  -10.027;  810.965
485.690;  123.091;  -10.446; 1011.050
486.278;  124.206;   -8.446;  979.329
486.867;  124.472;   -6.356;  809.662
487.455;  125.677;   -9.136;  898.229
488.043;  128.427;  -10.646;  748.361
488.631;  136.674;   -7.456; 1005.079
489.220;  140.273;   -6.636;  908.626
489.808;  140.152;  -11.036;  741.415
490.396;  148.990;  -10.246;  914.645
490.984;  153.942;   -8.556;  830.161
491.572;  162.609;   -5.886;  940.315
492.160;  167.941;   -9.486;  919.081
492.748;  180.399;  -10.976;  884.341
493.336;  202.288;   -8.776; 1019.693
493.924;  226.601;   -5.465;  958.077
494.512;  252.652;   -9.986; 1066.638
495.100;  288.113;  -10.636; 1103.280
495.687;  341.758;  -10.885; 1206.373
496.275;  401.760;   -8.126; 1150.796
496.863;  470.341;  -10.586; 1281.171
497.451;  569.768;  -11.926; 1386.805
498.038;  693.450;  -10.885; 1556.729
498.626;  796.803;   -6.315; 1741.407
499.214;  941.343;   -7.326; 2016.609
499.801; 1129.206;  -11.906; 2220.633
500.389; 1370.873;  -10.466; 2312.494
500.976; 1666.701;   -5.236; 2744.849
501.564; 2085.730;   -8.936; 3148.565
502.151; 2449.188;  -13.176; 3515.999
502.738; 2881.821;  -10.646; 3971.274
503.326; 3261.356;   -9.525; 4403.796
503.913; 3635.531;  -10.856; 5161.749
504.500; 3983.026;  -11.586; 5986.420
505.088; 4397.567;  -10.336; 6381.201
505.675; 4909.218;   -6.355; 6925.547
506.262; 5620.151;   -9.046; 7619.060
506.849; 6316.902;  -10.416; 8733.969
507.436; 6781.674;  -10.305; 9790.121
508.023; 7335.291;   -5.496; 9985.472
508.610; 7595.777;   -7.856;10434.618
509.197; 8213.581;  -10.097;11198.435
509.784; 9543.404;  -10.886;12391.194
510.371;10553.125;   -9.315;13603.713
510.958;11287.182;   -9.936;14426.586
511.545;12061.196;   -9.326;15243.775
512.132;12905.789;  -10.075;15945.876
512.719;13466.461;   -7.796;16340.369
513.305;14389.736;  -10.606;18011.766
513.892;15127.221;  -11.486;19754.971
514.479;16450.680;   -9.126;20967.805
515.066;17897.584;   -6.026;22299.793
515.652;19153.219;   -8.466;22908.660
516.239;20364.631;  -10.886;23798.875
516.825;21371.902;  -11.496;25567.275
517.412;22431.379;   -5.796;28154.959
517.998;23045.590;  -10.506;28344.111
518.585;23109.938;  -10.076;27134.219
519.171;23682.938;   -8.315;27268.576
519.758;25108.994;   -8.596;28964.129
520.344;26915.730;   -8.466;30664.494
520.930;26928.969;  -11.006;32550.605
521.516;28178.678;  -10.495;35422.895
522.103;30468.570;   -5.526;38280.004
522.689;31113.910;   -8.746;37835.117
523.275;30653.500;  -11.376;37288.613
523.861;31901.018;  -11.156;37281.395
524.447;33306.012;   -8.135;37846.949
525.033;33144.316;   -7.896;38321.949
525.619;33365.762;  -12.476;38579.285
526.205;34937.027;   -9.516;40622.875
526.791;37231.785;   -6.926;42258.836
527.377;37464.609;   -8.346;42966.902
527.963;38958.480;   -8.717;42018.949
528.549;37450.289;  -11.016;42476.828
529.135;36174.504;   -8.536;41854.852
529.721;35532.891;   -9.666;41237.711
530.306;34815.785;  -10.066;41259.445
530.892;34648.250;  -11.356;41506.047
531.478;36022.961;   -6.596;43559.613
532.063;38962.527;   -8.836;47695.563
532.649;39536.414;  -10.047;50808.324
533.235;40408.625;   -9.746;51787.500
533.820;40997.332;   -6.566;52145.035
534.406;42330.902;  -10.817;51133.488
534.991;42100.551;   -9.416;49996.805
535.576;40770.066;   -9.036;48882.852
536.162;41368.352;   -6.156;46942.285
536.747;42217.766;  -11.607;45711.746
537.333;45694.934;  -11.787;48510.180
537.918;48615.867;  -12.437;50439.891
538.503;47390.973;   -7.196;50863.711
539.088;44127.883;  -10.556;50906.922
539.673;43959.039;   -8.767;52621.965
540.259;44114.477;  -10.026;52368.094
540.844;41682.773;   -7.416;50879.109
541.429;42818.996;   -9.467;52077.777
542.014;45504.703;   -9.527;52716.695
542.599;44919.023;   -9.946;52363.281
543.184;42641.398;   -7.927;53187.137
543.769;44021.875;   -9.297;54697.605
544.354;43601.887;  -10.127;53913.914
544.938;42443.715;   -9.267;49680.164
545.523;44339.078;   -6.506;47386.277
546.108;47039.645;   -9.787;49151.949
546.693;48900.160;  -11.587;51384.637
547.278;48596.359;  -10.986;51853.254
547.862;45783.770;   -8.206;51173.750
548.447;41481.273;  -10.067;51691.395
549.031;40984.930;   -9.637;52456.703
549.616;45741.137;   -9.926;52714.516
550.201;45056.125;   -6.347;52414.598
550.785;46168.355;   -7.917;52355.059
551.370;45371.207;  -10.867;54589.453
551.954;45009.262;   -9.047;58267.348
552.538;45772.504;   -7.827;59062.176
553.123;44200.813;  -10.287;58115.285
553.707;42030.273;  -12.178;56556.285
554.291;43452.043;   -8.717;56201.668
554.876;45836.688;   -7.457;55335.762
555.460;45954.988;  -10.387;54155.703
556.044;46878.141;   -9.618;53721.484
556.628;45501.148;  -11.567;53731.016
557.212;44364.309;   -8.097;54312.531
557.796;42913.051;  -11.077;53797.773
558.380;42834.148;  -11.108;56145.984
558.964;43162.605;   -9.057;57277.930
559.548;44387.926;   -6.977;56459.641
560.132;42827.328;  -11.457;54434.543
560.716;41512.617;  -11.378;54800.617
561.300;42598.828;   -9.577;57606.945
561.884;43805.984;   -7.127;58972.445
562.467;42235.953;   -7.118;57327.570
563.051;41527.008;  -13.358;54962.434
563.635;42433.707;  -10.178;52594.473
564.219;42669.469;   -7.837;50610.410
564.802;43544.488;  -11.398;49551.180
565.386;43465.320;  -12.788;48370.953
565.969;42842.316;   -9.077;48178.871
566.553;42110.750;   -6.207;49957.305
567.136;42677.883;   -8.568;50369.594
567.720;39147.121;  -11.868;49492.004
568.303;37166.512;   -8.268;50616.352
568.887;37182.266;   -8.698;50727.148
569.470;37458.820;   -6.808;51698.379
570.053;36124.801;  -13.188;52122.078
570.637;34619.852;  -12.037;52536.438
571.220;34522.555;   -8.577;51186.098
571.803;35093.156;   -8.498;51032.762
572.386;37135.988;  -10.498;49609.887
572.969;39489.777;   -9.388;48285.926
573.552;37714.277;   -8.338;47624.285
574.135;36370.488;   -8.518;45498.641
574.718;34059.359;  -13.628;41970.434
575.301;33015.762;  -10.893;41447.137
575.884;31972.162;   -8.158;40923.836
576.467;32924.082;  -10.328;45267.723
577.050;34531.457;  -13.058;48175.543
577.633;35447.359;   -9.458;47729.328
578.216;33958.770;   -8.928;47579.793
578.799;32879.816;   -9.358;47820.996
579.381;32317.598;  -11.388;48115.551
579.964;31409.332;  -11.718;47333.766
580.547;33511.570;   -8.588;46668.969
581.129;34776.457;   -8.859;44466.141
581.712;35589.902;  -10.729;44164.922
582.294;36127.539;  -11.118;46477.855
582.877;35938.141;   -5.218;48244.254
583.459;33533.508;   -8.679;47437.895
584.042;31594.086;  -10.709;46943.219
584.624;32070.490;  -11.669;46792.227
585.206;31576.664;   -8.218;46557.250
585.789;31457.080;  -10.569;45793.773
586.371;33930.699;  -11.859;43836.391
586.953;34138.598;  -10.719;42972.492
587.536;34840.484;   -7.198;42487.211
588.118;33945.844;   -8.720;42086.414
588.700;28883.525;  -10.439;43389.930
589.282;26464.377;   -9.198;43646.039
589.864;27530.979;   -9.199;43438.109
590.446;30885.824;  -11.319;43151.926
591.028;33112.824;  -11.159;42781.867
591.610;33234.008;  -11.779;42839.098
592.192;31064.727;   -7.668;42820.402
592.774;29639.895;  -11.949;40724.277
593.356;28399.125;  -12.129;39874.789
593.937;27330.082;  -10.669;39980.648
594.519;29455.402;   -6.509;42069.633
595.101;31647.193;  -10.849;42976.031
595.683;31797.492;  -11.679;44084.441
596.264;32808.355;   -9.049;43478.797
596.846;32203.863;   -8.849;43803.672
597.427;32041.816;   -9.570;42986.934
598.009;33635.641;  -12.620;42832.219
598.591;34029.160;  -10.039;42580.086
599.172;33221.613;  -10.369;43061.805
599.753;33362.766;   -9.140;41691.469
600.335;34946.082;  -11.430;40692.520
600.916;33266.395;   -9.939;39982.422
601.498;30701.920;   -8.479;40318.617
602.079;29157.646;  -10.920;40670.609
602.660;29062.412;  -11.480;41450.898
603.241;30648.662;  -11.699;41137.738
603.823;29472.652;   -9.579;38868.797
604.404;28987.674;  -10.620;38182.785
604.985;30568.805;  -10.450;38078.047
605.566;30287.469;   -9.129;38056.633
606.147;30470.004;   -7.510;37020.418
606.728;32134.553;  -10.660;37883.359
607.309;30857.051;  -11.740;38748.273
607.890;30327.365;   -9.759;38850.230
608.471;29760.582;   -8.250;37457.918
609.051;28859.586;   -9.240;36066.457
609.632;27800.703;  -12.120;35991.074
610.213;28598.949;   -9.110;37402.641
610.794;29324.217;   -8.030;38383.363
611.374;28873.586;   -8.110;40562.387
611.955;29375.213;  -13.560;38533.727
612.536;30680.273;  -11.400;36951.789
613.116;30528.104;   -8.070;37197.891
613.697;30807.389;  -10.830;38411.125
614.277;29256.508;  -11.641;38673.938
614.858;30078.066;  -13.310;37075.863
615.438;29271.590;   -7.460;35092.906
616.019;26688.938;   -7.601;33666.301
616.599;27283.766;  -12.020;34189.023
617.179;29127.352;  -11.780;36952.047
617.760;30182.717;   -8.570;39582.574
618.340;31278.336;  -11.471;38943.977
618.920;32519.377;  -11.170;37594.156
619.500;32257.066;  -11.071;37866.938
620.080;31326.557;   -7.750;37869.043
620.660;32474.129;  -12.711;36868.617
621.241;33814.602;  -10.211;36352.309
621.821;34034.578;  -10.961;35459.520
622.401;33052.570;   -7.720;35207.414
622.980;32383.059;   -8.981;35980.422
623.560;30928.510;   -9.331;37351.328
624.140;29691.434;   -9.850;34388.582
624.720;24660.410;   -7.451;32368.764
625.300;21260.063;   -9.070;32638.629
625.880;24673.916;  -12.601;34599.035
626.459;28592.729;  -11.751;36831.738
627.039;31570.479;   -9.281;38299.098
627.619;31432.980;   -8.801;38289.574
628.198;29901.557;  -12.071;37220.695
628.778;29127.947;   -9.461;37632.563
629.357;29862.934;   -8.491;38003.012
629.937;29810.617;   -9.721;38402.039
630.516;29286.645;   -9.951;37868.801
631.096;29071.320;  -11.731;35760.410
631.675;31645.068;   -8.572;35225.219
632.254;36579.285;  -11.282;35130.289
632.834;35924.594;  -13.322;35794.570
633.413;34105.016;  -10.301;35788.922
633.992;31382.922;   -8.582;34532.863
634.571;32270.770;   -8.352;33590.113
635.151;35303.574;  -11.912;34943.863
635.730;33644.656;  -10.511;35352.523
636.309;30074.115;   -7.731;35366.605
636.888;27648.818;   -9.952;36165.637
637.467;28402.029;  -11.672;37515.902
638.046;30089.932;   -8.901;39288.695
638.625;33270.359;   -7.912;38279.699
639.204;33037.469;  -10.022;37741.598
639.782;31474.848;  -12.252;38364.551
640.361;27805.693;  -10.041;36740.621
640.940;24962.646;  -11.161;34950.082
641.519;25626.736;   -9.701;34137.398
642.097;28585.070;  -11.271;35654.258
642.676;31440.516;   -8.651;35637.957
643.255;32137.344;   -8.711;36567.074
643.833;31313.002;   -9.581;37809.434
644.412;31363.883;  -13.711;37337.293
644.990;30351.668;  -11.811;37018.531
645.569;30305.479;   -9.411;36518.469
646.147;29335.875;  -10.291;36186.430
646.726;29081.262;  -12.401;36267.688
647.304;30324.643;  -10.411;36647.625
647.882;32117.762;   -9.651;39286.742
648.461;33728.195;   -9.631;39157.703
649.039;32105.809;  -11.881;35412.883
649.617;31432.119;   -9.661;34744.918
650.195;31079.377;   -9.301;35403.098
650.773;29623.182;  -10.511;35053.797
651.352;27207.033;  -11.521;33756.816
651.930;24900.742;  -12.211;31868.773
652.508;23403.656;   -9.171;33121.551
653.086;27345.395;   -9.371;33564.793
653.663;30182.129;  -13.161;34054.668
654.241;28962.768;  -13.031;35693.309
654.819;30640.156;   -9.371;36422.906
655.397;30789.416;  -10.511;38213.484
655.975;30408.254;  -10.371;39507.625
656.553;30217.822;  -10.051;39498.223
657.130;28615.789;  -10.061;40395.480
657.708;27844.455;   -9.561;39242.020
658.286;27954.750;  -11.511;38920.020
658.863;29285.896;  -10.261;40202.898
659.441;32324.850;   -7.531;39677.938
660.018;31851.809;   -9.501;40413.355
660.596;30745.402;  -13.301;39931.414
661.173;32691.527;  -11.211;39604.531
661.750;32692.461;   -9.951;39700.070
662.328;31339.826;   -9.390;39292.809
662.905;30480.428;  -11.330;38235.648
663.482;26355.027;   -9.050;36212.305
664.060;24521.475;   -8.240;35944.945
664.637;27339.359;  -10.050;35170.785
665.214;29230.998;  -11.760;34197.523
665.791;30754.697;  -10.530;34549.520
666.368;29530.303;   -9.690;35118.578
666.945;30168.346;   -9.320;36019.418
667.522;31756.875;  -11.860;36048.438
668.099;31491.658;  -10.770;36243.914
668.676;30310.416;   -6.260;35958.875
669.253;29025.031;   -7.000;37384.730
669.830;29667.328;  -10.190;36779.629
670.407;29453.572;   -9.550;35231.289
670.984;29303.506;   -9.260;35544.270
671.560;29790.350;   -9.280;35466.867
672.137;28988.893;  -11.810;34280.863
672.714;29812.752;  -11.490;34632.863
673.290;30378.939;   -7.740;35135.422
673.867;30633.939;  -10.660;36114.480
674.443;30593.021;  -12.230;36152.859
675.020;28807.916;  -10.450;35327.238
675.596;29818.969;   -9.260;35795.176
676.173;30243.664;  -10.780;35430.355
676.749;30032.518;  -13.690;33549.516
677.326;30040.338;  -11.980;32210.012
677.902;30027.527;   -8.630;32068.871
678.478;29401.502;  -10.730;32583.891
679.054;28826.486;  -10.520;32088.928
679.631;29124.766;  -11.920;30978.848
680.207;30652.209;   -7.490;33160.887
680.783;32334.893;   -9.860;35570.363
681.359;31444.133;  -13.380;36125.184
681.935;30826.920;  -12.480;35240.922
682.511;30031.164;   -7.900;34429.961
683.087;30148.504;   -7.710;34463.680
683.663;29761.875;  -11.480;34648.898
684.239;28490.871;  -14.090;34546.457
684.815;28085.086;   -7.560;35586.375
685.390;28393.162;   -9.910;35821.895
685.966;28807.094;  -11.159;35085.871
686.542;31190.125;  -11.169;34198.230
687.118;33436.316;   -5.959;32847.707
687.693;33799.102;  -10.329;32794.027
688.269;33487.727;  -12.059;33072.367
688.844;31568.912;  -10.909;33141.664
689.420;29263.738;   -8.019;33965.742
689.995;27008.395;   -8.399;34655.523
690.571;25700.791;  -10.949;33576.742
691.146;26199.117;   -9.619;32657.219
691.722;25711.188;   -8.999;32526.979
692.297;25566.545;  -11.589;33014.617
692.872;27394.775;  -11.739;34012.254
693.448;26969.025;  -11.059;34237.434
694.023;26202.537;  -10.139;34142.672
694.598;28167.352;   -9.029;34132.031
695.173;28455.035;  -13.319;34205.250
695.748;27655.779;  -10.169;32882.488
696.323;27748.791;   -8.339;32864.906
696.898;27975.502;   -8.169;33170.004
697.473;27863.973;  -12.309;32432.984
698.048;27350.420;  -10.989;31649.303
698.623;27256.953;   -9.329;30778.141
699.198;29201.189;   -9.849;31140.119
699.773;30201.555;  -12.329;31764.299
700.348;28550.164;  -10.389;31780.816
700.922;28561.863;   -9.269;32046.375
701.497;29427.043;   -9.329;32603.574
702.072;29587.484;  -10.789;34799.871
702.646;28261.092;  -10.839;35793.172
703.221;26139.180;   -9.099;35201.590
703.795;28247.404;  -10.939;34764.527
704.370;28715.355;  -12.859;34307.367
704.944;29127.180;  -11.559;33509.887
705.519;30003.418;   -7.939;31388.584
706.093;31385.512;  -10.499;31340.104
706.668;31724.670;  -11.289;32630.281
707.242;30647.582;  -11.509;32728.779
707.816;29079.373;   -9.639;32947.238
708.390;27518.588;  -11.429;33277.855
708.965;28006.977;  -11.869;33834.336
709.539;28044.131;  -11.689;33709.273
710.113;28499.174;  -10.478;33044.313
710.687;27937.836;  -10.228;31953.992
711.261;26246.738;  -13.698;30505.949
711.835;26132.061;  -13.378;30262.369
712.409;26971.490;   -9.698;31254.447
712.983;28973.828;  -11.898;32754.986
713.557;29952.037;  -15.138;34018.824
714.131;29518.240;  -14.098;34579.625
714.704;28600.178;   -9.958;33890.262
715.278;26387.588;  -10.028;33531.102
715.852;25329.947;  -11.148;33601.660
716.425;26098.063;   -9.068;33515.117
716.999;26804.766;  -10.038;33185.555
717.573;27762.299;   -9.798;33905.996
718.146;28793.096;  -12.378;35199.293
718.720;28831.947;  -11.918;35060.551
719.293;28293.813;   -8.088;34973.230
719.867;31205.109;  -10.888;36394.449
720.440;30981.637;  -11.938;36663.008
721.013;29285.629;  -12.818;35102.426
721.587;27777.570;  -10.298;33985.266
722.160;26805.611;  -10.048;33524.965
722.733;25811.816;  -12.108;32987.043
723.306;26142.180;  -10.818;33066.301
723.880;28553.264;   -8.908;33399.500
724.453;30568.871;   -9.878;33468.297
725.026;29649.775;  -11.188;33816.637
725.599;26923.482;  -11.678;32797.996
726.172;27239.330;   -9.618;33187.434
726.745;28331.729;   -8.258;35136.613
727.318;29655.775;  -12.978;35751.730
727.891;30154.322;  -12.148;35890.430
728.463;29784.033;   -8.968;34822.090
729.036;28744.441;  -10.188;32895.086
729.609;29181.063;  -11.788;31823.225
730.182;26094.482;  -11.788;31445.283
730.754;23617.211;  -10.268;32373.223
731.327;23701.605;   -9.998;33676.820
731.900;24028.227;  -12.228;33417.000
732.472;25360.297;  -13.848;31978.498
733.045;27338.328;   -8.698;30368.777
733.617;27412.564;  -10.607;30574.215
734.190;27077.127;  -11.507;31280.975
734.762;24177.842;  -13.647;31674.412
735.334;22372.889;   -9.767;31247.291
735.907;23033.092;   -9.897;29876.211
736.479;23198.729;  -11.637;29808.488
737.051;22879.957;   -9.567;30233.547
737.623;23828.926;   -8.187;31469.086
738.195;24535.840;  -11.187;31784.225
738.768;26423.963;  -12.337;32120.523
739.340;26734.227;  -12.227;32094.342
739.912;25529.191;  -11.057;31312.680
740.484;24042.395;  -10.207;31946.238
741.056;22901.514;  -10.047;32984.059
741.628;24690.139;  -13.627;33897.715
742.199;26963.902;   -7.177;33213.016
742.771;25278.549;  -10.797;31369.113
743.343;22933.639;  -11.997;31865.473
743.915;21944.973;  -12.867;32388.631
744.487;22043.313;   -7.617;31079.568
745.058;22242.951;   -9.557;30570.107
745.630;22665.152;   -9.877;29970.127
746.201;23498.072;  -14.177;29186.766
746.773;24021.324;   -9.237;28805.723
747.344;23893.357;   -9.847;29591.223
747.916;22549.912;  -11.657;31412.201
748.487;22769.467;  -10.587;32194.898
749.059;23926.514;   -8.707;32533.719
749.630;24496.580;  -10.537;32158.518
750.201;23491.506;  -11.687;30855.395
750.773;21687.434;  -11.647;28622.555
751.344;21654.754;   -7.147;28405.732
751.915;22991.207;   -9.757;28461.551
752.486;22997.496;  -12.427;27842.850
753.057;20663.854;  -12.227;27845.008
753.628;19361.396;  -10.417;27728.107
754.199;20450.561;  -11.767;27381.086
754.770;21499.123;  -11.187;25882.203
755.341;21512.541;  -10.507;25886.184
755.912;21569.787;   -9.387;26050.861
756.483;21142.475;  -10.647;26798.779
757.054;19443.393;  -11.837;27048.238
757.625;18154.898;  -12.716;26294.838
758.195;17845.453;   -9.666;26142.076
758.766;17533.359;   -8.656;26392.234
759.337;18328.813;  -12.856;26334.594
759.907;20039.920;  -13.366;27579.652
760.478;20971.705;   -8.576;28352.770
761.048;20397.404;  -10.526;27325.088
761.619;19521.039;  -11.116;26460.428
762.189;19524.604;  -12.136;26029.826
762.760;20568.590;   -9.456;26430.145
763.330;21650.705;   -7.136;26670.902
763.900;21103.707;  -11.786;26603.021
764.471;18542.020;  -11.546;25542.740
765.041;17281.406;   -8.096;24358.459
765.611;17373.291;   -8.876;23991.297
766.181;17772.758;  -12.196;24470.236
766.751;18721.705;  -11.636;24845.975
767.321;18477.145;  -10.156;24533.633
767.891;16543.365;  -11.766;24916.492
768.461;16014.431;  -14.936;24776.771
769.031;16513.299;  -12.356;24757.988
769.601;18098.273;   -7.526;24181.088
770.171;17988.609;  -10.766;23670.387
770.741;17236.518;  -13.176;22960.045
771.311;17422.898;  -10.616;22917.523
771.880;17815.482;   -9.576;23562.941
772.450;17492.082;  -10.336;24216.500
773.020;17484.404;  -13.516;24140.398
773.589;16785.742;  -13.466;24414.857
774.159;16100.276;   -8.686;23858.717
774.729;15708.882;   -9.476;22942.135
775.298;15247.263;  -13.666;22324.033
775.867;14852.102;  -11.716;21140.313
776.437;14902.703;   -9.906;20838.092
777.006;14696.966;  -12.166;20599.510
777.576;14598.087;  -12.356;20508.809
778.145;14712.058;  -11.646;20732.947
778.714;14591.653;   -8.226;21062.465
779.283;13861.639;   -9.556;20949.664
779.853;13381.031;  -14.116;20508.623
780.422;13891.245;  -11.506;20649.082
780.991;13470.547;   -9.556;21527.520
781.560;12274.987;   -9.095;22632.658
782.129;12101.988;  -12.135;23048.277
782.698;12149.251;  -10.865;23438.555
783.267;11745.702;   -9.335;23267.734
783.836;11687.214;  -11.045;22415.133
784.404;12727.515;  -13.865;20443.152
784.973;13334.861;  -13.095;19699.150
785.542;13264.095;  -11.575;19763.828
786.111;13071.689;   -9.705;20341.408
786.679;12553.952;  -12.105;20207.967
787.248;12294.889;  -12.455;19516.465
787.817;12115.365;  -11.535;18900.363
788.385;11726.406;   -9.765;17879.121
788.954;11151.134;  -14.005;17658.301
789.522;10635.205;  -11.955;17788.879
790.090;11201.090;  -10.135;18118.277
790.659;11629.781;  -10.975;18338.736
791.227;11125.472;  -13.375;18508.615
791.795;11571.168;  -12.375;17898.254
792.364;11950.336;  -10.725;17295.133
792.932;12265.557;   -9.715;16822.051
793.500;12415.083;  -12.675;17040.148
794.068;12612.143;  -13.495;17179.787
794.636;12740.499;  -10.885;16664.246
795.204;12135.627;  -11.045;16524.545
795.772;12215.206;  -13.175;17274.564
796.340;11745.822;  -12.445;17891.002
796.908;11553.664;   -9.735;17648.561
797.476;11468.687;   -9.815;17064.080
798.044;11022.946;  -13.985;16672.777
798.612;10180.138;  -13.115;17023.996
799.180; 9781.806;  -10.185;16561.615
799.747; 9719.150;   -9.055;15962.773
800.315; 9472.645;  -12.385;15296.992
800.883; 9146.681;  -15.035;14801.771
801.450; 9167.510;  -10.365;14534.430
802.018; 9218.170;   -9.855;14173.248
802.585; 9336.283;  -11.905;14029.547
803.153; 9382.649;  -11.585;13836.846
803.720; 9204.382;   -9.095;13567.324
804.287; 8749.458;   -9.135;13360.622
804.855; 8319.209;  -11.604;13681.981
805.422; 8211.440;  -11.794;13536.560
805.989; 8239.111;  -10.734;13355.958
806.556; 8410.636;  -10.444;13747.896
807.124; 8655.088;  -12.764;13987.376
807.691; 8609.993;  -12.964;14038.674
808.258; 8405.940;  -11.134;14120.152
808.825; 8081.243;   -9.854;13860.111
809.392; 8158.785;  -10.504;13268.790
809.959; 7673.319;  -13.054;12680.389
810.526; 7213.036;   -8.294;12427.308
811.093; 7250.839;   -8.394;12030.105
811.659; 7889.922;  -12.304;11653.664
812.226; 8408.093;  -13.944;11637.183
812.793; 8094.785;  -10.484;11611.521
813.360; 7448.178;  -10.144;11885.181
813.926; 7134.902;  -11.684;12770.539
814.493; 6938.028;  -13.644;12677.638
815.060; 6552.275;   -9.724;11974.336
815.626; 6539.624;   -9.854;11594.715
816.193; 6937.047;  -13.254;11579.474
816.759; 6925.368;  -13.204;11666.972
817.325; 6944.528;   -9.434;11325.530
817.892; 7293.759;  -10.134;11105.369
818.458; 7743.736;  -13.474;10843.928
819.024; 7395.614;  -11.854;10714.406
819.591; 7093.665;  -10.244;10469.165
820.157; 6892.855;  -10.704;10235.523
820.723; 6394.940;  -12.324;10847.563
821.289; 6084.304;   -9.444;11040.980
821.855; 5991.031;   -8.374;10357.100
822.421; 5967.501;  -10.234; 9978.918
822.987; 5971.759;  -13.294; 9754.177
823.553; 5651.317;  -10.884;10065.755
824.119; 5459.837;   -8.884;10036.294
824.685; 5542.975;   -6.784;10029.192
825.251; 5635.506;  -12.004;10199.230
825.816; 5604.674;  -11.474; 9820.189
826.382; 5384.311;   -9.174; 9297.248
826.948; 5589.831;   -9.214; 9381.347
827.513; 5984.021;  -10.774; 9450.726
828.079; 5785.588;  -11.924; 9472.444
828.645; 5181.729;  -10.543; 9292.643
829.210; 5091.668;  -10.533; 9065.341
829.776; 5093.190;  -10.753; 9132.620
830.341; 4980.406;  -10.173; 9092.878
830.906; 5169.015;  -10.743; 9078.557
831.472; 5516.076;  -11.113; 8534.535
832.037; 5258.411;  -10.603; 8677.874
832.602; 4698.094;  -13.323; 8628.692
833.167; 4427.847;  -10.823; 8879.031
833.733; 4363.250;  -10.113; 9189.790
834.298; 4500.166;  -13.583; 9052.608
834.863; 4585.402;  -12.703; 8895.087
835.428; 4560.843;  -10.523; 8824.266
835.993; 4404.449;   -6.963; 8845.385
836.558; 4239.025;  -10.763; 8888.563
837.123; 4371.089;   -9.903; 8966.582
837.688; 4615.010;   -9.913; 8617.860
838.253; 4868.379;  -10.283; 8590.699
838.817; 5080.872;  -12.963; 8443.797
839.382; 4991.395;  -14.243; 8799.356
839.947; 4653.787;  -10.733; 8810.595
840.511; 4332.241;   -9.383; 8796.394
841.076; 3931.518;  -12.563; 8347.231
841.641; 3966.729;  -12.953; 8224.330
842.205; 4059.487;   -7.043; 8223.349
842.770; 4176.691;   -8.163; 8622.107
843.334; 4361.184;  -12.503; 8410.386
843.898; 4316.912;  -11.693; 8337.465
844.463; 4336.183;  -10.203; 8506.283
845.027; 4112.644;   -9.533; 8280.962
845.591; 3924.977;  -13.443; 8231.141
846.156; 3912.255;  -13.143; 7969.179
846.720; 3799.028;   -9.433; 7768.278
847.284; 3676.766;  -11.033; 7630.957
847.848; 3551.293;  -10.403; 7472.395
848.412; 3462.217;  -11.553; 7437.394
848.976; 3502.470;   -8.393; 7674.592
849.540; 3434.326;   -8.713; 7836.011
850.104; 3544.242;  -12.463; 7913.669
850.668; 3904.293;  -12.973; 7694.508
851.232; 4004.831;  -10.793; 7756.887
851.796; 3842.997;  -10.662; 7926.545
852.359; 3541.916;  -13.082; 7827.844
852.923; 3372.954;  -12.192; 7641.163
853.487; 3194.161;  -11.912; 7342.501
854.050; 3155.216;  -10.892; 7042.820
854.614; 3295.517;  -13.992; 7151.338
855.177; 3420.920;  -11.732; 7105.077
855.741; 3455.592;   -8.962; 6989.675
856.304; 3344.740;   -9.442; 6596.634
856.868; 3295.236;  -14.192; 6356.272
857.431; 3385.381;  -12.702; 6468.571
857.995; 3490.562;   -9.942; 6373.210
858.558; 3494.794;   -9.112; 6324.448
859.121; 3230.908;  -12.932; 6408.327
859.684; 3114.810;  -13.442; 6347.886
860.247; 3231.365;  -10.632; 6321.264
860.810; 3228.822;  -11.272; 6301.903
861.374; 2973.107;   -9.832; 6607.881
861.937; 2711.345;  -11.762; 6408.200
862.500; 2701.704;   -9.722; 6572.639
863.062; 2878.886;  -10.512; 6387.297
863.625; 3054.291;  -11.232; 6190.836
864.188; 3215.750;  -14.112; 5807.254
864.751; 3279.923;  -11.302; 5682.413
865.314; 3167.509;  -10.112; 5547.492
865.876; 2950.579;  -12.182; 5500.150
866.439; 2931.256;  -10.722; 5415.909
867.002; 2879.667;   -9.252; 5501.567
867.564; 2677.416;   -9.572; 5413.946
868.127; 2453.657;  -13.142; 5160.325
868.689; 2346.298;  -12.902; 5133.183
869.252; 2244.717;   -9.732; 5252.382
869.814; 2149.909;   -9.432; 5297.141
870.377; 2162.257;  -11.552; 5390.919
870.939; 2228.169;   -9.052; 5599.898
871.501; 2292.263;  -10.982; 5248.336
872.063; 2294.158;  -12.292; 4854.235
872.626; 2256.576;  -14.912; 4817.074
873.188; 2284.555;  -13.112; 4987.732
873.750; 2249.654;  -13.442; 4868.651
874.312; 2142.427;   -9.402; 4779.330
874.874; 2049.620;  -11.062; 4866.348
875.436; 1957.430;  -13.931; 4718.887
875.998; 1946.513;   -9.561; 4660.005
876.560; 1972.117;  -11.321; 4462.964
877.122; 1915.617;  -12.221; 4145.042
877.683; 1824.144;  -12.191; 4056.481
878.245; 1752.596;  -12.101; 3950.740
878.807; 1792.202;   -8.971; 4058.958
879.369; 1816.790;  -12.071; 3954.677
879.930; 1717.493;  -14.621; 3941.495
880.492; 1650.840;  -10.311; 4067.014
881.053; 1612.918;  -10.901; 3859.633
881.615; 1506.276;  -14.411; 3776.071
882.176; 1407.097;  -13.761; 3734.750
882.738; 1356.647;   -9.181; 3678.489
883.299; 1327.033;  -11.791; 3405.407
883.860; 1328.969;  -13.121; 3351.106
884.422; 1333.253;  -11.211; 3394.044
884.983; 1287.873;  -10.091; 3166.443
885.544; 1207.071;   -8.461; 3189.802
886.105; 1127.350;  -12.361; 3160.360
886.666; 1057.134;  -14.141; 3093.059
887.227;  998.990;  -11.361; 2941.957
887.788;  934.186;  -11.401; 2974.836
888.349;  874.651;  -13.791; 2721.214
888.910;  873.152;  -13.191; 2696.493
889.471;  880.057;   -9.881; 2560.172
890.032;  862.362;   -9.881; 2558.190
890.593;  839.181;  -10.371; 2567.669
891.153;  811.443;  -13.301; 2460.307
891.714;  760.455;  -11.431; 2372.046
892.275;  720.809;  -11.291; 2309.505
892.835;  682.544;  -11.471; 2382.543
893.396;  629.711;  -11.541; 2295.502
893.956;  570.187;  -11.181; 2162.420
894.517;  533.518;  -11.741; 2125.439
895.077;  527.430;  -11.671; 2086.978
895.638;  527.825;  -11.311; 2126.316
896.198;  496.717;   -9.831; 1838.275
896.758;  453.687;   -8.421; 1892.813
897.319;  422.132;  -12.351; 1792.232
897.879;  407.470;  -13.511; 1762.751
898.439;  380.241;  -12.001; 1661.149
898.999;  355.765;  -10.180; 1781.468
899.559;  348.274;  -12.030; 1703.347
900.119;  343.288;  -15.710; 1537.525
900.679;  338.831;   -8.900; 1638.384
901.239;  322.489;   -8.340; 1527.902
901.799;  312.768;  -13.910; 1456.441
902.359;  307.408;  -13.460; 1357.140
902.919;  300.300;  -11.490; 1331.118
903.479;  286.952;  -12.110; 1317.257
904.038;  266.508;  -11.720; 1262.595
904.598;  251.179;  -13.610; 1152.034
905.158;  246.647;  -11.040; 1240.893
905.717;  238.378;  -10.900; 1233.691
906.277;  229.008;  -15.080; 1217.330
906.836;  218.912;  -13.380; 1222.408
907.396;  209.062;  -10.780; 1193.047
907.955;  201.982;   -8.500; 1182.526
908.515;  196.573;  -12.760; 1099.364
909.074;  190.798;  -11.900; 1092.863
909.633;  183.732;   -8.950; 1069.121
910.192;  178.997;   -8.770; 1196.460
910.752;  174.173;  -12.390; 1029.960
911.311;  171.126;  -13.680; 1009.780
911.870;  167.375;  -12.370;  971.460
912.429;  167.388;  -10.900; 1094.080
912.988;  168.630;  -11.690; 1081.060
913.547;  164.056;  -13.240;  940.380
914.106;  157.480;  -11.990;  999.420
914.665;  154.178;   -9.990;  984.020
915.224;  154.468;  -12.880; 1035.760
915.782;  155.215;  -12.350;  922.560
916.341;  154.081;   -9.110; 1049.840
916.900;  148.749;   -9.270;  925.260
917.458;  147.582;  -13.240;  884.220
918.017;  147.830;  -13.550;  942.600
918.576;  146.504;  -12.320;  904.440
919.134;  144.752;  -11.490;  837.980
919.693;  143.157;  -13.670;  893.060
920.251;  142.359;  -15.470;  876.500
920.809;  139.647;  -11.290;  839.580
921.368;  138.945;  -10.210;  885.360
921.926;  138.766;  -12.140;  842.940
922.484;  137.469;  -13.080;  903.360
923.042;  137.122;  -11.720;  880.340
923.601;  139.618;   -7.480;  998.680
924.159;  138.858;  -11.570;  935.560
924.717;  135.767;  -13.840;  841.080
925.275;  133.858;  -10.640;  903.240
925.833;  133.909;  -11.540;  779.320
926.391;  136.276;  -12.960;  938.380
926.949;  134.904;  -14.130;  857.680
927.506;  133.988;  -11.750;  903.500
928.064;  133.705;  -10.250;  877.580
928.622;  134.073;  -13.030;  880.100
929.180;  133.521;  -13.400;  814.180
929.737;  134.833;  -10.700;  808.540
930.295;  137.911;  -10.070;  928.480
930.853;  139.853;  -11.960;  849.100
931.410;  141.394;  -13.120;  821.120
931.968;  139.727;  -10.770;  940.660
932.525;  138.633;  -10.680;  909.380
933.082;  141.013;  -13.130;  811.440
933.640;  141.592;  -13.210;  925.900
934.197;  138.755;  -11.060;  886.360
934.754;  140.070;   -9.580;  897.780
935.312;  143.457;  -14.000;  863.340
935.869;  148.348;  -10.710; 1012.980
936.426;  148.703;   -9.860;  872.800
936.983;  149.123;   -9.710;  889.020
937.540;  148.832;  -13.990;  838.280
938.097;  148.401;  -14.040;  940.120
938.654;  147.297;  -10.310;  898.860
939.211;  150.116;  -10.560;  952.480
939.768;  154.831;  -13.900;  915.420
940.324;  158.375;  -14.760;  904.200
940.881;  159.067;  -10.370;  878.500
941.438;  159.299;   -8.260; 1021.200
941.995;  155.940;  -12.540;  992.560
942.551;  154.204;  -14.670;  875.620
943.108;  153.028;  -10.450;  937.920
943.664;  155.345;  -10.750;  869.340
944.221;  160.762;  -11.550; 1088.140
944.777;  157.880;  -14.770;  869.680
945.334;  157.825;  -12.820;  884.840
945.890;  159.903;  -10.130;  946.480
946.446;  159.584;  -13.470;  947.020
947.003;  162.729;  -12.120;  964.940
947.559;  163.933;   -9.980; 1063.040
948.115;  163.505;   -9.080; 1026.540
948.671;  161.943;  -10.830;  967.300
949.227;  160.540;  -12.440;  859.560
949.783;  156.802;  -12.910;  858.900
950.339;  157.236;  -10.270;  991.000
950.895;  158.712;  -13.630; 1023.840
951.451;  159.382;  -15.100;  925.280
952.007;  158.716;  -11.330;  998.540
952.563;  158.258;  -10.580;  937.780
953.118;  158.703;  -13.440;  904.940
953.674;  159.176;  -12.710;  935.780
954.230;  157.535;  -10.350;  949.640
954.785;  154.271;   -9.190;  936.640
955.341;  153.103;  -11.200;  998.160
955.897;  151.323;  -16.560;  834.660
956.452;  152.000;  -12.570;  953.840
957.008;  150.564;   -7.970; 1083.640
957.563;  148.902;  -11.940; 1009.540
958.118;  145.397;  -13.450;  877.700
958.674;  144.302;  -12.030;  946.780
959.229;  145.674;   -9.410; 1013.980
959.784;  143.992;  -12.000;  832.400
960.339;  143.995;  -14.780; 1001.280
960.894;  138.900;   -9.860;  963.760
961.449;  135.473;   -9.970;  859.960
962.004;  136.541;  -10.900; 1212.840
962.559;  131.191;  -13.150;  860.140
963.114;  128.400;  -13.740;  742.480
963.669;  126.942;   -9.820;  915.500
964.224;  127.006;  -13.890;  874.340
964.779;  126.832;  -12.600;  828.420
965.334;  126.527;  -10.950; 1017.860
965.888;  126.238;  -11.170;  875.360
966.443;  130.215;  -12.540;  972.380
966.998;  130.144;  -15.780;  819.460
967.552;  128.469;   -9.760;  908.380
968.107;  124.446;   -9.060;  868.300
968.661;  125.635;  -11.950;  922.440
969.216;  127.287;  -12.800;  856.280
969.770;  125.579;  -11.210;  917.200
970.324;  124.965;  -11.610;  923.140
970.879;  122.536;  -11.370;  947.180
971.433;  122.162;  -12.540;  952.720
971.987;  115.229;  -11.320;  895.340
972.541;  111.201;  -10.720;  917.100
973.095;  108.120;   -9.680; 1009.460
973.649;  100.981;  -11.440;  809.480
974.203;   91.336;  -11.210;  829.040
974.757;   84.543;  -10.240;  855.220
975.311;   81.811;  -13.720;  872.600
975.865;   82.219;  -13.770;  881.820
976.419;   82.251;  -11.690;  857.400
976.973;   84.332;   -9.510;  849.620
977.526;   88.799;  -12.620;  949.920
978.080;   89.314;  -12.010;  796.780
978.634;   91.175;  -10.170;  921.320
979.187;   89.407;   -9.020;  905.400
979.741;   89.261;   -9.820; 1018.380
980.294;   86.535;  -14.870;  789.160
980.848;   83.755;  -12.380;  717.220
981.401;   85.878;  -10.350;  816.540
981.955;   88.879;  -13.720;  844.300
982.508;   88.582;  -11.490;  746.340
983.061;   88.557;  -10.000;  915.260
983.615;   84.865;  -11.480;  798.800
984.168;   82.852;  -13.220;  770.080
984.721;   83.675;  -13.960;  880.760
985.274;   81.394;  -10.870;  867.500
985.827;   79.678;   -9.790;  834.220
986.380;   79.577;  -13.120;  721.340
986.933;   78.789;  -12.450;  864.800
987.486;   76.766;  -10.210;  861.920
988.039;   74.759;   -8.430;  863.100
988.591;   74.698;  -10.520;  893.260
989.144;   72.269;  -14.860;  737.260
989.697;   71.238;  -13.080;  758.740
990.250;   71.677;  -10.150;  858.100
990.802;   70.643;  -13.430;  755.860
991.355;   72.880;  -12.750;  974.880
991.907;   69.853;  -12.040;  864.320
992.460;   66.826;  -11.330;  753.760
993.012;   67.136;  -13.610;  749.540
993.565;   67.231;  -13.460;  711.360
994.117;   67.116;   -9.360;  950.780
994.669;   63.331;  -11.300;  701.320
995.221;   63.541;  -13.540;  791.920
995.774;   61.702;  -13.430;  787.580
996.326;   59.388;  -12.520;  740.220
996.878;   58.032;  -10.950;  838.420
997.430;   56.721;  -14.300;  699.860
997.982;   55.018;  -13.760;  750.140
998.534;   52.620;  -11.530;  739.060
999.086;   50.253;  -10.310;  738.220
999.638;   49.396;  -12.530;  661.380
1000.190;   50.568;  -11.840;  699.320
1000.741;   49.787;  -10.260;  742.700
1001.293;   49.091;   -8.860;  686.020
1001.845;   49.089;  -13.700;  676.640
1002.396;   49.567;  -12.100;  743.400
1002.948;   48.640;  -12.760;  737.400
1003.500;   46.694;  -10.380;  723.780
1004.051;   48.182;  -11.900;  907.580
1004.603;   46.907;  -12.250;  791.820
1005.154;   42.986;  -13.210;  608.980
1005.705;   41.750;  -10.950;  723.960
1006.257;   42.036;  -13.880;  707.220
1006.808;   42.145;  -12.840;  685.460
1007.359;   40.814;  -10.570;  763.240
1007.910;   39.700;   -9.620;  646.640
1008.461;   39.635;  -13.630;  732.940
1009.013;   39.381;  -17.200;  588.340
1009.564;   39.631;  -10.200;  793.520
1010.115;   36.790;  -12.570;  597.040
1010.665;   37.836;  -15.150;  602.160
1011.216;   38.018;  -14.480;  667.920
1011.767;   36.760;  -11.340;  697.920
1012.318;   35.456;   -9.780;  736.980
1012.869;   36.354;  -12.380;  679.000
1013.419;   35.919;  -15.560;  603.120
1013.970;   35.961;  -11.010;  666.640
1014.521;   34.538;  -11.610;  620.620
1015.071;   34.965;  -13.450;  670.380
1015.622;   35.755;  -13.870;  635.460
1016.172;   34.635;  -11.610;  596.820
1016.723;   33.161;  -12.120;  614.380
1017.273;   33.396;  -13.620;  604.160
1017.823;   34.272;  -14.140;  650.340
1018.374;   32.659;  -12.800;  611.760
1018.924;   32.329;  -12.340;  716.880
1019.474;   33.490;  -11.410;  718.880
1020.024;   33.030;  -14.770;  657.580
1020.574;   32.694;   -9.780;  726.160
1021.124;   32.267;   -8.560;  673.580
1021.674;   31.101;  -15.190;  559.120
1022.224;   33.701;  -13.530;  708.940
1022.774;   32.209;  -13.280;  668.820
1023.324;   31.691;  -10.690;  753.520
1023.874;   33.398;  -10.240;  875.760
1024.423;   31.868;  -12.540;  613.700
1024.973;   30.450;  -10.010;  610.760
1025.523;   29.455;  -10.550;  620.960
1026.072;   29.641;  -13.560;  606.420
1026.622;   30.292;  -15.120;  675.740
1027.172;   30.466;  -11.260;  715.660
1027.721;   28.184;  -11.410;  601.220
1028.270;   29.659;  -13.530;  663.400
1028.820;   30.066;  -13.680;  638.080
1029.369;   29.433;  -13.520;  612.700
1029.918;   28.923;  -10.980;  649.840
1030.468;   28.520;  -13.530;  564.780
1031.017;   29.561;  -13.170;  634.800
1031.566;   27.892;  -12.200;  608.900
1032.115;   27.517;   -9.960;  694.500
1032.664;   26.839;  -13.210;  596.480
1033.213;   29.139;  -12.500;  735.420
1033.762;   27.641;  -11.910;  635.620
1034.311;   27.573;   -9.640;  677.220
1034.860;   27.906;  -13.310;  691.000
1035.408;   28.374;  -11.830;  722.720
1035.957;   27.503;  -12.000;  719.540
1036.506;   24.925;  -11.690;  530.800
1037.055;   28.363;  -10.990;  844.320
1037.603;   27.835;  -15.120;  664.000
1038.152;   24.713;  -12.450;  534.760
1038.700;   24.562;  -10.560;  585.740
1039.249;   25.553;  -11.080;  681.220
1039.797;   25.791;  -12.540;  633.360
1040.345;   25.931;  -11.920;  705.420
1040.894;   24.768;  -11.410;  625.300
1041.442;   25.099;  -14.320;  632.200
1041.990;   24.800;  -16.240;  559.160
1042.538;   23.692;  -11.680;  536.180
1043.087;   22.954;  -10.760;  570.860
1043.635;   24.905;  -11.850;  670.500
1044.183;   25.235;  -15.480;  586.400
1044.731;   23.468;  -11.770;  576.000
1045.279;   22.413;  -13.090;  674.920
1045.827;   25.734;  -12.440;  892.400
1046.374;   23.650;  -13.840;  515.420
1046.922;   22.499;  -13.220;  590.580
1047.470;   23.535;  -10.230;  691.300
1048.018;   23.416;  -14.590;  647.960
1048.565;   25.081;  -12.050;  708.600
1049.113;   22.045;  -11.650;  557.000
1049.660;   21.816;  -10.510;  629.660
1050.208;   23.224;  -13.310;  675.640
1050.755;   22.099;  -15.900;  606.580
1051.303;   22.546;  -11.430;  686.820
1051.850;   20.960;   -8.480;  635.120
1052.397;   19.989;  -15.010;  473.960
1052.945;   21.725;  -13.960;  617.760
1053.492;   22.374;  -13.150;  741.840
1054.039;   21.529;   -9.630;  720.180
1054.586;   20.534;  -13.680;  557.240
1055.133;   21.711;  -14.570;  693.140
1055.680;   21.427;  -13.820;  646.620
1056.227;   19.067;  -11.730;  542.780
1056.774;   21.906;  -12.480;  794.980
1057.321;   20.404;  -13.930;  523.260
1057.868;   19.663;  -11.690;  651.320
1058.415;   19.586;   -9.520;  651.980
1058.961;   20.468;  -13.160;  678.940
1059.508;   20.825;  -12.920;  643.820
1060.055;   19.488;  -11.920;  581.780
1060.601;   19.442;  -11.500;  624.300
1061.148;   19.996;  -14.330;  616.820
1061.694;   19.724;  -16.870;  592.580
1062.241;   19.173;  -10.330;  596.320
1062.787;   18.632;  -10.620;  663.140
1063.334;   20.214;  -10.110;  808.560
1063.880;   19.968;  -13.400;  668.360
1064.426;   19.140;  -10.680;  706.820
1064.972;   17.817;   -9.920;  601.340
1065.518;   18.024;  -10.980;  566.640
1066.065;   19.650;  -14.890;  624.460
1066.611;   17.115;  -12.870;  598.800
1067.157;   17.651;  -12.950;  641.860
1067.703;   18.104;  -13.540;  668.480
1068.249;   18.097;  -13.540;  605.220
1068.794;   17.499;  -12.600;  626.880
1069.340;   15.487;  -10.620;  578.960
1069.886;   17.010;  -12.830;  590.700
1070.432;   16.968;  -14.870;  541.720
1070.977;   16.140;  -11.980;  601.080
1071.523;   15.770;   -8.200;  573.060
1072.068;   17.102;  -12.330;  582.000
1072.614;   17.234;  -16.370;  527.760
1073.160;   17.213;  -11.100;  687.040
1073.705;   15.092;  -10.480;  572.520
1074.250;   15.697;  -14.520;  559.900
1074.796;   17.226;  -11.460;  655.160
1075.341;   16.124;  -11.950;  664.100
1075.886;   15.093;  -11.460;  594.240
1076.431;   15.352;  -13.770;  649.880
1076.976;   16.277;  -12.680;  639.220
1077.521;   15.102;  -13.170;  583.080
1078.067;   14.004;  -10.860;  579.400
1078.612;   15.380;  -13.920;  661.620
1079.156;   16.007;  -13.880;  601.540
1079.701;   15.404;  -13.120;  693.260
1080.246;   15.452;   -9.940;  696.300
1080.791;   14.938;  -14.740;  625.020
1081.336;   15.303;  -13.750;  659.320
1081.880;   14.273;  -13.400;  649.680
1082.425;   13.351;  -12.220;  573.480
1082.970;   14.689;  -11.610;  717.040
1083.514;   14.458;  -13.580;  597.000
1084.059;   12.906;  -12.810;  586.720
1084.603;   12.730;  -12.320;  565.840
1085.147;   13.553;  -13.190;  645.220
1085.692;   14.960;  -12.480;  716.800
1086.236;   12.735;  -13.020;  503.140
1086.780;   14.207;   -9.190;  751.440
1087.325;   14.186;  -12.480;  654.620
1087.869;   14.384;  -12.450;  610.700
1088.413;   13.772;  -12.240;  705.040
1088.957;   11.199;   -9.020;  543.400
1089.501;   14.221;  -10.320;  766.640
1090.045;   14.284;  -12.720;  726.480
1090.589;   11.289;  -13.690;  569.920
1091.133;   12.253;  -10.020;  673.340
1091.676;   12.530;  -12.330;  591.940
1092.220;   12.576;  -14.970;  600.920
1092.764;   13.335;  -12.430;  706.960
1093.307;   11.721;   -9.800;  673.780
1093.851;   10.823;  -14.970;  556.540
1094.395;   13.353;  -15.310;  683.140
1094.938;   11.268;  -10.370;  632.520
1095.482;   11.019;  -11.050;  559.800
1096.025;   11.535;  -11.840;  710.880
1096.568;   13.311;  -12.840;  779.280
1097.112;    9.851;  -14.700;  508.180
1097.655;   10.830;   -8.720;  603.000
1098.198;    9.857;  -13.610;  600.180
1098.741;   10.936;  -13.350;  612.860
1099.285;   10.450;  -11.230;  657.300
1099.828;    8.683;  -11.840;  439.400
1100.371;   10.857;  -10.840;  608.160
1100.914;   11.137;  -14.190;  682.660
1101.457;   10.101;  -11.240;  679.900
1101.999;    8.610;  -11.270;  584.680
1102.542;    9.266;  -11.480;  641.440
1103.085;   10.508;  -11.750;  658.500
1103.628;   10.264;  -11.400;  762.060
1104.170;    8.569;  -10.490;  588.280
1104.713;    9.722;  -10.600;  646.700
1105.256;    9.791;  -14.360;  557.440
1105.798;    9.291;  -13.210;  499.980
1106.341;    9.936;  -10.270;  728.900
1106.883;    9.525;  -12.200;  521.340
1107.425;    9.740;  -13.110;  668.180
1107.968;    8.668;  -12.840;  612.380
1108.510;    7.865;   -6.480;  684.960
1109.052;    7.654;  -13.940;  612.620
1109.594;    8.951;  -13.690;  554.440
1110.136;    8.832;  -11.880;  643.220
1110.679;    6.929;   -9.500;  633.080
1111.221;    8.346;  -14.160;  604.460
1111.763;    8.318;  -13.980;  559.220
1112.304;    7.847;  -13.880;  547.140
1112.846;    7.669;  -12.210;  666.240
1113.388;   10.568;  -11.390;  942.180
1113.930;    8.705;  -14.540;  694.200
1114.472;    7.297;  -12.640;  606.540
1115.013;    5.367;  -11.620;  551.280
1115.555;    7.134;  -13.640;  587.100
1116.097;    7.103;  -15.380;  579.480
1116.638;    7.506;  -12.640;  684.600
1117.180;    6.835;   -9.850;  667.740
1117.721;    7.106;  -13.690;  568.580
1118.262;    8.650;  -12.680;  677.960
1118.804;    8.412;  -12.530;  637.340
1119.345;    5.907;  -11.690;  578.400
1119.886;    8.288;  -13.380;  704.040
1120.427;    6.760;  -14.070;  589.020
1120.969;    5.978;  -13.500;  597.920
1121.510;    4.973;  -11.480;  563.060
1122.051;    6.755;  -12.830;  723.580
1122.592;    6.443;  -14.290;  655.420
1123.133;    4.699;  -12.400;  547.940
1123.673;    6.190;  -10.130;  706.480
1124.214;    5.998;  -12.930;  612.460
1124.755;    7.151;  -14.380;  639.460
1125.296;    5.908;  -14.000;  627.320
1125.836;    5.882;  -10.070;  691.500
1126.377;    5.642;  -12.640;  599.660
1126.918;    6.999;  -12.960;  614.980
1127.458;    5.209;  -13.350;  622.220
1127.999;    4.768;  -10.750;  656.980
1128.539;    5.655;  -12.350;  694.240
1129.079;    5.363;  -14.860;  632.720
1129.620;    4.493;  -13.840;  558.100
1130.160;    4.168;  -12.330;  539.480
1130.700;    5.075;  -14.530;  640.840
1131.240;    6.627;  -12.530;  643.700
1131.781;    3.924;  -14.450;  619.680
1132.321;    3.750;   -9.790;  599.120
1132.861;    3.159;  -14.860;  564.200
1133.401;    4.229;  -14.290;  593.940
1133.941;    4.415;  -11.750;  626.280
1134.481;    3.499;   -9.920;  597.580
1135.020;    3.340;  -12.290;  609.160
1135.560;    5.183;  -11.650;  674.940
1136.100;    3.709;  -16.270;  501.160
1136.640;    2.064;  -10.890;  510.480
1137.179;    3.304;  -14.180;  537.960
1137.719;    3.880;  -16.250;  605.400
1138.258;    4.031;  -14.230;  587.360
1138.798;    3.089;   -9.090;  663.780
1139.337;    1.973;  -15.130;  482.840
1139.877;    4.144;  -13.680;  642.360
1140.416;    5.950;  -11.320;  878.060
1140.955;    1.572;  -10.860;  535.380
1141.494;    3.283;  -12.920;  669.280
1142.034;    3.735;  -13.930;  583.520
1142.573;    4.030;  -11.440;  646.280
1143.112;    1.432;  -12.000;  553.480
1143.651;    2.178;  -13.670;  536.480
1144.190;    3.753;  -12.730;  691.640
1144.729;    3.098;  -14.560;  607.420
1145.267;    1.941;  -11.830;  584.900
1145.806;    3.127;  -12.230;  637.040
1146.345;    2.570;  -14.130;  635.020
1146.884;    1.505;  -11.590;  622.500
1147.422;    0.432;  -12.550;  533.060
1147.961;    2.968;  -11.180;  708.460
1148.500;    3.204;  -11.510;  669.720
1149.038;    3.271;  -11.640;  632.500
1149.577;    2.033;  -10.130;  698.640
1150.115;   -0.035;  -13.970;  452.280
1150.653;    3.133;  -14.520;  607.340
1151.192;    2.543;  -12.810;  552.920
1151.730;    0.811;   -9.100;  652.560
1152.268;    0.767;  -12.220;  589.520
1152.806;    2.017;  -14.140;  571.180
1153.344;    0.267;  -12.350;  577.640
1153.882;    0.855;   -8.980;  600.060
1154.421;    0.202;  -15.190;  470.620
1154.958;    0.657;  -15.210;  595.240
1155.496;    2.347;  -12.850;  645.280
1156.034;    0.867;   -9.940;  721.880
1156.572;    2.172;  -13.570;  667.060
1157.110;    0.979;  -14.590;  473.940
1157.647;    1.314;  -13.030;  676.960
1158.185;   -0.110;  -12.140;  564.320
1158.723;   -0.496;  -14.390;  509.200
1159.260;    0.877;  -14.090;  701.700
1159.798;    1.452;  -11.920;  658.160
1160.335;   -0.237;  -11.110;  631.820

