
Integration time [ms]:   3.276
Averaging Nr. [scans]: 1000
Smoothing Nr. [pixels]: 0
Data measured with spectrometer [name]: 7414430SP
Wave   ;Sample   ;Dark     ;Reference
[nm]   ;[counts] ;[counts] ;[counts] 

288.544;  151.792;    7.793;  793.890
289.143;  155.017;    7.462;  681.602
289.742;  155.250;    8.602;  828.814
290.341;  140.609;    1.321;  789.841
290.940;  129.477;   -0.709;  730.702
291.538;  130.591;    0.881;  881.108
292.137;  131.003;    0.122;  792.581
292.736;  135.267;   -1.929;  975.101
293.335;  131.262;   -8.229;  735.086
293.934;  132.320;   -5.279;  781.677
294.532;  130.045;   -1.369; 1031.958
295.131;  116.940;   -7.641;  834.394
295.730;  116.891;   -8.420;  809.588
296.328;  115.700;   -5.611;  783.442
296.927;  116.784;   -5.781;  779.652
297.525;  117.574;   -6.361;  781.236
298.124;  107.428;  -11.382;  654.009
298.722;  112.029;   -7.641;  761.933
299.321;  109.355;   -6.811;  708.597
299.919;  107.802;   -6.991;  751.918
300.518;  104.278;  -10.362;  689.338
301.116;  106.579;   -9.581;  691.381
301.715;  106.586;   -4.891;  730.222
302.313;  104.522;   -8.801;  704.943
302.911;   99.845;   -8.522;  733.830
303.509;  105.333;   -6.171;  925.627
304.108;  103.603;   -7.311;  760.383
304.706;  102.699;   -8.321;  801.664
305.304;   97.214;  -10.222;  796.707
305.902;  103.535;   -6.021;  784.484
306.500;   97.431;   -4.971;  728.200
307.098;   96.553;   -7.061;  746.560
307.696;   95.182;   -8.801;  780.432
308.294;   95.786;   -6.411;  731.359
308.892;   97.126;   -2.901;  759.769
309.490;   92.814;   -5.041;  712.161
310.088;   91.485;   -5.002;  788.444
310.686;   95.256;   -2.041;  821.749
311.284;   91.945;   -2.351;  766.040
311.882;   89.040;   -4.422;  731.225
312.480;   86.177;   -4.192;  697.167
313.078;   87.937;   -1.172;  808.331
313.675;   89.208;   -2.601;  691.600
314.273;   83.167;   -1.312;  797.837
314.871;   82.706;   -3.942;  589.829
315.468;   81.571;   -2.802;  652.090
316.066;   84.052;   -0.701;  694.427
316.664;   77.361;   -4.362;  656.351
317.261;   80.788;   -2.872;  910.128
317.859;   76.830;   -2.022;  768.735
318.456;   76.482;   -0.531;  830.096
319.054;   72.538;   -3.912;  787.828
319.651;   71.236;   -4.752;  759.928
320.249;   70.695;   -2.602;  810.188
320.846;   67.751;   -0.821;  714.286
321.443;   65.583;   -4.642;  832.135
322.041;   61.851;   -5.002;  812.315
322.638;   60.948;   -3.982;  701.456
323.235;   62.485;   -3.411;  665.683
323.833;   59.045;   -7.361;  740.354
324.430;   54.035;   -8.611;  615.900
325.027;   55.529;   -4.061;  876.855
325.624;   54.686;   -4.031;  644.532
326.221;   52.616;   -7.481;  689.717
326.818;   51.668;   -5.281;  818.332
327.415;   55.503;   -7.460;  748.828
328.012;   55.173;   -5.510;  690.585
328.609;   52.838;   -7.880;  731.389
329.206;   51.547;   -8.331;  778.621
329.803;   52.012;   -5.121;  737.841
330.400;   54.462;   -4.510;  704.260
330.997;   55.291;   -6.441;  817.147
331.594;   54.417;   -8.831;  788.185
332.191;   59.288;   -7.621;  728.722
332.787;   62.354;   -4.591;  844.463
333.384;   61.566;   -7.412;  763.093
333.981;   59.182;   -8.293;  815.687
334.578;   61.444;   -7.052;  708.378
335.174;   64.700;   -3.102;  731.469
335.771;   64.614;   -5.943;  836.456
336.367;   60.993;   -7.393;  710.631
336.964;   65.732;   -4.063;  793.266
337.561;   63.325;   -3.813;  731.112
338.157;   58.855;   -4.654;  911.916
338.754;   56.394;   -7.934;  796.589
339.350;   54.509;   -4.414;  722.493
339.946;   56.939;   -4.664;  773.135
340.543;   47.919;   -6.375;  846.136
341.139;   42.943;   -9.815;  720.836
341.735;   41.065;   -4.526;  772.593
342.332;   39.740;   -4.895;  691.472
342.928;   39.919;   -4.295;  795.394
343.524;   34.222;   -5.476;  761.684
344.120;   31.197;   -5.856;  738.562
344.716;   33.673;   -2.155;  723.717
345.313;   31.621;   -6.275;  795.342
345.909;   26.782;   -8.815;  627.336
346.505;   27.347;   -5.305;  740.247
347.101;   28.513;   -2.674;  827.864
347.697;   29.257;   -4.344;  785.398
348.293;   23.523;   -9.975;  627.244
348.889;   25.069;   -5.774;  745.914
349.485;   23.888;   -5.004;  688.205
350.081;   25.037;   -4.704;  772.592
350.676;   19.293;   -6.635;  691.606
351.272;   23.646;   -4.504;  809.530
351.868;   23.771;   -3.914;  780.497
352.464;   21.069;   -9.044;  723.932
353.059;   17.007;   -8.314;  646.017
353.655;   21.369;   -7.024;  777.063
354.251;   22.292;   -5.343;  759.845
354.846;   16.396;   -8.604;  740.646
355.442;   14.249;   -6.945;  753.071
356.038;   16.225;   -7.564;  751.708
356.633;   16.468;   -5.814;  728.594
357.229;   13.322;   -7.364;  724.757
357.824;   12.463;   -8.024;  703.600
358.420;   11.684;   -9.384;  679.726
359.015;   12.322;   -5.104;  695.357
359.610;   13.199;   -6.854;  763.920
360.206;    7.241;  -10.185;  603.240
360.801;   10.232;   -7.054;  646.503
361.396;   12.695;   -5.034;  725.975
361.992;    7.215;   -8.284;  668.220
362.587;    4.976;   -8.625;  670.160
363.182;    7.029;   -7.674;  689.631
363.777;    8.063;   -5.164;  738.242
364.372;    7.190;   -8.604;  737.314
364.967;    3.202;   -9.055;  680.744
365.563;    7.548;   -6.114;  815.567
366.158;    4.623;   -5.814;  685.161
366.753;    5.736;   -7.854;  649.263
367.348;    3.610;   -7.804;  746.056
367.942;    3.768;   -7.954;  697.298
368.537;    2.757;   -4.984;  754.245
369.132;    3.156;   -8.564;  703.428
369.727;   -1.371;   -8.855;  638.079
370.322;    0.686;   -6.245;  580.186
370.917;    0.424;   -6.425;  710.646
371.511;    2.814;   -6.294;  861.834
372.106;   -0.737;   -7.685;  776.964
372.701;   -3.501;   -7.335;  585.988
373.296;    1.468;   -4.564;  863.135
373.890;   -3.282;  -10.235;  647.840
374.485;   -5.608;   -7.885;  691.199
375.079;   -0.801;   -7.324;  738.685
375.674;   -0.343;   -3.494;  812.970
376.268;   -3.653;   -8.525;  691.759
376.863;  -10.522;  -10.086;  580.327
377.457;   -3.174;   -7.025;  662.490
378.052;   -5.083;   -3.585;  764.884
378.646;   -6.576;   -7.595;  741.167
379.240;   -6.354;   -8.335;  721.176
379.835;   -5.200;   -5.785;  636.978
380.429;   -7.431;   -4.335;  562.557
381.023;   -8.266;   -6.805;  779.205
381.617;   -9.914;   -9.195;  680.106
382.212;   -6.373;   -6.905;  685.303
382.806;   -5.696;   -3.745;  760.690
383.400;  -10.215;   -7.745;  672.281
383.994;  -11.416;   -9.765;  664.870
384.588;   -7.494;   -6.564;  697.701
385.182;   -5.682;   -5.344;  726.624
385.776;   -7.397;   -8.514;  706.875
386.370;  -11.063;   -9.555;  681.968
386.964;   -9.296;   -8.715;  684.155
387.558;   -7.089;   -6.174;  598.360
388.152;  -10.694;   -8.725;  681.959
388.745;   -9.071;   -7.965;  814.707
389.339;   -7.736;   -5.924;  747.642
389.933;   -6.448;   -5.524;  695.370
390.527;   -7.625;   -7.114;  859.029
391.120;  -13.301;  -10.725;  595.318
391.714;  -10.959;   -8.035;  711.633
392.308;   -7.470;   -3.574;  780.253
392.901;  -10.270;   -7.245;  642.460
393.495;  -13.766;   -9.285;  595.414
394.089;  -10.162;   -5.895;  760.452
394.682;  -11.189;   -4.295;  697.188
395.275;  -12.001;   -9.875;  719.927
395.869;  -13.221;   -8.485;  667.314
396.462;  -11.888;   -7.455;  616.609
397.056;   -8.581;   -5.424;  776.621
397.649;  -12.914;   -6.605;  731.575
398.242;  -10.607;   -8.224;  712.645
398.836;   -8.843;   -7.474;  766.408
399.429;  -10.100;   -7.094;  631.041
400.022;  -13.931;   -9.475;  665.902
400.615;  -11.366;   -7.145;  805.609
401.208;   -9.415;   -7.174;  691.451
401.802;  -11.653;   -5.515;  699.329
402.395;  -12.178;   -9.875;  683.502
402.988;  -13.794;   -8.845;  696.627
403.581;  -10.148;   -8.874;  646.878
404.174;   -7.365;   -5.324;  686.568
404.767;  -10.816;   -9.575;  638.583
405.360;  -14.108;  -10.965;  621.445
405.953;   -8.402;   -8.764;  759.034
406.545;   -7.381;   -7.514;  725.342
407.138;  -11.143;  -10.025;  618.350
407.731;  -10.035;  -10.034;  613.303
408.324;   -6.041;   -9.374;  660.554
408.917;   -7.107;   -6.534;  681.864
409.509;   -9.432;   -8.004;  740.396
410.102;  -11.573;   -9.875;  643.948
410.695;   -4.740;   -8.604;  665.758
411.287;   -6.296;   -6.794;  599.821
411.880;   -6.955;   -9.334;  585.421
412.472;  -10.467;  -10.254;  613.092
413.065;   -6.961;   -6.714;  629.408
413.657;   -5.031;   -7.234;  576.678
414.250;   -5.364;  -10.544;  646.681
414.842;   -6.673;   -9.744;  676.353
415.434;   -5.176;   -6.994;  570.463
416.027;   -0.635;   -5.893;  652.196
416.619;   -2.744;   -7.264;  713.400
417.211;   -3.393;  -10.374;  599.352
417.804;   -0.232;   -7.993;  628.499
418.396;   -3.615;   -7.234;  607.643
418.988;   -1.572;   -9.443;  659.238
419.580;   -4.662;  -10.724;  568.276
420.172;   -2.594;  -10.323;  536.196
420.764;    2.097;   -8.793;  672.482
421.356;    0.592;  -11.143;  636.898
421.948;   -0.590;   -8.293;  677.661
422.540;    5.104;   -7.893;  680.027
423.132;    4.216;   -7.082;  600.641
423.724;    0.947;   -8.653;  561.267
424.316;    3.108;  -10.213;  621.345
424.908;    5.997;   -9.762;  591.517
425.500;    6.671;   -5.572;  647.978
426.092;    7.570;   -8.422;  648.268
426.683;    6.192;   -9.283;  684.836
427.275;    9.620;   -7.852;  641.471
427.867;   11.150;   -5.272;  668.948
428.458;   10.876;   -7.682;  732.344
429.050;   10.050;  -10.612;  680.749
429.642;   12.008;   -9.882;  743.124
430.233;   12.765;   -6.962;  569.356
430.825;   14.667;   -6.842;  724.809
431.416;   11.263;   -9.672;  698.241
432.008;   14.877;   -6.552;  651.723
432.599;   16.355;   -6.891;  656.073
433.190;   12.279;  -10.912;  637.670
433.782;   12.012;  -11.172;  590.395
434.373;   19.705;   -6.061;  884.765
434.964;   18.094;   -8.251;  602.920
435.556;   15.939;   -9.722;  634.537
436.147;   18.346;   -9.082;  758.490
436.738;   18.630;   -8.041;  701.099
437.329;   23.958;   -7.341;  721.723
437.920;   16.829;   -8.162;  666.688
438.511;   16.581;  -11.802;  564.526
439.103;   24.398;  -10.191;  623.998
439.694;   25.449;   -7.601;  681.583
440.285;   26.030;   -8.541;  764.432
440.876;   24.036;   -9.751;  845.738
441.466;   24.318;   -9.401;  575.162
442.057;   28.994;   -7.760;  665.814
442.648;   28.092;   -9.971;  746.255
443.239;   26.688;  -11.001;  620.477
443.830;   31.364;   -7.990;  704.958
444.421;   33.805;   -7.910;  655.474
445.011;   30.134;   -8.131;  693.619
445.602;   29.297;   -7.111;  743.126
446.193;   31.470;  -10.920;  488.117
446.783;   36.085;   -6.500;  640.397
447.374;   31.614;   -8.671;  692.759
447.964;   31.720;  -10.781;  713.770
448.555;   40.316;   -9.650;  822.742
449.145;   37.047;   -8.660;  662.853
449.736;   38.594;   -8.990;  803.179
450.326;   37.968;   -9.500;  713.626
450.917;   43.125;   -8.680;  675.324
451.507;   41.406;   -7.520;  600.661
452.097;   42.877;   -8.590;  746.267
452.688;   43.111;  -11.340;  742.160
453.278;   42.821;  -10.100;  566.840
453.868;   47.913;   -6.019;  793.550
454.458;   45.688;   -9.440;  651.141
455.048;   46.253;  -10.560;  711.783
455.639;   48.073;  -11.799;  567.096
456.229;   51.684;   -6.899;  710.694
456.819;   53.266;   -7.389;  751.158
457.409;   53.892;  -11.119;  773.993
457.999;   56.759;   -9.289;  737.505
458.589;   56.602;   -6.139;  686.606
459.179;   56.456;   -8.729;  717.658
459.769;   54.788;   -9.789;  627.099
460.358;   59.888;  -10.259;  797.262
460.948;   59.668;   -7.299;  689.503
461.538;   60.994;  -10.289;  660.677
462.128;   58.659;  -11.269;  664.934
462.717;   65.969;   -9.368;  710.326
463.307;   68.865;   -7.908;  705.846
463.897;   64.974;   -9.599;  656.942
464.486;   63.963;   -9.769;  837.128
465.076;   68.774;   -8.048;  733.776
465.666;   73.237;   -9.358;  652.900
466.255;   69.440;   -7.919;  785.651
466.845;   69.144;  -11.689;  666.749
467.434;   72.461;   -7.818;  725.873
468.023;   73.693;   -7.678;  658.357
468.613;   71.371;  -10.939;  713.946
469.202;   75.632;  -10.118;  646.507
469.791;   79.840;   -9.108;  737.811
470.381;   80.937;   -6.058;  742.813
470.970;   81.292;  -10.428;  711.099
471.559;   81.644;  -10.268;  733.291
472.148;   84.492;   -8.448;  675.737
472.738;   86.146;   -6.917;  765.466
473.327;   86.518;  -11.978;  637.529
473.916;   85.237;  -11.888;  737.446
474.505;   90.208;   -9.437;  751.703
475.094;   93.481;   -6.747;  806.570
475.683;   93.059;   -9.367;  797.699
476.272;   93.432;  -12.637;  730.632
476.861;   96.466;  -10.027;  706.754
477.449;  103.495;   -8.716;  728.487
478.038;   98.432;   -9.577;  692.513
478.627;   98.875;   -9.718;  714.852
479.216;  106.910;   -8.947;  769.441
479.805;  108.427;   -6.256;  783.375
480.393;  109.031;   -7.937; 1008.945
480.982;  107.000;   -7.717;  874.501
481.571;  113.107;   -9.266;  858.333
482.159;  114.635;   -7.636;  705.386
482.748;  114.452;   -9.667;  821.385
483.336;  118.298;  -10.376;  858.209
483.925;  119.787;   -7.147;  774.373
484.513;  126.499;   -7.996;  758.962
485.102;  123.925;  -10.027;  810.965
485.690;  132.880;  -10.446; 1011.050
486.278;  134.593;   -8.446;  979.329
486.867;  136.314;   -6.356;  809.662
487.455;  137.026;   -9.136;  898.229
488.043;  138.865;  -10.646;  748.361
488.631;  148.306;   -7.456; 1005.079
489.220;  151.630;   -6.636;  908.626
489.808;  152.482;  -11.036;  741.415
490.396;  160.634;  -10.246;  914.645
490.984;  168.280;   -8.556;  830.161
491.572;  178.190;   -5.886;  940.315
492.160;  184.833;   -9.486;  919.081
492.748;  198.738;  -10.976;  884.341
493.336;  223.609;   -8.776; 1019.693
493.924;  252.468;   -5.465;  958.077
494.512;  283.383;   -9.986; 1066.638
495.100;  325.306;  -10.636; 1103.280
495.687;  382.685;  -10.885; 1206.373
496.275;  450.538;   -8.126; 1150.796
496.863;  523.476;  -10.586; 1281.171
497.451;  628.905;  -11.926; 1386.805
498.038;  774.687;  -10.885; 1556.729
498.626;  889.750;   -6.315; 1741.407
499.214; 1047.887;   -7.326; 2016.609
499.801; 1252.444;  -11.906; 2220.633
500.389; 1510.559;  -10.466; 2312.494
500.976; 1841.011;   -5.236; 2744.849
501.564; 2291.080;   -8.936; 3148.565
502.151; 2677.637;  -13.176; 3515.999
502.738; 3144.793;  -10.646; 3971.274
503.326; 3540.825;   -9.525; 4403.796
503.913; 3936.063;  -10.856; 5161.749
504.500; 4280.126;  -11.586; 5986.420
505.088; 4745.272;  -10.336; 6381.201
505.675; 5310.694;   -6.355; 6925.547
506.262; 5980.775;   -9.046; 7619.060
506.849; 6711.438;  -10.416; 8733.969
507.436; 7253.875;  -10.305; 9790.121
508.023; 7884.242;   -5.496; 9985.472
508.610; 8119.644;   -7.856;10434.618
509.197; 8779.812;  -10.097;11198.435
509.784;10193.051;  -10.886;12391.194
510.371;11309.438;   -9.315;13603.713
510.958;12107.536;   -9.936;14426.586
511.545;12879.445;   -9.326;15243.775
512.132;13824.431;  -10.075;15945.876
512.719;14412.187;   -7.796;16340.369
513.305;15440.445;  -10.606;18011.766
513.892;16248.648;  -11.486;19754.971
514.479;17584.648;   -9.126;20967.805
515.066;19153.674;   -6.026;22299.793
515.652;20468.777;   -8.466;22908.660
516.239;21687.361;  -10.886;23798.875
516.825;22799.941;  -11.496;25567.275
517.412;23872.656;   -5.796;28154.959
517.998;24789.281;  -10.506;28344.111
518.585;24926.000;  -10.076;27134.219
519.171;25345.113;   -8.315;27268.576
519.758;26778.219;   -8.596;28964.129
520.344;28859.504;   -8.466;30664.494
520.930;29058.561;  -11.006;32550.605
521.516;30307.768;  -10.495;35422.895
522.103;32893.754;   -5.526;38280.004
522.689;33750.508;   -8.746;37835.117
523.275;33479.082;  -11.376;37288.613
523.861;34760.754;  -11.156;37281.395
524.447;36214.656;   -8.135;37846.949
525.033;35593.996;   -7.896;38321.949
525.619;35788.391;  -12.476;38579.285
526.205;37408.082;   -9.516;40622.875
526.791;40580.012;   -6.926;42258.836
527.377;40599.055;   -8.346;42966.902
527.963;42248.234;   -8.717;42018.949
528.549;41219.176;  -11.016;42476.828
529.135;39668.457;   -8.536;41854.852
529.721;38811.699;   -9.666;41237.711
530.306;38298.613;  -10.066;41259.445
530.892;38298.574;  -11.356;41506.047
531.478;39796.367;   -6.596;43559.613
532.063;42654.309;   -8.836;47695.563
532.649;43309.938;  -10.047;50808.324
533.235;44263.387;   -9.746;51787.500
533.820;45267.000;   -6.566;52145.035
534.406;46536.145;  -10.817;51133.488
534.991;46243.852;   -9.416;49996.805
535.576;44728.043;   -9.036;48882.852
536.162;45379.117;   -6.156;46942.285
536.747;46610.402;  -11.607;45711.746
537.333;50056.184;  -11.787;48510.180
537.918;53648.828;  -12.437;50439.891
538.503;52251.457;   -7.196;50863.711
539.088;48645.531;  -10.556;50906.922
539.673;48802.816;   -8.767;52621.965
540.259;48595.652;  -10.026;52368.094
540.844;45697.555;   -7.416;50879.109
541.429;46770.387;   -9.467;52077.777
542.014;50177.504;   -9.527;52716.695
542.599;50101.066;   -9.946;52363.281
543.184;47035.840;   -7.927;53187.137
543.769;48084.867;   -9.297;54697.605
544.354;47834.895;  -10.127;53913.914
544.938;46707.180;   -9.267;49680.164
545.523;48764.430;   -6.506;47386.277
546.108;51235.117;   -9.787;49151.949
546.693;53594.910;  -11.587;51384.637
547.278;53730.969;  -10.986;51853.254
547.862;50548.016;   -8.206;51173.750
548.447;45868.480;  -10.067;51691.395
549.031;44996.602;   -9.637;52456.703
549.616;49696.426;   -9.926;52714.516
550.201;48916.047;   -6.347;52414.598
550.785;49870.156;   -7.917;52355.059
551.370;49204.867;  -10.867;54589.453
551.954;49084.332;   -9.047;58267.348
552.538;50354.938;   -7.827;59062.176
553.123;48630.391;  -10.287;58115.285
553.707;45922.844;  -12.178;56556.285
554.291;46855.570;   -8.717;56201.668
554.876;49191.086;   -7.457;55335.762
555.460;49747.902;  -10.387;54155.703
556.044;51477.852;   -9.618;53721.484
556.628;49507.602;  -11.567;53731.016
557.212;47875.250;   -8.097;54312.531
557.796;45734.352;  -11.077;53797.773
558.380;46090.828;  -11.108;56145.984
558.964;47103.590;   -9.057;57277.930
559.548;48310.910;   -6.977;56459.641
560.132;45934.406;  -11.457;54434.543
560.716;44622.801;  -11.378;54800.617
561.300;45569.820;   -9.577;57606.945
561.884;46528.020;   -7.127;58972.445
562.467;44824.117;   -7.118;57327.570
563.051;44378.586;  -13.358;54962.434
563.635;45437.926;  -10.178;52594.473
564.219;45642.273;   -7.837;50610.410
564.802;46238.797;  -11.398;49551.180
565.386;46325.371;  -12.788;48370.953
565.969;46203.496;   -9.077;48178.871
566.553;44759.785;   -6.207;49957.305
567.136;45080.691;   -8.568;50369.594
567.720;41429.453;  -11.868;49492.004
568.303;39540.621;   -8.268;50616.352
568.887;39436.023;   -8.698;50727.148
569.470;39739.559;   -6.808;51698.379
570.053;39075.066;  -13.188;52122.078
570.637;37190.953;  -12.037;52536.438
571.220;36483.887;   -8.577;51186.098
571.803;36803.273;   -8.498;51032.762
572.386;38920.391;  -10.498;49609.887
572.969;41615.293;   -9.388;48285.926
573.552;40204.867;   -8.338;47624.285
574.135;38963.363;   -8.518;45498.641
574.718;36399.746;  -13.628;41970.434
575.301;35254.098;  -10.893;41447.137
575.884;34108.449;   -8.158;40923.836
576.467;35254.262;  -10.328;45267.723
577.050;37231.031;  -13.058;48175.543
577.633;39127.695;   -9.458;47729.328
578.216;38197.949;   -8.928;47579.793
578.799;36999.082;   -9.358;47820.996
579.381;35740.398;  -11.388;48115.551
579.964;33813.887;  -11.718;47333.766
580.547;35279.867;   -8.588;46668.969
581.129;36192.664;   -8.859;44466.141
581.712;36910.195;  -10.729;44164.922
582.294;37687.953;  -11.118;46477.855
582.877;37808.477;   -5.218;48244.254
583.459;35708.664;   -8.679;47437.895
584.042;33607.801;  -10.709;46943.219
584.624;33685.422;  -11.669;46792.227
585.206;33281.223;   -8.218;46557.250
585.789;33496.500;  -10.569;45793.773
586.371;36364.395;  -11.859;43836.391
586.953;37345.445;  -10.719;42972.492
587.536;38309.617;   -7.198;42487.211
588.118;38605.844;   -8.720;42086.414
588.700;34629.000;  -10.439;43389.930
589.282;33508.777;   -9.198;43646.039
589.864;34206.238;   -9.199;43438.109
590.446;35494.879;  -11.319;43151.926
591.028;35490.766;  -11.159;42781.867
591.610;34298.871;  -11.779;42839.098
592.192;31274.988;   -7.668;42820.402
592.774;29684.689;  -11.949;40724.277
593.356;28653.625;  -12.129;39874.789
593.937;28084.271;  -10.669;39980.648
594.519;30181.088;   -6.509;42069.633
595.101;32477.854;  -10.849;42976.031
595.683;32725.590;  -11.679;44084.441
596.264;33621.891;   -9.049;43478.797
596.846;32939.973;   -8.849;43803.672
597.427;32501.162;   -9.570;42986.934
598.009;34220.648;  -12.620;42832.219
598.591;34625.242;  -10.039;42580.086
599.172;33789.180;  -10.369;43061.805
599.753;33765.965;   -9.140;41691.469
600.335;35331.777;  -11.430;40692.520
600.916;33823.898;   -9.939;39982.422
601.498;31473.570;   -8.479;40318.617
602.079;30041.326;  -10.920;40670.609
602.660;29762.814;  -11.480;41450.898
603.241;31206.592;  -11.699;41137.738
603.823;30011.391;   -9.579;38868.797
604.404;29472.973;  -10.620;38182.785
604.985;31043.129;  -10.450;38078.047
605.566;30713.711;   -9.129;38056.633
606.147;30586.609;   -7.510;37020.418
606.728;32607.865;  -10.660;37883.359
607.309;31534.982;  -11.740;38748.273
607.890;30884.127;   -9.759;38850.230
608.471;30327.313;   -8.250;37457.918
609.051;29664.734;   -9.240;36066.457
609.632;28599.736;  -12.120;35991.074
610.213;29292.537;   -9.110;37402.641
610.794;30162.881;   -8.030;38383.363
611.374;29587.541;   -8.110;40562.387
611.955;30104.555;  -13.560;38533.727
612.536;31736.318;  -11.400;36951.789
613.116;31214.393;   -8.070;37197.891
613.697;31418.648;  -10.830;38411.125
614.277;29660.342;  -11.641;38673.938
614.858;30669.980;  -13.310;37075.863
615.438;30270.299;   -7.460;35092.906
616.019;27578.867;   -7.601;33666.301
616.599;28033.283;  -12.020;34189.023
617.179;30003.008;  -11.780;36952.047
617.760;30799.336;   -8.570;39582.574
618.340;31816.617;  -11.471;38943.977
618.920;33437.980;  -11.170;37594.156
619.500;33340.137;  -11.071;37866.938
620.080;32354.092;   -7.750;37869.043
620.660;33241.449;  -12.711;36868.617
621.241;34417.738;  -10.211;36352.309
621.821;34605.605;  -10.961;35459.520
622.401;33913.746;   -7.720;35207.414
622.980;32885.664;   -8.981;35980.422
623.560;31433.252;   -9.331;37351.328
624.140;30418.592;   -9.850;34388.582
624.720;25512.254;   -7.451;32368.764
625.300;21842.693;   -9.070;32638.629
625.880;25200.293;  -12.601;34599.035
626.459;29057.770;  -11.751;36831.738
627.039;32121.334;   -9.281;38299.098
627.619;32299.443;   -8.801;38289.574
628.198;30597.104;  -12.071;37220.695
628.778;29592.783;   -9.461;37632.563
629.357;30252.926;   -8.491;38003.012
629.937;30241.654;   -9.721;38402.039
630.516;29757.857;   -9.951;37868.801
631.096;29750.166;  -11.731;35760.410
631.675;32391.004;   -8.572;35225.219
632.254;37779.746;  -11.282;35130.289
632.834;37089.676;  -13.322;35794.570
633.413;35104.152;  -10.301;35788.922
633.992;32360.654;   -8.582;34532.863
634.571;33339.453;   -8.352;33590.113
635.151;36260.086;  -11.912;34943.863
635.730;34898.484;  -10.511;35352.523
636.309;31244.053;   -7.731;35366.605
636.888;28380.197;   -9.952;36165.637
637.467;28833.377;  -11.672;37515.902
638.046;30714.307;   -8.901;39288.695
638.625;33892.996;   -7.912;38279.699
639.204;33673.004;  -10.022;37741.598
639.782;32077.734;  -12.252;38364.551
640.361;28488.250;  -10.041;36740.621
640.940;25661.693;  -11.161;34950.082
641.519;26022.980;   -9.701;34137.398
642.097;28452.588;  -11.271;35654.258
642.676;31522.227;   -8.651;35637.957
643.255;32701.541;   -8.711;36567.074
643.833;31888.891;   -9.581;37809.434
644.412;32230.477;  -13.711;37337.293
644.990;31326.855;  -11.811;37018.531
645.569;30861.064;   -9.411;36518.469
646.147;30112.527;  -10.291;36186.430
646.726;29785.418;  -12.401;36267.688
647.304;30798.213;  -10.411;36647.625
647.882;32687.428;   -9.651;39286.742
648.461;34501.660;   -9.631;39157.703
649.039;32872.758;  -11.881;35412.883
649.617;31922.381;   -9.661;34744.918
650.195;31476.654;   -9.301;35403.098
650.773;30371.746;  -10.511;35053.797
651.352;27738.010;  -11.521;33756.816
651.930;25355.783;  -12.211;31868.773
652.508;23796.678;   -9.171;33121.551
653.086;27807.627;   -9.371;33564.793
653.663;30903.789;  -13.161;34054.668
654.241;29546.885;  -13.031;35693.309
654.819;30943.613;   -9.371;36422.906
655.397;30864.303;  -10.511;38213.484
655.975;30553.414;  -10.371;39507.625
656.553;30618.746;  -10.051;39498.223
657.130;28942.914;  -10.061;40395.480
657.708;28185.434;   -9.561;39242.020
658.286;28406.449;  -11.511;38920.020
658.863;29665.543;  -10.261;40202.898
659.441;32533.465;   -7.531;39677.938
660.018;32015.785;   -9.501;40413.355
660.596;30750.590;  -13.301;39931.414
661.173;32450.469;  -11.211;39604.531
661.750;32688.000;   -9.951;39700.070
662.328;31755.477;   -9.390;39292.809
662.905;30990.225;  -11.330;38235.648
663.482;26606.762;   -9.050;36212.305
664.060;24548.066;   -8.240;35944.945
664.637;27256.652;  -10.050;35170.785
665.214;29078.871;  -11.760;34197.523
665.791;31062.266;  -10.530;34549.520
666.368;29854.518;   -9.690;35118.578
666.945;30255.139;   -9.320;36019.418
667.522;31808.703;  -11.860;36048.438
668.099;31829.980;  -10.770;36243.914
668.676;30939.898;   -6.260;35958.875
669.253;29297.705;   -7.000;37384.730
669.830;29678.074;  -10.190;36779.629
670.407;29562.793;   -9.550;35231.289
670.984;29596.803;   -9.260;35544.270
671.560;30199.355;   -9.280;35466.867
672.137;28990.037;  -11.810;34280.863
672.714;29626.680;  -11.490;34632.863
673.290;30257.746;   -7.740;35135.422
673.867;30307.965;  -10.660;36114.480
674.443;30740.342;  -12.230;36152.859
675.020;29136.289;  -10.450;35327.238
675.596;29922.381;   -9.260;35795.176
676.173;30363.289;  -10.780;35430.355
676.749;30020.412;  -13.690;33549.516
677.326;30067.240;  -11.980;32210.012
677.902;30175.746;   -8.630;32068.871
678.478;29395.639;  -10.730;32583.891
679.054;28800.270;  -10.520;32088.928
679.631;29598.836;  -11.920;30978.848
680.207;30769.795;   -7.490;33160.887
680.783;32092.816;   -9.860;35570.363
681.359;31205.744;  -13.380;36125.184
681.935;30541.154;  -12.480;35240.922
682.511;29877.789;   -7.900;34429.961
683.087;29964.092;   -7.710;34463.680
683.663;29458.342;  -11.480;34648.898
684.239;28460.139;  -14.090;34546.457
684.815;28060.129;   -7.560;35586.375
685.390;28373.924;   -9.910;35821.895
685.966;28809.504;  -11.159;35085.871
686.542;31500.121;  -11.169;34198.230
687.118;33684.652;   -5.959;32847.707
687.693;34018.863;  -10.329;32794.027
688.269;33361.566;  -12.059;33072.367
688.844;31313.070;  -10.909;33141.664
689.420;29294.637;   -8.019;33965.742
689.995;27087.262;   -8.399;34655.523
690.571;25826.156;  -10.949;33576.742
691.146;26291.326;   -9.619;32657.219
691.722;25851.715;   -8.999;32526.979
692.297;25416.701;  -11.589;33014.617
692.872;27223.590;  -11.739;34012.254
693.448;26897.686;  -11.059;34237.434
694.023;26095.703;  -10.139;34142.672
694.598;28304.326;   -9.029;34132.031
695.173;28820.955;  -13.319;34205.250
695.748;28136.838;  -10.169;32882.488
696.323;27958.793;   -8.339;32864.906
696.898;27979.973;   -8.169;33170.004
697.473;27884.797;  -12.309;32432.984
698.048;27488.303;  -10.989;31649.303
698.623;27567.959;   -9.329;30778.141
699.198;29216.229;   -9.849;31140.119
699.773;30260.613;  -12.329;31764.299
700.348;28954.760;  -10.389;31780.816
700.922;29079.303;   -9.269;32046.375
701.497;29605.027;   -9.329;32603.574
702.072;29726.055;  -10.789;34799.871
702.646;28675.686;  -10.839;35793.172
703.221;26376.180;   -9.099;35201.590
703.795;28433.381;  -10.939;34764.527
704.370;29018.244;  -12.859;34307.367
704.944;29142.924;  -11.559;33509.887
705.519;30156.889;   -7.939;31388.584
706.093;31340.695;  -10.499;31340.104
706.668;31762.242;  -11.289;32630.281
707.242;30376.502;  -11.509;32728.779
707.816;28720.836;   -9.639;32947.238
708.390;27312.742;  -11.429;33277.855
708.965;28194.891;  -11.869;33834.336
709.539;28521.543;  -11.689;33709.273
710.113;28835.865;  -10.478;33044.313
710.687;28448.467;  -10.228;31953.992
711.261;26541.828;  -13.698;30505.949
711.835;26118.951;  -13.378;30262.369
712.409;26675.299;   -9.698;31254.447
712.983;28522.123;  -11.898;32754.986
713.557;29682.670;  -15.138;34018.824
714.131;29313.705;  -14.098;34579.625
714.704;28502.496;   -9.958;33890.262
715.278;26162.850;  -10.028;33531.102
715.852;25273.740;  -11.148;33601.660
716.425;26142.775;   -9.068;33515.117
716.999;26826.660;  -10.038;33185.555
717.573;27916.217;   -9.798;33905.996
718.146;29275.025;  -12.378;35199.293
718.720;29032.670;  -11.918;35060.551
719.293;28341.527;   -8.088;34973.230
719.867;31217.268;  -10.888;36394.449
720.440;31191.889;  -11.938;36663.008
721.013;29533.170;  -12.818;35102.426
721.587;28116.936;  -10.298;33985.266
722.160;26629.494;  -10.048;33524.965
722.733;25634.742;  -12.108;32987.043
723.306;26303.869;  -10.818;33066.301
723.880;28441.887;   -8.908;33399.500
724.453;30356.170;   -9.878;33468.297
725.026;29368.045;  -11.188;33816.637
725.599;26618.857;  -11.678;32797.996
726.172;26734.211;   -9.618;33187.434
726.745;27982.293;   -8.258;35136.613
727.318;29545.492;  -12.978;35751.730
727.891;30338.963;  -12.148;35890.430
728.463;30079.602;   -8.968;34822.090
729.036;28944.760;  -10.188;32895.086
729.609;29218.748;  -11.788;31823.225
730.182;26102.223;  -11.788;31445.283
730.754;23664.092;  -10.268;32373.223
731.327;23759.570;   -9.998;33676.820
731.900;23833.137;  -12.228;33417.000
732.472;24974.934;  -13.848;31978.498
733.045;27027.992;   -8.698;30368.777
733.617;26968.426;  -10.607;30574.215
734.190;26631.799;  -11.507;31280.975
734.762;23991.557;  -13.647;31674.412
735.334;22274.996;   -9.767;31247.291
735.907;22602.346;   -9.897;29876.211
736.479;22594.434;  -11.637;29808.488
737.051;22338.721;   -9.567;30233.547
737.623;23541.174;   -8.187;31469.086
738.195;24367.094;  -11.187;31784.225
738.768;26143.805;  -12.337;32120.523
739.340;26325.199;  -12.227;32094.342
739.912;25206.818;  -11.057;31312.680
740.484;24027.357;  -10.207;31946.238
741.056;22779.432;  -10.047;32984.059
741.628;24338.176;  -13.627;33897.715
742.199;26654.029;   -7.177;33213.016
742.771;25047.615;  -10.797;31369.113
743.343;22707.426;  -11.997;31865.473
743.915;21631.975;  -12.867;32388.631
744.487;21771.422;   -7.617;31079.568
745.058;21957.691;   -9.557;30570.107
745.630;22619.885;   -9.877;29970.127
746.201;23676.549;  -14.177;29186.766
746.773;24018.746;   -9.237;28805.723
747.344;23892.018;   -9.847;29591.223
747.916;22357.133;  -11.657;31412.201
748.487;22210.402;  -10.587;32194.898
749.059;23406.266;   -8.707;32533.719
749.630;24438.512;  -10.537;32158.518
750.201;23528.773;  -11.687;30855.395
750.773;21713.051;  -11.647;28622.555
751.344;21614.459;   -7.147;28405.732
751.915;22551.414;   -9.757;28461.551
752.486;22134.875;  -12.427;27842.850
753.057;19945.732;  -12.227;27845.008
753.628;18761.887;  -10.417;27728.107
754.199;19820.760;  -11.767;27381.086
754.770;21004.443;  -11.187;25882.203
755.341;21128.131;  -10.507;25886.184
755.912;21336.438;   -9.387;26050.861
756.483;20675.643;  -10.647;26798.779
757.054;18801.506;  -11.837;27048.238
757.625;17550.920;  -12.716;26294.838
758.195;17454.742;   -9.666;26142.076
758.766;17167.977;   -8.656;26392.234
759.337;17872.234;  -12.856;26334.594
759.907;19589.770;  -13.366;27579.652
760.478;20414.176;   -8.576;28352.770
761.048;19769.930;  -10.526;27325.088
761.619;18936.387;  -11.116;26460.428
762.189;18936.701;  -12.136;26029.826
762.760;19897.426;   -9.456;26430.145
763.330;21162.793;   -7.136;26670.902
763.900;20688.809;  -11.786;26603.021
764.471;18042.361;  -11.546;25542.740
765.041;16722.076;   -8.096;24358.459
765.611;16803.857;   -8.876;23991.297
766.181;17222.875;  -12.196;24470.236
766.751;18054.100;  -11.636;24845.975
767.321;18011.816;  -10.156;24533.633
767.891;16152.729;  -11.766;24916.492
768.461;15485.034;  -14.936;24776.771
769.031;15922.142;  -12.356;24757.988
769.601;17538.984;   -7.526;24181.088
770.171;17549.521;  -10.766;23670.387
770.741;16576.361;  -13.176;22960.045
771.311;16769.291;  -10.616;22917.523
771.880;17278.750;   -9.576;23562.941
772.450;16850.184;  -10.336;24216.500
773.020;16708.180;  -13.516;24140.398
773.589;16300.847;  -13.466;24414.857
774.159;15765.811;   -8.686;23858.717
774.729;15253.190;   -9.476;22942.135
775.298;14824.234;  -13.666;22324.033
775.867;14450.533;  -11.716;21140.313
776.437;14537.660;   -9.906;20838.092
777.006;14232.463;  -12.166;20599.510
777.576;14155.943;  -12.356;20508.809
778.145;14318.081;  -11.646;20732.947
778.714;14246.339;   -8.226;21062.465
779.283;13492.473;   -9.556;20949.664
779.853;12970.904;  -14.116;20508.623
780.422;13330.239;  -11.506;20649.082
780.991;12889.776;   -9.556;21527.520
781.560;11836.187;   -9.095;22632.658
782.129;11618.981;  -12.135;23048.277
782.698;11648.498;  -10.865;23438.555
783.267;11336.486;   -9.335;23267.734
783.836;11285.780;  -11.045;22415.133
784.404;12268.662;  -13.865;20443.152
784.973;12774.457;  -13.095;19699.150
785.542;12668.033;  -11.575;19763.828
786.111;12540.405;   -9.705;20341.408
786.679;12131.232;  -12.105;20207.967
787.248;11888.058;  -12.455;19516.465
787.817;11691.705;  -11.535;18900.363
788.385;11310.308;   -9.765;17879.121
788.954;10797.024;  -14.005;17658.301
789.522;10315.551;  -11.955;17788.879
790.090;10826.250;  -10.135;18118.277
790.659;11301.151;  -10.975;18338.736
791.227;10714.044;  -13.375;18508.615
791.795;11059.836;  -12.375;17898.254
792.364;11448.140;  -10.725;17295.133
792.932;11814.548;   -9.715;16822.051
793.500;12039.986;  -12.675;17040.148
794.068;12260.565;  -13.495;17179.787
794.636;12372.920;  -10.885;16664.246
795.204;11810.125;  -11.045;16524.545
795.772;11849.021;  -13.175;17274.564
796.340;11386.039;  -12.445;17891.002
796.908;11180.396;   -9.735;17648.561
797.476;11149.838;   -9.815;17064.080
798.044;10744.367;  -13.985;16672.777
798.612; 9962.598;  -13.115;17023.996
799.180; 9638.536;  -10.185;16561.615
799.747; 9536.010;   -9.055;15962.773
800.315; 9234.080;  -12.385;15296.992
800.883; 8935.448;  -15.035;14801.771
801.450; 8976.030;  -10.365;14534.430
802.018; 9028.607;   -9.855;14173.248
802.585; 9055.317;  -11.905;14029.547
803.153; 9079.878;  -11.585;13836.846
803.720; 9001.195;   -9.095;13567.324
804.287; 8691.327;   -9.135;13360.622
804.855; 8263.407;  -11.604;13681.981
805.422; 8110.176;  -11.794;13536.560
805.989; 8096.383;  -10.734;13355.958
806.556; 8243.992;  -10.444;13747.896
807.124; 8533.479;  -12.764;13987.376
807.691; 8472.012;  -12.964;14038.674
808.258; 8281.234;  -11.134;14120.152
808.825; 7967.896;   -9.854;13860.111
809.392; 8049.946;  -10.504;13268.790
809.959; 7570.689;  -13.054;12680.389
810.526; 7131.173;   -8.294;12427.308
811.093; 7191.333;   -8.394;12030.105
811.659; 7835.262;  -12.304;11653.664
812.226; 8298.659;  -13.944;11637.183
812.793; 7957.589;  -10.484;11611.521
813.360; 7304.718;  -10.144;11885.181
813.926; 6936.856;  -11.684;12770.539
814.493; 6681.234;  -13.644;12677.638
815.060; 6313.890;   -9.724;11974.336
815.626; 6325.940;   -9.854;11594.715
816.193; 6707.548;  -13.254;11579.474
816.759; 6764.519;  -13.204;11666.972
817.325; 6869.040;   -9.434;11325.530
817.892; 7193.763;  -10.134;11105.369
818.458; 7590.253;  -13.474;10843.928
819.024; 7282.855;  -11.854;10714.406
819.591; 6957.750;  -10.244;10469.165
820.157; 6722.061;  -10.704;10235.523
820.723; 6185.631;  -12.324;10847.563
821.289; 5874.618;   -9.444;11040.980
821.855; 5806.370;   -8.374;10357.100
822.421; 5807.240;  -10.234; 9978.918
822.987; 5760.991;  -13.294; 9754.177
823.553; 5442.774;  -10.884;10065.755
824.119; 5268.748;   -8.884;10036.294
824.685; 5395.995;   -6.784;10029.192
825.251; 5495.533;  -12.004;10199.230
825.816; 5422.321;  -11.474; 9820.189
826.382; 5164.350;   -9.174; 9297.248
826.948; 5335.639;   -9.214; 9381.347
827.513; 5754.669;  -10.774; 9450.726
828.079; 5595.651;  -11.924; 9472.444
828.645; 5019.510;  -10.543; 9292.643
829.210; 4881.573;  -10.533; 9065.341
829.776; 4859.400;  -10.753; 9132.620
830.341; 4716.063;  -10.173; 9092.878
830.906; 4853.794;  -10.743; 9078.557
831.472; 5228.712;  -11.113; 8534.535
832.037; 5039.678;  -10.603; 8677.874
832.602; 4510.505;  -13.323; 8628.692
833.167; 4219.796;  -10.823; 8879.031
833.733; 4166.130;  -10.113; 9189.790
834.298; 4286.287;  -13.583; 9052.608
834.863; 4338.442;  -12.703; 8895.087
835.428; 4318.914;  -10.523; 8824.266
835.993; 4207.910;   -6.963; 8845.385
836.558; 4065.862;  -10.763; 8888.563
837.123; 4156.123;   -9.903; 8966.582
837.688; 4363.000;   -9.913; 8617.860
838.253; 4553.879;  -10.283; 8590.699
838.817; 4742.583;  -12.963; 8443.797
839.382; 4691.481;  -14.243; 8799.356
839.947; 4385.896;  -10.733; 8810.595
840.511; 4085.449;   -9.383; 8796.394
841.076; 3725.949;  -12.563; 8347.231
841.641; 3766.015;  -12.953; 8224.330
842.205; 3859.365;   -7.043; 8223.349
842.770; 3930.030;   -8.163; 8622.107
843.334; 4113.735;  -12.503; 8410.386
843.898; 4110.867;  -11.693; 8337.465
844.463; 4160.195;  -10.203; 8506.283
845.027; 3960.461;   -9.533; 8280.962
845.591; 3750.777;  -13.443; 8231.141
846.156; 3754.793;  -13.143; 7969.179
846.720; 3625.690;   -9.433; 7768.278
847.284; 3492.652;  -11.033; 7630.957
847.848; 3327.607;  -10.403; 7472.395
848.412; 3244.315;  -11.553; 7437.394
848.976; 3288.114;   -8.393; 7674.592
849.540; 3221.598;   -8.713; 7836.011
850.104; 3285.458;  -12.463; 7913.669
850.668; 3630.303;  -12.973; 7694.508
851.232; 3769.809;  -10.793; 7756.887
851.796; 3596.466;  -10.662; 7926.545
852.359; 3291.528;  -13.082; 7827.844
852.923; 3130.182;  -12.192; 7641.163
853.487; 2963.623;  -11.912; 7342.501
854.050; 2895.263;  -10.892; 7042.820
854.614; 3024.277;  -13.992; 7151.338
855.177; 3121.058;  -11.732; 7105.077
855.741; 3171.345;   -8.962; 6989.675
856.304; 3089.385;   -9.442; 6596.634
856.868; 3030.539;  -14.192; 6356.272
857.431; 3128.571;  -12.702; 6468.571
857.995; 3237.290;   -9.942; 6373.210
858.558; 3249.290;   -9.112; 6324.448
859.121; 3002.030;  -12.932; 6408.327
859.684; 2872.373;  -13.442; 6347.886
860.247; 2982.982;  -10.632; 6321.264
860.810; 2987.260;  -11.272; 6301.903
861.374; 2769.159;   -9.832; 6607.881
861.937; 2522.643;  -11.762; 6408.200
862.500; 2496.509;   -9.722; 6572.639
863.062; 2644.242;  -10.512; 6387.297
863.625; 2819.122;  -11.232; 6190.836
864.188; 2986.198;  -14.112; 5807.254
864.751; 3042.565;  -11.302; 5682.413
865.314; 2936.224;  -10.112; 5547.492
865.876; 2753.658;  -12.182; 5500.150
866.439; 2742.767;  -10.722; 5415.909
867.002; 2714.907;   -9.252; 5501.567
867.564; 2514.575;   -9.572; 5413.946
868.127; 2309.506;  -13.142; 5160.325
868.689; 2212.505;  -12.902; 5133.183
869.252; 2138.507;   -9.732; 5252.382
869.814; 2051.572;   -9.432; 5297.141
870.377; 2069.082;  -11.552; 5390.919
870.939; 2137.606;   -9.052; 5599.898
871.501; 2197.291;  -10.982; 5248.336
872.063; 2206.393;  -12.292; 4854.235
872.626; 2165.967;  -14.912; 4817.074
873.188; 2166.809;  -13.112; 4987.732
873.750; 2135.496;  -13.442; 4868.651
874.312; 2047.935;   -9.402; 4779.330
874.874; 1964.938;  -11.062; 4866.348
875.436; 1887.614;  -13.931; 4718.887
875.998; 1883.161;   -9.561; 4660.005
876.560; 1904.215;  -11.321; 4462.964
877.122; 1847.950;  -12.221; 4145.042
877.683; 1750.196;  -12.191; 4056.481
878.245; 1674.954;  -12.101; 3950.740
878.807; 1710.607;   -8.971; 4058.958
879.369; 1737.744;  -12.071; 3954.677
879.930; 1654.293;  -14.621; 3941.495
880.492; 1596.542;  -10.311; 4067.014
881.053; 1570.127;  -10.901; 3859.633
881.615; 1457.050;  -14.411; 3776.071
882.176; 1367.055;  -13.761; 3734.750
882.738; 1332.238;   -9.181; 3678.489
883.299; 1310.501;  -11.791; 3405.407
883.860; 1304.559;  -13.121; 3351.106
884.422; 1308.916;  -11.211; 3394.044
884.983; 1267.990;  -10.091; 3166.443
885.544; 1179.430;   -8.461; 3189.802
886.105; 1102.765;  -12.361; 3160.360
886.666; 1034.277;  -14.141; 3093.059
887.227;  973.234;  -11.361; 2941.957
887.788;  911.684;  -11.401; 2974.836
888.349;  848.297;  -13.791; 2721.214
888.910;  845.126;  -13.191; 2696.493
889.471;  853.634;   -9.881; 2560.172
890.032;  842.286;   -9.881; 2558.190
890.593;  817.176;  -10.371; 2567.669
891.153;  789.635;  -13.301; 2460.307
891.714;  742.663;  -11.431; 2372.046
892.275;  707.778;  -11.291; 2309.505
892.835;  672.293;  -11.471; 2382.543
893.396;  615.597;  -11.541; 2295.502
893.956;  559.588;  -11.181; 2162.420
894.517;  521.508;  -11.741; 2125.439
895.077;  513.121;  -11.671; 2086.978
895.638;  514.135;  -11.311; 2126.316
896.198;  485.659;   -9.831; 1838.275
896.758;  444.703;   -8.421; 1892.813
897.319;  412.159;  -12.351; 1792.232
897.879;  395.083;  -13.511; 1762.751
898.439;  370.324;  -12.001; 1661.149
898.999;  345.865;  -10.180; 1781.468
899.559;  335.750;  -12.030; 1703.347
900.119;  331.160;  -15.710; 1537.525
900.679;  329.484;   -8.900; 1638.384
901.239;  315.468;   -8.340; 1527.902
901.799;  304.967;  -13.910; 1456.441
902.359;  298.149;  -13.460; 1357.140
902.919;  292.026;  -11.490; 1331.118
903.479;  280.372;  -12.110; 1317.257
904.038;  257.638;  -11.720; 1262.595
904.598;  241.432;  -13.610; 1152.034
905.158;  237.262;  -11.040; 1240.893
905.717;  230.691;  -10.900; 1233.691
906.277;  219.653;  -15.080; 1217.330
906.836;  211.125;  -13.380; 1222.408
907.396;  203.450;  -10.780; 1193.047
907.955;  197.170;   -8.500; 1182.526
908.515;  190.648;  -12.760; 1099.364
909.074;  183.870;  -11.900; 1092.863
909.633;  178.016;   -8.950; 1069.121
910.192;  174.373;   -8.770; 1196.460
910.752;  169.285;  -12.390; 1029.960
911.311;  165.232;  -13.680; 1009.780
911.870;  162.233;  -12.370;  971.460
912.429;  163.632;  -10.900; 1094.080
912.988;  161.364;  -11.690; 1081.060
913.547;  157.538;  -13.240;  940.380
914.106;  152.234;  -11.990;  999.420
914.665;  149.521;   -9.990;  984.020
915.224;  148.487;  -12.880; 1035.760
915.782;  148.715;  -12.350;  922.560
916.341;  147.332;   -9.110; 1049.840
916.900;  143.718;   -9.270;  925.260
917.458;  141.363;  -13.240;  884.220
918.017;  140.891;  -13.550;  942.600
918.576;  140.828;  -12.320;  904.440
919.134;  139.125;  -11.490;  837.980
919.693;  137.344;  -13.670;  893.060
920.251;  135.249;  -15.470;  876.500
920.809;  133.950;  -11.290;  839.580
921.368;  134.506;  -10.210;  885.360
921.926;  132.595;  -12.140;  842.940
922.484;  131.675;  -13.080;  903.360
923.042;  131.291;  -11.720;  880.340
923.601;  133.647;   -7.480;  998.680
924.159;  132.717;  -11.570;  935.560
924.717;  128.910;  -13.840;  841.080
925.275;  129.013;  -10.640;  903.240
925.833;  129.066;  -11.540;  779.320
926.391;  129.067;  -12.960;  938.380
926.949;  127.958;  -14.130;  857.680
927.506;  128.908;  -11.750;  903.500
928.064;  128.746;  -10.250;  877.580
928.622;  127.532;  -13.030;  880.100
929.180;  126.788;  -13.400;  814.180
929.737;  127.447;  -10.700;  808.540
930.295;  132.082;  -10.070;  928.480
930.853;  132.711;  -11.960;  849.100
931.410;  133.759;  -13.120;  821.120
931.968;  133.548;  -10.770;  940.660
932.525;  133.044;  -10.680;  909.380
933.082;  133.142;  -13.130;  811.440
933.640;  134.231;  -13.210;  925.900
934.197;  133.385;  -11.060;  886.360
934.754;  133.834;   -9.580;  897.780
935.312;  135.536;  -14.000;  863.340
935.869;  139.351;  -10.710; 1012.980
936.426;  140.803;   -9.860;  872.800
936.983;  141.106;   -9.710;  889.020
937.540;  140.623;  -13.990;  838.280
938.097;  139.512;  -14.040;  940.120
938.654;  140.858;  -10.310;  898.860
939.211;  143.124;  -10.560;  952.480
939.768;  146.103;  -13.900;  915.420
940.324;  149.072;  -14.760;  904.200
940.881;  149.869;  -10.370;  878.500
941.438;  151.169;   -8.260; 1021.200
941.995;  146.920;  -12.540;  992.560
942.551;  145.107;  -14.670;  875.620
943.108;  144.680;  -10.450;  937.920
943.664;  147.017;  -10.750;  869.340
944.221;  148.707;  -11.550; 1088.140
944.777;  147.666;  -14.770;  869.680
945.334;  149.396;  -12.820;  884.840
945.890;  151.636;  -10.130;  946.480
946.446;  151.294;  -13.470;  947.020
947.003;  152.611;  -12.120;  964.940
947.559;  154.550;   -9.980; 1063.040
948.115;  153.677;   -9.080; 1026.540
948.671;  151.930;  -10.830;  967.300
949.227;  149.463;  -12.440;  859.560
949.783;  146.183;  -12.910;  858.900
950.339;  146.980;  -10.270;  991.000
950.895;  147.855;  -13.630; 1023.840
951.451;  147.142;  -15.100;  925.280
952.007;  148.380;  -11.330;  998.540
952.563;  149.775;  -10.580;  937.780
953.118;  148.604;  -13.440;  904.940
953.674;  147.435;  -12.710;  935.780
954.230;  147.235;  -10.350;  949.640
954.785;  145.775;   -9.190;  936.640
955.341;  143.224;  -11.200;  998.160
955.897;  140.328;  -16.560;  834.660
956.452;  142.689;  -12.570;  953.840
957.008;  141.829;   -7.970; 1083.640
957.563;  139.730;  -11.940; 1009.540
958.118;  134.342;  -13.450;  877.700
958.674;  135.359;  -12.030;  946.780
959.229;  136.328;   -9.410; 1013.980
959.784;  134.273;  -12.000;  832.400
960.339;  133.032;  -14.780; 1001.280
960.894;  130.052;   -9.860;  963.760
961.449;  127.132;   -9.970;  859.960
962.004;  126.293;  -10.900; 1212.840
962.559;  121.897;  -13.150;  860.140
963.114;  118.813;  -13.740;  742.480
963.669;  119.154;   -9.820;  915.500
964.224;  117.925;  -13.890;  874.340
964.779;  116.741;  -12.600;  828.420
965.334;  117.999;  -10.950; 1017.860
965.888;  117.594;  -11.170;  875.360
966.443;  120.299;  -12.540;  972.380
966.998;  118.984;  -15.780;  819.460
967.552;  118.840;   -9.760;  908.380
968.107;  114.490;   -9.060;  868.300
968.661;  115.753;  -11.950;  922.440
969.216;  116.022;  -12.800;  856.280
969.770;  116.939;  -11.210;  917.200
970.324;  115.434;  -11.610;  923.140
970.879;  112.209;  -11.370;  947.180
971.433;  108.515;  -12.540;  952.720
971.987;  104.282;  -11.320;  895.340
972.541;  102.386;  -10.720;  917.100
973.095;  100.595;   -9.680; 1009.460
973.649;   99.946;  -11.440;  809.480
974.203;   98.820;  -11.210;  829.040
974.757;   98.848;  -10.240;  855.220
975.311;   98.108;  -13.720;  872.600
975.865;   97.642;  -13.770;  881.820
976.419;   96.649;  -11.690;  857.400
976.973;   96.841;   -9.510;  849.620
977.526;   98.492;  -12.620;  949.920
978.080;   97.058;  -12.010;  796.780
978.634;   99.279;  -10.170;  921.320
979.187;   97.140;   -9.020;  905.400
979.741;   94.567;   -9.820; 1018.380
980.294;   89.062;  -14.870;  789.160
980.848;   87.468;  -12.380;  717.220
981.401;   90.165;  -10.350;  816.540
981.955;   91.630;  -13.720;  844.300
982.508;   89.908;  -11.490;  746.340
983.061;   90.630;  -10.000;  915.260
983.615;   86.685;  -11.480;  798.800
984.168;   83.923;  -13.220;  770.080
984.721;   83.428;  -13.960;  880.760
985.274;   82.321;  -10.870;  867.500
985.827;   81.645;   -9.790;  834.220
986.380;   78.771;  -13.120;  721.340
986.933;   77.032;  -12.450;  864.800
987.486;   76.071;  -10.210;  861.920
988.039;   75.333;   -8.430;  863.100
988.591;   73.070;  -10.520;  893.260
989.144;   70.710;  -14.860;  737.260
989.697;   70.215;  -13.080;  758.740
990.250;   70.968;  -10.150;  858.100
990.802;   69.719;  -13.430;  755.860
991.355;   71.051;  -12.750;  974.880
991.907;   68.922;  -12.040;  864.320
992.460;   66.792;  -11.330;  753.760
993.012;   65.611;  -13.610;  749.540
993.565;   64.337;  -13.460;  711.360
994.117;   65.905;   -9.360;  950.780
994.669;   61.803;  -11.300;  701.320
995.221;   60.948;  -13.540;  791.920
995.774;   58.776;  -13.430;  787.580
996.326;   57.574;  -12.520;  740.220
996.878;   57.297;  -10.950;  838.420
997.430;   54.963;  -14.300;  699.860
997.982;   54.725;  -13.760;  750.140
998.534;   53.404;  -11.530;  739.060
999.086;   52.836;  -10.310;  738.220
999.638;   50.799;  -12.530;  661.380
1000.190;   50.995;  -11.840;  699.320
1000.741;   50.439;  -10.260;  742.700
1001.293;   49.838;   -8.860;  686.020
1001.845;   47.367;  -13.700;  676.640
1002.396;   48.471;  -12.100;  743.400
1002.948;   47.764;  -12.760;  737.400
1003.500;   46.861;  -10.380;  723.780
1004.051;   47.269;  -11.900;  907.580
1004.603;   45.508;  -12.250;  791.820
1005.154;   41.985;  -13.210;  608.980
1005.705;   41.516;  -10.950;  723.960
1006.257;   41.558;  -13.880;  707.220
1006.808;   39.677;  -12.840;  685.460
1007.359;   39.062;  -10.570;  763.240
1007.910;   38.986;   -9.620;  646.640
1008.461;   37.916;  -13.630;  732.940
1009.013;   37.142;  -17.200;  588.340
1009.564;   38.754;  -10.200;  793.520
1010.115;   36.222;  -12.570;  597.040
1010.665;   36.350;  -15.150;  602.160
1011.216;   36.630;  -14.480;  667.920
1011.767;   35.641;  -11.340;  697.920
1012.318;   35.942;   -9.780;  736.980
1012.869;   34.464;  -12.380;  679.000
1013.419;   34.130;  -15.560;  603.120
1013.970;   34.269;  -11.010;  666.640
1014.521;   33.953;  -11.610;  620.620
1015.071;   34.047;  -13.450;  670.380
1015.622;   33.181;  -13.870;  635.460
1016.172;   33.109;  -11.610;  596.820
1016.723;   32.851;  -12.120;  614.380
1017.273;   32.597;  -13.620;  604.160
1017.823;   32.746;  -14.140;  650.340
1018.374;   32.043;  -12.800;  611.760
1018.924;   31.807;  -12.340;  716.880
1019.474;   32.533;  -11.410;  718.880
1020.024;   31.211;  -14.770;  657.580
1020.574;   31.886;   -9.780;  726.160
1021.124;   31.969;   -8.560;  673.580
1021.674;   30.691;  -15.190;  559.120
1022.224;   31.947;  -13.530;  708.940
1022.774;   31.361;  -13.280;  668.820
1023.324;   31.561;  -10.690;  753.520
1023.874;   33.122;  -10.240;  875.760
1024.423;   29.603;  -12.540;  613.700
1024.973;   29.599;  -10.010;  610.760
1025.523;   29.396;  -10.550;  620.960
1026.072;   28.872;  -13.560;  606.420
1026.622;   28.062;  -15.120;  675.740
1027.172;   29.616;  -11.260;  715.660
1027.721;   28.705;  -11.410;  601.220
1028.270;   28.595;  -13.530;  663.400
1028.820;   28.089;  -13.680;  638.080
1029.369;   28.001;  -13.520;  612.700
1029.918;   29.210;  -10.980;  649.840
1030.468;   27.413;  -13.530;  564.780
1031.017;   27.745;  -13.170;  634.800
1031.566;   26.792;  -12.200;  608.900
1032.115;   27.885;   -9.960;  694.500
1032.664;   26.162;  -13.210;  596.480
1033.213;   26.841;  -12.500;  735.420
1033.762;   26.849;  -11.910;  635.620
1034.311;   26.472;   -9.640;  677.220
1034.860;   26.745;  -13.310;  691.000
1035.408;   26.351;  -11.830;  722.720
1035.957;   27.478;  -12.000;  719.540
1036.506;   24.425;  -11.690;  530.800
1037.055;   26.631;  -10.990;  844.320
1037.603;   25.561;  -15.120;  664.000
1038.152;   23.708;  -12.450;  534.760
1038.700;   24.696;  -10.560;  585.740
1039.249;   24.273;  -11.080;  681.220
1039.797;   25.398;  -12.540;  633.360
1040.345;   24.640;  -11.920;  705.420
1040.894;   24.386;  -11.410;  625.300
1041.442;   23.353;  -14.320;  632.200
1041.990;   23.104;  -16.240;  559.160
1042.538;   22.845;  -11.680;  536.180
1043.087;   22.863;  -10.760;  570.860
1043.635;   24.117;  -11.850;  670.500
1044.183;   23.275;  -15.480;  586.400
1044.731;   22.904;  -11.770;  576.000
1045.279;   22.744;  -13.090;  674.920
1045.827;   24.501;  -12.440;  892.400
1046.374;   21.265;  -13.840;  515.420
1046.922;   21.535;  -13.220;  590.580
1047.470;   22.801;  -10.230;  691.300
1048.018;   22.387;  -14.590;  647.960
1048.565;   23.063;  -12.050;  708.600
1049.113;   21.269;  -11.650;  557.000
1049.660;   21.760;  -10.510;  629.660
1050.208;   21.204;  -13.310;  675.640
1050.755;   20.800;  -15.900;  606.580
1051.303;   21.605;  -11.430;  686.820
1051.850;   20.405;   -8.480;  635.120
1052.397;   18.361;  -15.010;  473.960
1052.945;   19.736;  -13.960;  617.760
1053.492;   21.078;  -13.150;  741.840
1054.039;   21.373;   -9.630;  720.180
1054.586;   19.414;  -13.680;  557.240
1055.133;   20.689;  -14.570;  693.140
1055.680;   20.556;  -13.820;  646.620
1056.227;   19.193;  -11.730;  542.780
1056.774;   20.968;  -12.480;  794.980
1057.321;   18.946;  -13.930;  523.260
1057.868;   19.281;  -11.690;  651.320
1058.415;   19.336;   -9.520;  651.980
1058.961;   19.074;  -13.160;  678.940
1059.508;   18.861;  -12.920;  643.820
1060.055;   18.969;  -11.920;  581.780
1060.601;   19.615;  -11.500;  624.300
1061.148;   18.227;  -14.330;  616.820
1061.694;   17.584;  -16.870;  592.580
1062.241;   18.360;  -10.330;  596.320
1062.787;   18.272;  -10.620;  663.140
1063.334;   20.222;  -10.110;  808.560
1063.880;   17.864;  -13.400;  668.360
1064.426;   17.816;  -10.680;  706.820
1064.972;   16.760;   -9.920;  601.340
1065.518;   16.110;  -10.980;  566.640
1066.065;   17.579;  -14.890;  624.460
1066.611;   17.385;  -12.870;  598.800
1067.157;   17.770;  -12.950;  641.860
1067.703;   17.082;  -13.540;  668.480
1068.249;   16.936;  -13.540;  605.220
1068.794;   16.980;  -12.600;  626.880
1069.340;   16.307;  -10.620;  578.960
1069.886;   16.309;  -12.830;  590.700
1070.432;   15.349;  -14.870;  541.720
1070.977;   15.389;  -11.980;  601.080
1071.523;   15.491;   -8.200;  573.060
1072.068;   16.492;  -12.330;  582.000
1072.614;   15.616;  -16.370;  527.760
1073.160;   16.441;  -11.100;  687.040
1073.705;   14.670;  -10.480;  572.520
1074.250;   15.136;  -14.520;  559.900
1074.796;   15.712;  -11.460;  655.160
1075.341;   15.775;  -11.950;  664.100
1075.886;   15.929;  -11.460;  594.240
1076.431;   14.833;  -13.770;  649.880
1076.976;   14.627;  -12.680;  639.220
1077.521;   14.315;  -13.170;  583.080
1078.067;   13.448;  -10.860;  579.400
1078.612;   14.318;  -13.920;  661.620
1079.156;   13.817;  -13.880;  601.540
1079.701;   14.752;  -13.120;  693.260
1080.246;   14.876;   -9.940;  696.300
1080.791;   13.599;  -14.740;  625.020
1081.336;   13.698;  -13.750;  659.320
1081.880;   13.944;  -13.400;  649.680
1082.425;   13.758;  -12.220;  573.480
1082.970;   14.637;  -11.610;  717.040
1083.514;   13.263;  -13.580;  597.000
1084.059;   12.972;  -12.810;  586.720
1084.603;   12.580;  -12.320;  565.840
1085.147;   12.875;  -13.190;  645.220
1085.692;   13.503;  -12.480;  716.800
1086.236;   12.061;  -13.020;  503.140
1086.780;   14.202;   -9.190;  751.440
1087.325;   12.796;  -12.480;  654.620
1087.869;   12.170;  -12.450;  610.700
1088.413;   13.336;  -12.240;  705.040
1088.957;   11.503;   -9.020;  543.400
1089.501;   13.461;  -10.320;  766.640
1090.045;   12.212;  -12.720;  726.480
1090.589;   10.660;  -13.690;  569.920
1091.133;   11.805;  -10.020;  673.340
1091.676;   11.995;  -12.330;  591.940
1092.220;   11.595;  -14.970;  600.920
1092.764;   12.765;  -12.430;  706.960
1093.307;   11.611;   -9.800;  673.780
1093.851;   10.327;  -14.970;  556.540
1094.395;   10.512;  -15.310;  683.140
1094.938;   11.340;  -10.370;  632.520
1095.482;   11.400;  -11.050;  559.800
1096.025;   11.755;  -11.840;  710.880
1096.568;   12.350;  -12.840;  779.280
1097.112;    9.663;  -14.700;  508.180
1097.655;   11.478;   -8.720;  603.000
1098.198;    9.402;  -13.610;  600.180
1098.741;    9.034;  -13.350;  612.860
1099.285;   10.832;  -11.230;  657.300
1099.828;    8.736;  -11.840;  439.400
1100.371;    9.511;  -10.840;  608.160
1100.914;   10.054;  -14.190;  682.660
1101.457;   10.572;  -11.240;  679.900
1101.999;    8.929;  -11.270;  584.680
1102.542;    9.276;  -11.480;  641.440
1103.085;    9.489;  -11.750;  658.500
1103.628;   10.386;  -11.400;  762.060
1104.170;    9.030;  -10.490;  588.280
1104.713;    9.287;  -10.600;  646.700
1105.256;    8.143;  -14.360;  557.440
1105.798;    7.685;  -13.210;  499.980
1106.341;   10.306;  -10.270;  728.900
1106.883;    8.046;  -12.200;  521.340
1107.425;    9.030;  -13.110;  668.180
1107.968;    8.332;  -12.840;  612.380
1108.510;    9.151;   -6.480;  684.960
1109.052;    7.398;  -13.940;  612.620
1109.594;    7.410;  -13.690;  554.440
1110.136;    7.923;  -11.880;  643.220
1110.679;    7.810;   -9.500;  633.080
1111.221;    8.007;  -14.160;  604.460
1111.763;    7.379;  -13.980;  559.220
1112.304;    7.222;  -13.880;  547.140
1112.846;    7.931;  -12.210;  666.240
1113.388;   10.863;  -11.390;  942.180
1113.930;    7.403;  -14.540;  694.200
1114.472;    6.523;  -12.640;  606.540
1115.013;    5.848;  -11.620;  551.280
1115.555;    6.104;  -13.640;  587.100
1116.097;    5.233;  -15.380;  579.480
1116.638;    6.731;  -12.640;  684.600
1117.180;    7.066;   -9.850;  667.740
1117.721;    6.434;  -13.690;  568.580
1118.262;    6.822;  -12.680;  677.960
1118.804;    7.448;  -12.530;  637.340
1119.345;    5.830;  -11.690;  578.400
1119.886;    7.111;  -13.380;  704.040
1120.427;    5.876;  -14.070;  589.020
1120.969;    4.983;  -13.500;  597.920
1121.510;    4.745;  -11.480;  563.060
1122.051;    6.243;  -12.830;  723.580
1122.592;    5.161;  -14.290;  655.420
1123.133;    4.362;  -12.400;  547.940
1123.673;    6.601;  -10.130;  706.480
1124.214;    5.273;  -12.930;  612.460
1124.755;    6.029;  -14.380;  639.460
1125.296;    5.375;  -14.000;  627.320
1125.836;    6.732;  -10.070;  691.500
1126.377;    4.685;  -12.640;  599.660
1126.918;    5.290;  -12.960;  614.980
1127.458;    4.392;  -13.350;  622.220
1127.999;    4.511;  -10.750;  656.980
1128.539;    4.958;  -12.350;  694.240
1129.079;    4.691;  -14.860;  632.720
1129.620;    4.426;  -13.840;  558.100
1130.160;    3.766;  -12.330;  539.480
1130.700;    4.699;  -14.530;  640.840
1131.240;    5.347;  -12.530;  643.700
1131.781;    4.190;  -14.450;  619.680
1132.321;    4.133;   -9.790;  599.120
1132.861;    2.860;  -14.860;  564.200
1133.401;    3.333;  -14.290;  593.940
1133.941;    4.308;  -11.750;  626.280
1134.481;    3.465;   -9.920;  597.580
1135.020;    2.622;  -12.290;  609.160
1135.560;    3.731;  -11.650;  674.940
1136.100;    3.133;  -16.270;  501.160
1136.640;    2.982;  -10.890;  510.480
1137.179;    3.189;  -14.180;  537.960
1137.719;    3.446;  -16.250;  605.400
1138.258;    3.615;  -14.230;  587.360
1138.798;    3.506;   -9.090;  663.780
1139.337;    2.197;  -15.130;  482.840
1139.877;    2.885;  -13.680;  642.360
1140.416;    4.533;  -11.320;  878.060
1140.955;    1.954;  -10.860;  535.380
1141.494;    2.208;  -12.920;  669.280
1142.034;    2.157;  -13.930;  583.520
1142.573;    2.801;  -11.440;  646.280
1143.112;    2.280;  -12.000;  553.480
1143.651;    2.817;  -13.670;  536.480
1144.190;    2.257;  -12.730;  691.640
1144.729;    2.262;  -14.560;  607.420
1145.267;    2.402;  -11.830;  584.900
1145.806;    3.364;  -12.230;  637.040
1146.345;    1.170;  -14.130;  635.020
1146.884;    2.086;  -11.590;  622.500
1147.422;    0.904;  -12.550;  533.060
1147.961;    3.093;  -11.180;  708.460
1148.500;    2.099;  -11.510;  669.720
1149.038;    1.775;  -11.640;  632.500
1149.577;    2.136;  -10.130;  698.640
1150.115;    0.208;  -13.970;  452.280
1150.653;    1.586;  -14.520;  607.340
1151.192;    1.282;  -12.810;  552.920
1151.730;    2.305;   -9.100;  652.560
1152.268;    0.612;  -12.220;  589.520
1152.806;    0.922;  -14.140;  571.180
1153.344;   -0.194;  -12.350;  577.640
1153.882;    1.417;   -8.980;  600.060
1154.421;   -0.558;  -15.190;  470.620
1154.958;   -0.149;  -15.210;  595.240
1155.496;    0.933;  -12.850;  645.280
1156.034;    1.059;   -9.940;  721.880
1156.572;    1.595;  -13.570;  667.060
1157.110;   -0.570;  -14.590;  473.940
1157.647;    1.678;  -13.030;  676.960
1158.185;    0.067;  -12.140;  564.320
1158.723;   -1.075;  -14.390;  509.200
1159.260;   -0.331;  -14.090;  701.700
1159.798;    1.098;  -11.920;  658.160
1160.335;   -0.268;  -11.110;  631.820

