
Integration time [ms]:   3.882
Averaging Nr. [scans]: 1000
Smoothing Nr. [pixels]: 0
Data measured with spectrometer [name]: 7414430SP
Wave   ;Sample   ;Dark     ;Reference
[nm]   ;[counts] ;[counts] ;[counts] 

288.544;  125.266;   10.292;  793.890
289.143;  127.516;    4.564;  681.602
289.742;  130.487;    6.144;  828.814
290.341;  116.595;    4.396;  789.841
290.940;  108.430;    0.938;  730.702
291.538;  109.426;   -0.684;  881.108
292.137;  108.037;   -2.845;  792.581
292.736;  111.417;   -0.144;  975.101
293.335;  107.320;   -6.352;  735.086
293.934;  107.663;   -7.642;  781.677
294.532;  108.946;   -4.992; 1031.958
295.131;   95.782;   -5.478;  834.394
295.730;   95.610;   -6.549;  809.588
296.328;   93.080;   -9.558;  783.442
296.927;   93.516;   -8.118;  779.652
297.525;   94.424;   -6.908;  781.236
298.124;   85.251;   -9.195;  654.009
298.722;   90.607;   -8.198;  761.933
299.321;   88.328;   -8.817;  708.597
299.919;   86.245;   -7.716;  751.918
300.518;   81.937;  -10.745;  689.338
301.116;   83.452;   -9.647;  691.381
301.715;   83.461;  -10.828;  730.222
302.313;   83.866;   -6.087;  704.943
302.911;   78.242;   -6.824;  733.830
303.509;   83.216;   -8.807;  925.627
304.108;   81.172;   -8.198;  760.383
304.706;   81.974;   -6.218;  801.664
305.304;   76.311;   -7.185;  796.707
305.902;   81.413;   -8.568;  784.484
306.500;   77.312;   -7.737;  728.200
307.098;   75.392;   -6.026;  746.560
307.696;   73.464;   -7.176;  780.432
308.294;   74.696;   -8.656;  731.359
308.892;   76.553;   -6.838;  759.769
309.490;   71.319;   -2.596;  712.161
310.088;   70.802;   -4.485;  788.444
310.686;   75.878;   -3.907;  821.749
311.284;   71.995;   -2.806;  766.040
311.882;   69.610;   -2.845;  731.225
312.480;   66.916;   -3.274;  697.167
313.078;   67.976;   -3.645;  808.331
313.675;   68.697;   -4.997;  691.600
314.273;   64.132;   -0.894;  797.837
314.871;   63.952;   -2.854;  589.829
315.468;   62.211;   -3.644;  652.090
316.066;   65.268;   -3.947;  694.427
316.664;   57.564;   -1.824;  656.351
317.261;   63.052;    1.565;  910.128
317.859;   58.707;   -3.955;  768.735
318.456;   59.357;   -2.886;  830.096
319.054;   55.270;   -0.995;  787.828
319.651;   54.426;   -1.765;  759.928
320.249;   53.387;   -3.685;  810.188
320.846;   52.756;   -3.736;  714.286
321.443;   50.801;   -2.065;  832.135
322.041;   48.124;   -5.635;  812.315
322.638;   45.270;   -5.985;  701.456
323.235;   48.147;   -6.677;  665.683
323.833;   45.193;   -3.497;  740.354
324.430;   40.772;   -6.756;  615.900
325.027;   43.047;   -7.647;  876.855
325.624;   43.835;   -7.598;  644.532
326.221;   40.625;   -5.848;  689.717
326.818;   40.184;   -5.777;  818.332
327.415;   42.261;   -8.769;  748.828
328.012;   42.419;   -6.299;  690.585
328.609;   41.068;   -6.639;  731.389
329.206;   38.656;   -6.358;  778.621
329.803;   38.346;   -8.698;  737.841
330.400;   40.281;   -8.379;  704.260
330.997;   40.715;   -6.178;  817.147
331.594;   38.059;   -5.646;  788.185
332.191;   42.340;   -6.928;  728.722
332.787;   43.604;   -6.057;  844.463
333.384;   41.210;   -6.445;  763.093
333.981;   39.074;   -8.002;  815.687
334.578;   41.556;   -8.443;  708.378
335.174;   44.298;   -6.053;  731.469
335.771;   44.094;   -5.791;  836.456
336.367;   40.410;   -6.570;  710.631
336.964;   42.579;   -6.741;  793.266
337.561;   42.242;   -5.710;  731.112
338.157;   39.736;   -3.928;  911.916
338.754;   35.483;   -5.577;  796.589
339.350;   34.995;   -9.667;  722.493
339.946;   37.972;   -5.269;  773.135
340.543;   30.533;   -4.485;  846.136
341.139;   26.078;   -7.584;  720.836
341.735;   23.831;   -8.553;  772.593
342.332;   23.223;   -4.984;  691.472
342.928;   23.570;   -3.475;  795.394
343.524;   18.031;   -6.653;  761.684
344.120;   16.251;   -7.173;  738.562
344.716;   19.359;   -4.385;  723.717
345.313;   16.805;   -3.565;  795.342
345.909;   12.597;   -7.495;  627.336
346.505;   14.618;   -8.276;  740.247
347.101;   15.338;   -5.697;  827.864
347.697;   15.995;   -4.767;  785.398
348.293;   10.309;   -7.226;  627.244
348.889;   11.805;   -7.547;  745.914
349.485;   10.731;   -9.147;  688.205
350.081;   10.776;   -6.568;  772.592
350.676;    6.447;   -6.516;  691.606
351.272;   12.125;   -7.378;  809.530
351.868;   11.070;   -6.759;  780.497
352.464;    9.039;   -4.798;  723.932
353.059;    4.732;   -7.977;  646.017
353.655;    8.622;   -8.769;  777.063
354.251;    9.876;   -5.920;  759.845
354.846;    3.967;   -7.647;  740.646
355.442;    2.142;   -6.956;  753.071
356.038;    4.736;   -9.928;  751.708
356.633;    3.788;   -7.698;  728.594
357.229;    2.380;   -6.307;  724.757
357.824;    1.182;   -7.647;  703.600
358.420;    0.164;  -10.047;  679.726
359.015;    1.527;   -7.458;  695.357
359.610;    2.351;   -5.748;  763.920
360.206;   -4.338;   -9.346;  603.240
360.801;   -0.503;  -11.268;  646.503
361.396;    1.505;   -8.789;  725.975
361.992;   -3.212;   -6.347;  668.220
362.587;   -5.989;   -6.476;  670.160
363.182;   -3.223;   -9.457;  689.631
363.777;   -1.938;   -7.147;  738.242
364.372;   -2.631;   -5.507;  737.314
364.967;   -6.070;   -6.386;  680.744
365.563;   -1.369;   -7.858;  815.567
366.158;   -5.171;   -8.517;  685.161
366.753;   -4.954;   -8.728;  649.263
367.348;   -5.956;   -7.677;  746.056
367.942;   -5.956;  -10.387;  697.298
368.537;   -6.613;   -7.187;  754.245
369.132;   -6.657;   -8.587;  703.428
369.727;  -10.428;   -8.606;  638.079
370.322;   -8.943;  -10.426;  580.186
370.917;   -8.346;   -5.776;  710.646
371.511;   -6.479;   -6.007;  861.834
372.106;   -9.882;   -6.686;  776.964
372.701;  -13.407;   -9.335;  585.988
373.296;   -6.096;   -6.777;  863.135
373.890;  -11.500;   -7.546;  647.840
374.485;  -14.053;   -8.755;  691.199
375.079;   -9.541;   -9.797;  738.685
375.674;   -7.829;   -6.327;  812.970
376.268;  -13.547;   -9.046;  691.759
376.863;  -18.264;   -7.993;  580.327
377.457;  -11.754;   -9.206;  662.490
378.052;  -13.582;   -5.345;  764.884
378.646;  -14.044;   -5.605;  741.167
379.240;  -14.876;   -6.825;  721.176
379.835;  -13.174;  -10.476;  636.978
380.429;  -15.894;   -8.676;  562.557
381.023;  -15.531;   -4.945;  779.205
381.617;  -17.707;   -8.094;  680.106
382.212;  -14.389;  -10.646;  685.303
382.806;  -12.894;   -8.136;  760.690
383.400;  -17.330;   -7.855;  672.281
383.994;  -18.196;   -8.125;  664.870
384.588;  -13.543;   -7.637;  697.701
385.182;  -12.188;   -7.458;  726.624
385.776;  -14.618;   -6.277;  706.875
386.370;  -18.714;   -7.485;  681.968
386.964;  -15.638;   -9.416;  684.155
387.558;  -13.879;   -8.518;  598.360
388.152;  -18.248;   -7.096;  681.959
388.745;  -16.329;   -7.656;  814.707
389.339;  -14.535;   -8.927;  747.642
389.933;  -13.444;   -9.538;  695.370
390.527;  -14.225;   -5.857;  859.029
391.120;  -19.964;   -9.455;  595.318
391.714;  -16.626;   -9.746;  711.633
392.308;  -13.593;   -7.857;  780.253
392.901;  -17.090;   -9.106;  642.460
393.495;  -19.653;  -10.365;  595.414
394.089;  -17.117;   -9.696;  760.452
394.682;  -18.392;   -7.016;  697.188
395.275;  -18.849;   -8.466;  719.927
395.869;  -20.188;   -8.985;  667.314
396.462;  -17.407;  -11.496;  616.609
397.056;  -13.509;   -7.838;  776.621
397.649;  -19.026;   -6.895;  731.575
398.242;  -16.649;   -5.017;  712.645
398.836;  -14.937;   -8.787;  766.408
399.429;  -15.229;   -8.967;  631.041
400.022;  -20.321;   -8.815;  665.902
400.615;  -16.914;   -6.276;  805.609
401.208;  -15.085;   -8.407;  691.451
401.802;  -16.908;   -7.296;  699.329
402.395;  -18.386;   -7.585;  683.502
402.988;  -19.209;   -8.015;  696.627
403.581;  -16.412;   -9.577;  646.878
404.174;  -13.424;   -7.588;  686.568
404.767;  -16.637;   -7.906;  638.583
405.360;  -19.725;   -7.875;  621.445
405.953;  -13.500;   -8.127;  759.034
406.545;  -12.817;   -7.198;  725.342
407.138;  -17.298;   -8.916;  618.350
407.731;  -15.951;   -9.767;  613.303
408.324;  -11.704;  -10.659;  660.554
408.917;  -12.206;   -8.068;  681.864
409.509;  -15.187;   -9.837;  740.396
410.102;  -16.659;   -8.146;  643.948
410.695;  -10.743;   -7.969;  665.758
411.287;  -11.528;   -8.579;  599.821
411.880;  -13.106;   -6.968;  585.421
412.472;  -15.558;   -9.487;  613.092
413.065;  -12.750;  -10.338;  629.408
413.657;  -10.220;   -9.169;  576.678
414.250;  -10.749;  -10.119;  646.681
414.842;  -12.909;   -9.938;  676.353
415.434;  -10.442;  -10.409;  570.463
416.027;   -5.561;   -9.591;  652.196
416.619;   -7.213;   -7.379;  713.400
417.211;   -8.957;   -9.159;  599.352
417.804;   -4.447;   -9.191;  628.499
418.396;   -8.320;   -8.159;  607.643
418.988;   -5.865;   -6.960;  659.238
419.580;   -9.782;  -11.389;  568.276
420.172;   -7.344;  -13.460;  536.196
420.764;   -2.334;  -10.701;  672.482
421.356;   -4.387;   -8.961;  636.898
421.948;   -4.760;   -9.770;  677.661
422.540;    0.667;   -8.832;  680.027
423.132;   -0.918;   -8.153;  600.641
423.724;   -4.367;   -8.481;  561.267
424.316;   -1.902;   -9.261;  621.345
424.908;    1.686;   -9.643;  591.517
425.500;    2.895;   -8.663;  647.978
426.092;    3.057;   -8.503;  648.268
426.683;    2.004;  -10.522;  684.836
427.275;    4.824;  -11.734;  641.471
427.867;    6.881;  -10.264;  668.948
428.458;    6.867;   -7.644;  732.344
429.050;    5.343;   -7.853;  680.749
429.642;    8.128;   -8.904;  743.124
430.233;    7.823;  -10.795;  569.356
430.825;    9.925;   -7.665;  724.809
431.416;    6.961;   -8.843;  698.241
432.008;   10.892;   -9.885;  651.723
432.599;   11.905;   -9.966;  656.073
433.190;    8.315;   -9.164;  637.670
433.782;    7.355;   -8.584;  590.395
434.373;   15.565;   -8.296;  884.765
434.964;   14.574;   -9.896;  602.920
435.556;   12.149;   -8.255;  634.537
436.147;   14.986;   -8.075;  758.490
436.738;   13.607;   -9.716;  701.099
437.329;   19.402;   -7.318;  721.723
437.920;   12.780;   -6.694;  666.688
438.511;   12.258;   -9.644;  564.526
439.103;   19.486;   -9.427;  623.998
439.694;   21.735;  -10.748;  681.583
440.285;   22.461;   -7.997;  764.432
440.876;   20.671;  -10.046;  845.738
441.466;   19.747;  -13.467;  575.162
442.057;   24.978;   -9.329;  665.814
442.648;   23.670;   -7.707;  746.255
443.239;   21.118;   -9.017;  620.477
443.830;   26.975;  -10.279;  704.958
444.421;   28.981;  -12.630;  655.474
445.011;   24.873;   -8.697;  693.619
445.602;   25.746;   -7.787;  743.126
446.193;   27.082;  -13.329;  488.117
446.783;   31.064;   -9.171;  640.397
447.374;   26.764;   -7.457;  692.759
447.964;   27.111;   -9.277;  713.770
448.555;   36.591;   -9.041;  822.742
449.145;   32.626;   -8.969;  662.853
449.736;   33.176;   -6.809;  803.179
450.326;   33.253;   -7.229;  713.626
450.917;   38.528;  -11.391;  675.324
451.507;   38.058;   -9.501;  600.661
452.097;   38.882;   -8.460;  746.267
452.688;   39.560;  -10.080;  742.160
453.278;   38.791;  -12.861;  566.840
453.868;   43.859;   -8.372;  793.550
454.458;   41.030;   -8.131;  651.141
455.048;   41.802;   -8.520;  711.783
455.639;   43.961;  -13.632;  567.096
456.229;   47.081;  -10.143;  710.694
456.819;   48.924;   -9.163;  751.158
457.409;   50.161;   -8.652;  773.993
457.999;   51.864;   -9.933;  737.505
458.589;   52.195;  -10.363;  686.606
459.179;   51.374;  -10.633;  717.658
459.769;   49.596;  -12.442;  627.099
460.358;   54.502;   -9.844;  797.262
460.948;   54.847;   -9.924;  689.503
461.538;   56.357;  -10.484;  660.677
462.128;   53.267;  -10.703;  664.934
462.717;   60.248;  -11.486;  710.326
463.307;   65.109;  -10.767;  705.846
463.897;   59.848;   -8.814;  656.942
464.486;   59.847;   -8.182;  837.128
465.076;   63.513;   -9.985;  733.776
465.666;   66.954;  -10.447;  652.900
466.255;   64.842;   -7.754;  785.651
466.845;   64.048;  -10.884;  666.749
467.434;   67.100;  -12.525;  725.873
468.023;   68.134;  -11.456;  658.357
468.613;   65.658;   -9.173;  713.946
469.202;   69.394;   -9.306;  646.507
469.791;   74.436;   -8.917;  737.811
470.381;   77.068;   -9.657;  742.813
470.970;   74.956;   -9.947;  711.099
471.559;   75.624;   -9.256;  733.291
472.148;   79.310;  -13.397;  675.737
472.738;   82.008;   -9.928;  765.466
473.327;   80.846;  -10.897;  637.529
473.916;   80.191;   -8.526;  737.446
474.505;   85.256;  -11.078;  751.703
475.094;   88.952;   -9.559;  806.570
475.683;   88.410;   -8.838;  797.699
476.272;   89.037;  -10.198;  730.632
476.861;   91.394;  -11.489;  706.754
477.449;   98.178;  -10.721;  728.487
478.038;   92.111;   -9.818;  692.513
478.627;   92.895;   -9.887;  714.852
479.216;   99.177;  -10.030;  769.441
479.805;  102.942;   -9.401;  783.375
480.393;  102.189;   -5.739; 1008.945
480.982;  101.098;   -7.838;  874.501
481.571;  107.610;   -9.111;  858.333
482.159;  108.886;  -10.601;  705.386
482.748;  108.796;   -8.500;  821.385
483.336;  112.733;   -9.241;  858.209
483.925;  113.823;  -10.440;  774.373
484.513;  120.597;  -11.063;  758.962
485.102;  116.693;   -9.540;  810.965
485.690;  126.103;   -6.742; 1011.050
486.278;  127.618;   -8.442;  979.329
486.867;  128.421;  -10.472;  809.662
487.455;  130.573;   -8.811;  898.229
488.043;  131.600;  -10.721;  748.361
488.631;  141.166;  -10.393; 1005.079
489.220;  144.567;  -10.843;  908.626
489.808;  144.619;  -10.572;  741.415
490.396;  152.421;  -10.482;  914.645
490.984;  158.717;  -11.542;  830.161
491.572;  169.069;   -8.463;  940.315
492.160;  175.643;   -8.491;  919.081
492.748;  187.555;   -9.681;  884.341
493.336;  208.525;  -10.493; 1019.693
493.924;  235.516;   -9.354;  958.077
494.512;  267.991;   -9.132; 1066.638
495.100;  308.008;   -9.001; 1103.280
495.687;  363.170;  -11.924; 1206.373
496.275;  436.427;  -11.193; 1150.796
496.863;  517.803;   -9.241; 1281.171
497.451;  622.676;  -11.341; 1386.805
498.038;  745.220;  -11.364; 1556.729
498.626;  854.088;   -8.104; 1741.407
499.214; 1033.729;   -8.842; 2016.609
499.801; 1277.964;  -10.112; 2220.633
500.389; 1486.063;  -11.953; 2312.494
500.976; 1651.230;  -10.023; 2744.849
501.564; 1881.504;   -8.662; 3148.565
502.151; 2232.480;  -10.531; 3515.999
502.738; 2655.830;  -13.853; 3971.274
503.326; 3168.993;  -10.794; 4403.796
503.913; 3638.774;   -8.663; 5161.749
504.500; 4109.246;  -10.172; 5986.420
505.088; 4931.805;  -13.472; 6381.201
505.675; 5528.365;  -10.924; 6925.547
506.262; 5698.442;   -8.551; 7619.060
506.849; 6373.945;  -10.523; 8733.969
507.436; 7358.264;  -10.834; 9790.121
508.023; 7778.913;   -9.093; 9985.472
508.610; 8132.860;  -10.073;10434.618
509.197; 9178.645;   -9.500;11198.435
509.784;10841.675;  -13.242;12391.194
510.371;11688.010;  -10.964;13603.713
510.958;12164.686;   -9.772;14426.586
511.545;12676.051;   -7.842;15243.775
512.132;12811.253;  -12.184;15945.876
512.719;14142.253;   -9.733;16340.369
513.305;16780.248;   -9.172;18011.766
513.892;18060.967;   -9.581;19754.971
514.479;18903.377;  -10.253;20967.805
515.066;19362.715;   -8.183;22299.793
515.652;20399.850;   -9.253;22908.660
516.239;22021.123;   -9.412;23798.875
516.825;23462.143;  -11.153;25567.275
517.412;23191.418;  -10.263;28154.959
517.998;22653.193;   -8.802;28344.111
518.585;22743.650;  -10.401;27134.219
519.171;22952.660;  -12.744;27268.576
519.758;24505.820;  -11.793;28964.129
520.344;27065.477;   -8.912;30664.494
520.930;29291.395;  -10.901;32550.605
521.516;28298.855;  -12.034;35422.895
522.103;27636.375;  -10.473;38280.004
522.689;27726.014;   -8.311;37835.117
523.275;28526.496;  -10.691;37288.613
523.861;30990.961;  -11.193;37281.395
524.447;32099.799;  -11.484;37846.949
525.033;34543.223;   -7.702;38321.949
525.619;35610.637;  -11.241;38579.285
526.205;35924.863;  -12.152;40622.875
526.791;36860.926;  -11.423;42258.836
527.377;37498.891;   -7.981;42966.902
527.963;37552.648;   -9.450;42018.949
528.549;37838.668;  -11.351;42476.828
529.135;38607.434;  -10.202;41854.852
529.721;39475.277;   -8.672;41237.711
530.306;38940.387;   -9.111;41259.445
530.892;40399.645;  -11.252;41506.047
531.478;42805.945;  -10.432;43559.613
532.063;44614.930;  -10.721;47695.563
532.649;46071.594;   -7.450;50808.324
533.235;47517.738;  -11.811;51787.500
533.820;46908.910;   -9.383;52145.035
534.406;44376.766;   -9.400;51133.488
534.991;43290.789;   -8.861;49996.805
535.576;44469.941;  -10.612;48882.852
536.162;41995.367;   -7.322;46942.285
536.747;41836.559;   -9.360;45711.746
537.333;43934.000;  -10.450;48510.180
537.918;47049.070;  -12.610;50439.891
538.503;47334.574;  -12.132;50863.711
539.088;44660.918;  -10.831;50906.922
539.673;44615.305;  -11.220;52621.965
540.259;47746.355;  -11.481;52368.094
540.844;47370.457;  -11.462;50879.109
541.429;48401.172;   -7.869;52077.777
542.014;46347.422;  -11.859;52716.695
542.599;43473.922;  -11.061;52363.281
543.184;41402.355;  -12.300;53187.137
543.769;38477.371;   -9.369;54697.605
544.354;37005.270;  -12.020;53913.914
544.938;36782.590;  -10.350;49680.164
545.523;38725.324;  -10.841;47386.277
546.108;44902.914;   -8.579;49151.949
546.693;48814.105;   -8.818;51384.637
547.278;49982.434;  -11.331;51853.254
547.862;49417.203;  -10.292;51173.750
548.447;48186.000;   -8.349;51691.395
549.031;47562.848;  -10.838;52456.703
549.616;48661.250;  -11.681;52714.516
550.201;50871.520;  -11.140;52414.598
550.785;48555.098;   -8.649;52355.059
551.370;49114.738;  -11.889;54589.453
551.954;49914.652;  -11.239;58267.348
552.538;51707.090;   -8.850;59062.176
553.123;53875.609;  -10.829;58115.285
553.707;54367.324;   -8.887;56556.285
554.291;51424.574;  -10.430;56201.668
554.876;50556.477;   -9.799;55335.762
555.460;47552.855;  -10.018;54155.703
556.044;46604.418;   -7.307;53721.484
556.628;49948.453;  -12.229;53731.016
557.212;50852.520;   -9.820;54312.531
557.796;48980.957;   -9.109;53797.773
558.380;45885.379;   -9.707;56145.984
558.964;47615.340;  -10.980;57277.930
559.548;50864.492;  -12.010;56459.641
560.132;51741.914;   -7.928;54434.543
560.716;55145.934;  -10.247;54800.617
561.300;56245.184;  -11.250;57606.945
561.884;54195.031;  -10.568;58972.445
562.467;52176.465;   -9.727;57327.570
563.051;48285.238;  -11.847;54962.434
563.635;47302.902;  -10.747;52594.473
564.219;46054.176;  -13.108;50610.410
564.802;43992.652;  -11.417;49551.180
565.386;41676.645;  -10.457;48370.953
565.969;44310.582;   -8.959;48178.871
566.553;45289.027;  -10.328;49957.305
567.136;44874.047;  -10.257;50369.594
567.720;44024.945;  -10.186;49492.004
568.303;43431.551;  -10.027;50616.352
568.887;44145.898;  -10.397;50727.148
569.470;45389.848;   -8.185;51698.379
570.053;43713.398;  -11.596;52122.078
570.637;41470.020;  -11.378;52536.438
571.220;41039.078;   -9.138;51186.098
571.803;40516.262;   -7.675;51032.762
572.386;39696.301;   -8.976;49609.887
572.969;40834.824;  -12.477;48285.926
573.552;40856.527;   -9.767;47624.285
574.135;39126.102;   -8.175;45498.641
574.718;34774.285;  -11.096;41970.434
575.301;33585.609;  -11.966;41447.137
575.884;32396.936;  -12.836;40923.836
576.467;37783.602;   -9.116;45267.723
577.050;40277.699;  -10.536;48175.543
577.633;39948.535;  -11.027;47729.328
578.216;38274.961;   -9.946;47579.793
578.799;38009.164;   -9.645;47820.996
579.381;37677.469;   -9.446;48115.551
579.964;37683.875;  -12.217;47333.766
580.547;38562.563;  -10.586;46668.969
581.129;38250.242;   -8.374;44466.141
581.712;37430.520;  -10.434;44164.922
582.294;36855.520;  -10.896;46477.855
582.877;37513.082;   -8.906;48244.254
583.459;37670.105;   -9.994;47437.895
584.042;36754.090;  -10.084;46943.219
584.624;35578.617;  -13.534;46792.227
585.206;35381.184;  -12.716;46557.250
585.789;35712.641;  -11.614;45793.773
586.371;35448.008;  -10.203;43836.391
586.953;33926.461;  -10.314;42972.492
587.536;32147.143;   -9.776;42487.211
588.118;32435.541;   -9.821;42086.414
588.700;33404.871;  -10.073;43389.930
589.282;34888.723;  -12.395;43646.039
589.864;34624.266;  -11.514;43438.109
590.446;34850.613;  -10.803;43151.926
591.028;36307.727;  -11.043;42781.867
591.610;36230.043;  -13.244;42839.098
592.192;33163.996;  -11.095;42820.402
592.774;30605.602;  -10.823;40724.277
593.356;29956.797;  -11.052;39874.789
593.937;31472.064;  -11.664;39980.648
594.519;33694.188;  -10.454;42069.633
595.101;34243.680;  -10.322;42976.031
595.683;33367.758;  -10.042;44084.441
596.264;32113.707;  -14.334;43478.797
596.846;32296.389;  -10.863;43803.672
597.427;33208.996;   -9.901;42986.934
598.009;33315.051;  -10.911;42832.219
598.591;33029.191;  -10.483;42580.086
599.172;31907.857;   -9.663;43061.805
599.753;31117.543;  -10.631;41691.469
600.335;30969.428;   -9.371;40692.520
600.916;32408.918;  -13.992;39982.422
601.498;33649.602;   -8.352;40318.617
602.079;31994.984;   -8.411;40670.609
602.660;34226.027;  -10.841;41450.898
603.241;34678.754;  -12.963;41137.738
603.823;32154.660;  -11.523;38868.797
604.404;30163.357;  -11.881;38182.785
604.985;31331.234;  -11.721;38078.047
605.566;32506.236;   -9.293;38056.633
606.147;31570.979;  -10.940;37020.418
606.728;30716.857;  -11.840;37883.359
607.309;30162.494;  -11.781;38748.273
607.890;30278.965;  -11.262;38850.230
608.471;29039.221;  -10.111;37457.918
609.051;28859.033;   -7.709;36066.457
609.632;29292.457;  -12.409;35991.074
610.213;28188.143;  -10.811;37402.641
610.794;28334.428;  -11.630;38383.363
611.374;29684.975;   -8.030;40562.387
611.955;30982.705;  -10.809;38533.727
612.536;32431.426;  -10.531;36951.789
613.116;32400.588;  -12.820;37197.891
613.697;31641.902;  -11.419;38411.125
614.277;30832.318;   -9.768;38673.938
614.858;30093.752;  -10.251;37075.863
615.438;26561.580;  -11.981;35092.906
616.019;25538.303;   -8.978;33666.301
616.599;28438.738;  -12.219;34189.023
617.179;30921.283;  -14.170;36952.047
617.760;32730.535;   -9.211;39582.574
618.340;33048.031;   -9.018;38943.977
618.920;31208.922;   -9.249;37594.156
619.500;31259.131;  -12.728;37866.938
620.080;33475.777;  -12.939;37869.043
620.660;32265.359;  -11.586;36868.617
621.241;31164.877;  -11.538;36352.309
621.821;31394.715;  -11.398;35459.520
622.401;32343.139;  -10.179;35207.414
622.980;32265.166;  -11.587;35980.422
623.560;31121.852;  -12.888;37351.328
624.140;28929.086;  -13.149;34388.582
624.720;24485.262;   -9.928;32368.764
625.300;24481.893;  -10.869;32638.629
625.880;28705.172;   -8.617;34599.035
626.459;32772.672;  -12.138;36831.738
627.039;34055.656;  -12.267;38299.098
627.619;34111.469;   -7.476;38289.574
628.198;34692.742;  -11.347;37220.695
628.778;33812.516;  -11.678;37632.563
629.357;31538.441;  -12.438;38003.012
629.937;29618.834;   -9.576;38402.039
630.516;28570.012;  -11.096;37868.801
631.096;28460.006;  -11.828;35760.410
631.675;29409.377;  -11.565;35225.219
632.254;30153.994;  -11.845;35130.289
632.834;31029.844;  -11.545;35794.570
633.413;31751.207;  -10.887;35788.922
633.992;33276.418;  -10.175;34532.863
634.571;32401.422;   -9.704;33590.113
635.151;29928.578;  -10.815;34943.863
635.730;29686.598;  -11.617;35352.523
636.309;29613.732;  -10.836;35366.605
636.888;30596.568;   -9.755;36165.637
637.467;31287.826;  -11.684;37515.902
638.046;33332.426;  -11.987;39288.695
638.625;34142.625;  -10.455;38279.699
639.204;32987.793;  -11.234;37741.598
639.782;29957.094;  -12.023;38364.551
640.361;28267.543;  -11.506;36740.621
640.940;28097.818;  -12.316;34950.082
641.519;29778.533;  -11.616;34137.398
642.097;33189.789;   -9.266;35654.258
642.676;33474.309;  -12.936;35637.957
643.255;32796.078;   -9.966;36567.074
643.833;33131.793;   -8.916;37809.434
644.412;34568.418;  -10.936;37337.293
644.990;36369.070;  -12.176;37018.531
645.569;36310.703;  -12.246;36518.469
646.147;35506.539;  -12.107;36186.430
646.726;35123.902;  -12.937;36267.688
647.304;38179.254;  -12.547;36647.625
647.882;38692.176;  -12.597;39286.742
648.461;36416.164;   -9.427;39157.703
649.039;34113.906;   -8.937;35412.883
649.617;32636.125;  -11.067;34744.918
650.195;32597.041;  -10.657;35403.098
650.773;31833.959;  -10.097;35053.797
651.352;29637.436;  -11.887;33756.816
651.930;25353.457;  -13.557;31868.773
652.508;22721.254;  -11.767;33121.551
653.086;23851.861;  -10.777;33564.793
653.663;27553.428;  -12.067;34054.668
654.241;30544.268;  -14.918;35693.309
654.819;31616.709;  -11.788;36422.906
655.397;31136.381;  -11.268;38213.484
655.975;32147.990;  -11.738;39507.625
656.553;31984.102;  -11.018;39498.223
657.130;30937.176;  -12.848;40395.480
657.708;30416.012;  -10.098;39242.020
658.286;31307.932;  -11.678;38920.020
658.863;32817.738;  -11.498;40202.898
659.441;33932.184;  -11.008;39677.938
660.018;34582.613;  -11.048;40413.355
660.596;34364.289;  -12.058;39931.414
661.173;34192.844;  -14.158;39604.531
661.750;33713.121;  -12.298;39700.070
662.328;33068.477;  -10.699;39292.809
662.905;31584.129;  -12.119;38235.648
663.482;27523.471;  -11.829;36212.305
664.060;26607.941;  -11.009;35944.945
664.637;29189.078;  -10.369;35170.785
665.214;29580.344;  -10.459;34197.523
665.791;28163.281;  -12.599;34549.520
666.368;27845.730;  -12.919;35118.578
666.945;29896.877;  -10.699;36019.418
667.522;30840.980;  -11.359;36048.438
668.099;31067.711;  -13.529;36243.914
668.676;31103.646;  -10.229;35958.875
669.253;30749.682;   -9.279;37384.730
669.830;30012.969;  -11.370;36779.629
670.407;31304.748;  -10.950;35231.289
670.984;32588.139;  -12.850;35544.270
671.560;32348.752;   -8.440;35466.867
672.137;30487.875;  -13.520;34280.863
672.714;28960.430;  -13.620;34632.863
673.290;28956.686;  -10.450;35135.422
673.867;28195.359;  -10.960;36114.480
674.443;26735.064;  -13.300;36152.859
675.020;27333.402;  -12.370;35327.238
675.596;27716.650;  -11.250;35795.176
676.173;28218.898;  -11.080;35430.355
676.749;28567.320;  -13.220;33549.516
677.326;31793.426;  -13.000;32210.012
677.902;33115.543;  -12.701;32068.871
678.478;32499.195;  -12.801;32583.891
679.054;31677.850;   -8.601;32088.928
679.631;33140.535;  -12.631;30978.848
680.207;33189.367;   -9.451;33160.887
680.783;31321.258;  -11.701;35570.363
681.359;31017.457;  -12.701;36125.184
681.935;30597.889;  -13.271;35240.922
682.511;29453.033;  -10.791;34429.961
683.087;30008.320;  -10.791;34463.680
683.663;30274.164;   -8.121;34648.898
684.239;32042.521;  -13.261;34546.457
684.815;31144.791;  -10.581;35586.375
685.390;28472.645;   -9.961;35821.895
685.966;27370.551;  -11.182;35085.871
686.542;26894.451;  -13.512;34198.230
687.118;27304.740;  -11.472;32847.707
687.693;27531.947;  -10.152;32794.027
688.269;28972.092;  -14.442;33072.367
688.844;30311.605;  -11.852;33141.664
689.420;28299.908;  -13.942;33965.742
689.995;26665.758;   -9.702;34655.523
690.571;26719.400;  -11.312;33576.742
691.146;26268.135;  -14.332;32657.219
691.722;27929.781;  -11.192;32526.979
692.297;30058.623;  -10.962;33014.617
692.872;28969.924;  -11.082;34012.254
693.448;28260.262;  -14.732;34237.434
694.023;27731.789;  -12.363;34142.672
694.598;27943.707;  -12.393;34132.031
695.173;27226.193;  -11.023;34205.250
695.748;27030.143;  -12.743;32882.488
696.323;28438.498;  -11.103;32864.906
696.898;29703.240;   -8.123;33170.004
697.473;29507.594;  -12.603;32432.984
698.048;28634.070;  -12.553;31649.303
698.623;29907.092;  -12.573;30778.141
699.198;32768.000;  -12.743;31140.119
699.773;30474.313;  -12.843;31764.299
700.348;29424.246;  -16.683;31780.816
700.922;29903.904;  -11.403;32046.375
701.497;30753.049;  -11.253;32603.574
702.072;31088.137;  -10.044;34799.871
702.646;30010.074;  -13.054;35793.172
703.221;28473.615;  -11.414;35201.590
703.795;28834.039;  -10.644;34764.527
704.370;30293.947;  -13.484;34307.367
704.944;30054.068;  -12.144;33509.887
705.519;29002.117;  -12.024;31388.584
706.093;27740.936;  -11.234;31340.104
706.668;26239.303;   -9.874;32630.281
707.242;25650.389;  -12.404;32728.779
707.816;25496.410;  -10.644;32947.238
708.390;25226.023;  -11.174;33277.855
708.965;25964.246;  -10.324;33834.336
709.539;25411.025;  -12.014;33709.273
710.113;25232.596;  -12.295;33044.313
710.687;25904.104;  -10.965;31953.992
711.261;26217.906;  -13.685;30505.949
711.835;25392.984;  -15.335;30262.369
712.409;24535.045;  -13.785;31254.447
712.983;25597.418;  -10.525;32754.986
713.557;27198.088;  -13.175;34018.824
714.131;28254.293;  -13.245;34579.625
714.704;29748.988;  -13.175;33890.262
715.278;31682.418;  -11.545;33531.102
715.852;31069.182;  -10.975;33601.660
716.425;30484.496;  -10.075;33515.117
716.999;30405.564;  -12.185;33185.555
717.573;31097.635;   -9.685;33905.996
718.146;32872.492;  -10.516;35199.293
718.720;29669.500;  -12.106;35060.551
719.293;28856.777;  -12.386;34973.230
719.867;31614.516;  -12.456;36394.449
720.440;31379.525;  -10.686;36663.008
721.013;31128.537;  -12.596;35102.426
721.587;31318.143;  -13.956;33985.266
722.160;30718.473;   -9.806;33524.965
722.733;30701.555;  -11.676;32987.043
723.306;30262.371;  -14.276;33066.301
723.880;30151.334;  -12.126;33399.500
724.453;31097.244;  -10.156;33468.297
725.026;29910.926;  -12.956;33816.637
725.599;28060.188;  -11.676;32797.996
726.172;27038.418;  -12.337;33187.434
726.745;27927.256;  -11.277;35136.613
727.318;27389.373;  -11.927;35751.730
727.891;26266.975;  -13.607;35890.430
728.463;26370.582;  -11.327;34822.090
729.036;25803.295;  -11.917;32895.086
729.609;26331.996;  -12.697;31823.225
730.182;27321.227;  -11.787;31445.283
730.754;28104.869;  -12.957;32373.223
731.327;28765.436;  -11.017;33676.820
731.900;27468.760;  -12.797;33417.000
732.472;25518.154;  -10.677;31978.498
733.045;24816.764;  -12.797;30368.777
733.617;25387.033;  -13.908;30574.215
734.190;25366.691;  -12.258;31280.975
734.762;26402.090;  -13.438;31674.412
735.334;26888.068;  -11.758;31247.291
735.907;26861.721;  -11.158;29876.211
736.479;27627.098;  -11.258;29808.488
737.051;29297.285;  -10.918;30233.547
737.623;30534.881;  -11.038;31469.086
738.195;30347.916;  -12.188;31784.225
738.768;27425.809;  -11.378;32120.523
739.340;26446.592;  -12.598;32094.342
739.912;27574.943;  -11.568;31312.680
740.484;27670.301;   -9.348;31946.238
741.056;27031.029;  -12.628;32984.059
741.628;27262.430;  -13.349;33897.715
742.199;27563.111;  -11.309;33213.016
742.771;27390.703;  -12.699;31369.113
743.343;29076.418;  -11.919;31865.473
743.915;29521.516;  -11.679;32388.631
744.487;28156.564;  -12.249;31079.568
745.058;26385.311;  -11.119;30570.107
745.630;25008.197;   -9.439;29970.127
746.201;24757.223;  -11.949;29186.766
746.773;24609.244;  -12.639;28805.723
747.344;24089.426;  -11.039;29591.223
747.916;23106.859;  -12.549;31412.201
748.487;22149.221;  -12.659;32194.898
749.059;21923.496;  -13.059;32533.719
749.630;23135.887;  -12.080;32158.518
750.201;22521.951;  -13.100;30855.395
750.773;21095.727;  -15.310;28622.555
751.344;20795.898;  -12.240;28405.732
751.915;20852.543;  -11.960;28461.551
752.486;20724.037;  -13.200;27842.850
753.057;20636.486;  -15.230;27845.008
753.628;20634.102;  -13.130;27728.107
754.199;20839.705;  -12.720;27381.086
754.770;20718.959;  -10.680;25882.203
755.341;20750.074;  -11.010;25886.184
755.912;20123.000;  -12.990;26050.861
756.483;18933.635;  -11.110;26798.779
757.054;18244.434;  -12.190;27048.238
757.625;18355.549;  -13.981;26294.838
758.195;18515.631;  -11.041;26142.076
758.766;19752.801;  -11.861;26392.234
759.337;20669.002;  -11.461;26334.594
759.907;21027.117;  -15.001;27579.652
760.478;20762.510;   -9.681;28352.770
761.048;20213.047;  -12.421;27325.088
761.619;19458.516;  -11.761;26460.428
762.189;17967.039;  -12.391;26029.826
762.760;17469.615;  -10.201;26430.145
763.330;18394.072;  -10.811;26670.902
763.900;20846.986;  -10.261;26603.021
764.471;20742.977;  -13.061;25542.740
765.041;19260.930;  -11.051;24358.459
765.611;19251.742;  -11.032;23991.297
766.181;19176.301;  -10.532;24470.236
766.751;18986.518;  -13.502;24845.975
767.321;19186.711;  -11.392;24533.633
767.891;19522.424;  -11.522;24916.492
768.461;20101.971;  -13.672;24776.771
769.031;19660.355;  -14.652;24757.988
769.601;18662.080;  -10.182;24181.088
770.171;16954.900;  -11.752;23670.387
770.741;15561.400;  -12.272;22960.045
771.311;15607.174;  -13.112;22917.523
771.880;15757.944;  -14.122;23562.941
772.450;16788.025;  -11.782;24216.500
773.020;18453.697;  -12.642;24140.398
773.589;17844.779;  -13.043;24414.857
774.159;15912.319;  -11.783;23858.717
774.729;15042.386;  -13.473;22942.135
775.298;16151.316;  -14.523;22324.033
775.867;17137.264;  -12.013;21140.313
776.437;16230.048;  -12.113;20838.092
777.006;14624.179;  -13.543;20599.510
777.576;13083.895;  -12.523;20508.809
778.145;12789.888;  -12.173;20732.947
778.714;14025.269;  -12.153;21062.465
779.283;14555.762;  -11.833;20949.664
779.853;15087.953;  -13.483;20508.623
780.422;15734.177;  -12.933;20649.082
780.991;15169.447;  -13.173;21527.520
781.560;13551.821;  -10.224;22632.658
782.129;13106.408;  -12.684;23048.277
782.698;14371.393;  -11.284;23438.555
783.267;15442.061;  -11.684;23267.734
783.836;14484.512;  -10.974;22415.133
784.404;13172.033;  -13.534;20443.152
784.973;13103.381;  -16.734;19699.150
785.542;13156.083;  -12.594;19763.828
786.111;12885.969;  -11.644;20341.408
786.679;13417.688;  -11.384;20207.967
787.248;14277.668;  -12.014;19516.465
787.817;13349.033;  -12.804;18900.363
788.385;12211.844;  -11.994;17879.121
788.954;12255.402;  -12.564;17658.301
789.522;13571.244;  -12.225;17788.879
790.090;13782.988;  -13.775;18118.277
790.659;12750.955;  -12.485;18338.736
791.227;12160.676;  -12.295;18508.615
791.795;12212.004;  -13.415;17898.254
792.364;11683.113;  -12.995;17295.133
792.932;11240.049;   -8.365;16822.051
793.500;11406.353;  -11.925;17040.148
794.068;11607.554;  -13.245;17179.787
794.636;11639.140;  -13.815;16664.246
795.204;11066.145;  -13.375;16524.545
795.772;10974.927;  -12.125;17274.564
796.340;11365.880;  -13.855;17891.002
796.908;11655.529;  -13.456;17648.561
797.476;11129.779;  -13.116;17064.080
798.044;10682.474;  -13.226;16672.777
798.612;11414.810;  -11.236;17023.996
799.180;12422.008;  -10.476;16561.615
799.747;12588.380;  -11.746;15962.773
800.315;11695.267;  -12.366;15296.992
800.883;10755.002;  -14.616;14801.771
801.450;10370.754;  -11.996;14534.430
802.018;10970.208;  -11.206;14173.248
802.585;10502.364;  -12.466;14029.547
803.153; 9445.810;  -12.846;13836.846
803.720; 9104.966;  -12.136;13567.324
804.287; 9082.688;  -10.966;13360.622
804.855; 9430.859;   -9.797;13681.981
805.422; 9326.958;  -13.037;13536.560
805.989; 8963.664;  -12.697;13355.958
806.556; 9164.542;  -11.737;13747.896
807.124; 9534.179;  -11.997;13987.376
807.691; 9095.845;  -13.997;14038.674
808.258; 8898.839;  -10.927;14120.152
808.825; 9431.708;  -13.727;13860.111
809.392; 9894.141;  -11.847;13268.790
809.959; 9178.433;  -14.217;12680.389
810.526; 8256.333;   -8.277;12427.308
811.093; 8124.293;   -9.647;12030.105
811.659; 8029.665;  -10.987;11653.664
812.226; 7532.162;  -13.447;11637.183
812.793; 7594.668;  -14.418;11611.521
813.360; 8090.124;  -13.908;11885.181
813.926; 8210.487;  -12.918;12770.539
814.493; 8075.675;  -14.888;12677.638
815.060; 8130.944;  -12.758;11974.336
815.626; 8397.540;  -13.478;11594.715
816.193; 8405.381;  -13.898;11579.474
816.759; 8166.632;  -13.588;11666.972
817.325; 8139.583;  -12.018;11325.530
817.892; 7736.504;  -14.068;11105.369
818.458; 6959.624;  -13.458;10843.928
819.024; 6609.844;  -11.968;10714.406
819.591; 6276.030;  -11.028;10469.165
820.157; 6027.659;  -12.088;10235.523
820.723; 5926.894;  -12.599;10847.563
821.289; 6168.890;  -10.419;11040.980
821.855; 6918.283;  -10.939;10357.100
822.421; 7520.322;  -12.539; 9978.918
822.987; 7403.518;  -13.259; 9754.177
823.553; 6689.609;  -15.369;10065.755
824.119; 6374.079;  -10.779;10036.294
824.685; 5925.907;   -9.999;10029.192
825.251; 5524.336;  -11.819;10199.230
825.816; 5287.866;  -13.369; 9820.189
826.382; 5431.446;  -12.679; 9297.248
826.948; 5699.749;  -11.199; 9381.347
827.513; 5559.267;  -11.179; 9450.726
828.079; 5459.847;  -13.489; 9472.444
828.645; 5720.681;  -12.500; 9292.643
829.210; 6004.611;  -15.120; 9065.341
829.776; 5887.830;  -12.590; 9132.620
830.341; 5677.674;  -11.540; 9092.878
830.906; 5648.123;  -12.400; 9078.557
831.472; 5523.327;  -12.720; 8534.535
832.037; 5093.842;  -11.490; 8677.874
832.602; 4619.970;  -14.380; 8628.692
833.167; 4766.123;  -12.780; 8879.031
833.733; 5025.011;  -11.100; 9189.790
834.298; 5271.356;  -12.080; 9052.608
834.863; 5253.911;  -13.910; 8895.087
835.428; 4963.792;  -13.470; 8824.266
835.993; 5224.701;  -11.760; 8845.385
836.558; 5665.839;  -12.731; 8888.563
837.123; 5791.978;  -12.431; 8966.582
837.688; 5553.479;  -11.241; 8617.860
838.253; 5218.862;  -13.681; 8590.699
838.817; 4936.203;  -12.531; 8443.797
839.382; 5077.360;  -12.671; 8799.356
839.947; 5060.595;  -11.541; 8810.595
840.511; 4866.180;  -12.021; 8796.394
841.076; 4832.422;  -13.071; 8347.231
841.641; 4739.544;  -11.411; 8224.330
842.205; 4585.211;  -13.671; 8223.349
842.770; 4576.221;  -11.291; 8622.107
843.334; 4677.745;  -12.951; 8410.386
843.898; 4737.514;  -11.221; 8337.465
844.463; 4688.984;  -11.322; 8506.283
845.027; 4456.495;  -11.412; 8280.962
845.591; 4168.170;  -11.512; 8231.141
846.156; 4254.148;  -14.042; 7969.179
846.720; 4483.728;  -12.152; 7768.278
847.284; 4530.404;  -10.922; 7630.957
847.848; 4290.419;  -10.962; 7472.395
848.412; 3963.946;  -14.612; 7437.394
848.976; 3940.926;  -11.492; 7674.592
849.540; 3986.663;   -9.172; 7836.011
850.104; 4337.006;  -11.232; 7913.669
850.668; 4711.134;  -15.182; 7694.508
851.232; 4411.521;  -15.332; 7756.887
851.796; 4125.404;  -13.703; 7926.545
852.359; 4172.128;  -11.113; 7827.844
852.923; 4107.357;  -11.843; 7641.163
853.487; 3952.060;  -11.173; 7342.501
854.050; 3751.166;  -13.443; 7042.820
854.614; 3601.192;  -13.823; 7151.338
855.177; 3655.649;  -16.393; 7105.077
855.741; 3769.648;  -11.693; 6989.675
856.304; 3778.031;  -10.843; 6596.634
856.868; 3689.622;  -13.783; 6356.272
857.431; 3471.144;  -11.953; 6468.571
857.995; 3311.967;  -13.683; 6373.210
858.558; 3286.512;  -11.433; 6324.448
859.121; 3246.974;  -12.493; 6408.327
859.684; 3267.218;  -12.384; 6347.886
860.247; 3275.844;  -14.774; 6321.264
860.810; 3139.928;  -13.154; 6301.903
861.374; 3007.793;  -11.264; 6607.881
861.937; 2950.526;  -15.424; 6408.200
862.500; 2981.265;  -12.854; 6572.639
863.062; 3030.826;  -12.344; 6387.297
863.625; 3029.417;  -13.314; 6190.836
864.188; 2875.302;  -14.724; 5807.254
864.751; 2802.812;  -13.464; 5682.413
865.314; 2794.833;  -11.684; 5547.492
865.876; 2865.067;  -11.104; 5500.150
866.439; 2996.723;  -12.344; 5415.909
867.002; 3002.936;  -13.494; 5501.567
867.564; 3001.122;  -10.935; 5413.946
868.127; 2890.834;  -12.665; 5160.325
868.689; 2741.923;  -14.515; 5133.183
869.252; 2795.322;  -13.425; 5252.382
869.814; 2886.318;  -11.595; 5297.141
870.377; 2922.205;  -12.175; 5390.919
870.939; 2797.806;  -10.265; 5599.898
871.501; 2694.505;  -12.375; 5248.336
872.063; 2647.229;  -14.355; 4854.235
872.626; 2610.229;  -14.435; 4817.074
873.188; 2313.804;  -12.415; 4987.732
873.750; 1932.116;  -14.555; 4868.651
874.312; 1627.538;  -11.185; 4779.330
874.874; 1432.296;  -12.715; 4866.348
875.436; 1358.447;  -13.196; 4718.887
875.998; 1398.822;  -11.426; 4660.005
876.560; 1457.090;   -9.786; 4462.964
877.122; 1536.885;  -12.796; 4145.042
877.683; 1577.095;  -13.226; 4056.481
878.245; 1559.553;  -12.036; 3950.740
878.807; 1523.780;  -11.536; 4058.958
879.369; 1556.217;  -10.806; 3954.677
879.930; 1685.088;  -13.946; 3941.495
880.492; 1792.743;  -11.876; 4067.014
881.053; 1710.252;  -13.216; 3859.633
881.615; 1596.112;  -12.226; 3776.071
882.176; 1537.597;  -12.946; 3734.750
882.738; 1532.768;  -10.736; 3678.489
883.299; 1494.993;  -12.057; 3405.407
883.860; 1402.089;  -12.677; 3351.106
884.422; 1350.379;  -14.097; 3394.044
884.983; 1301.497;  -13.667; 3166.443
885.544; 1244.254;  -10.717; 3189.802
886.105; 1192.269;  -14.357; 3160.360
886.666; 1130.314;  -14.287; 3093.059
887.227; 1064.882;  -14.297; 2941.957
887.788; 1017.076;  -13.137; 2974.836
888.349;  952.976;  -14.637; 2721.214
888.910;  889.538;  -12.247; 2696.493
889.471;  887.154;  -10.577; 2560.172
890.032;  892.751;  -12.937; 2558.190
890.593;  886.465;  -12.487; 2567.669
891.153;  864.467;  -11.898; 2460.307
891.714;  832.214;  -14.278; 2372.046
892.275;  810.286;  -13.308; 2309.505
892.835;  760.049;  -12.058; 2382.543
893.396;  676.692;  -15.268; 2295.502
893.956;  626.194;  -13.278; 2162.420
894.517;  605.139;  -11.968; 2125.439
895.077;  608.430;  -12.798; 2086.978
895.638;  587.368;  -11.908; 2126.316
896.198;  562.632;  -13.288; 1838.275
896.758;  538.842;  -12.198; 1892.813
897.319;  508.194;  -13.048; 1792.232
897.879;  474.594;  -13.718; 1762.751
898.439;  435.306;  -14.138; 1661.149
898.999;  402.628;  -13.659; 1781.468
899.559;  385.781;  -14.699; 1703.347
900.119;  369.773;  -14.339; 1537.525
900.679;  346.521;  -11.789; 1638.384
901.239;  316.716;  -13.629; 1527.902
901.799;  297.933;  -13.679; 1456.441
902.359;  288.257;  -13.679; 1357.140
902.919;  279.738;  -14.159; 1331.118
903.479;  268.051;  -13.419; 1317.257
904.038;  251.410;  -14.899; 1262.595
904.598;  236.891;  -14.339; 1152.034
905.158;  227.383;  -13.959; 1240.893
905.717;  221.024;  -12.749; 1233.691
906.277;  216.939;  -11.889; 1217.330
906.836;  211.796;  -12.870; 1222.408
907.396;  206.493;  -11.790; 1193.047
907.955;  198.134;  -13.750; 1182.526
908.515;  189.002;  -14.760; 1099.364
909.074;  185.108;  -12.540; 1092.863
909.633;  179.959;  -12.120; 1069.121
910.192;  175.026;  -12.550; 1196.460
910.752;  169.016;  -12.760; 1029.960
911.311;  165.208;  -14.750; 1009.780
911.870;  163.478;  -13.860;  971.460
912.429;  164.042;  -13.480; 1094.080
912.988;  163.178;  -12.370; 1081.060
913.547;  158.871;  -14.670;  940.380
914.106;  156.700;  -12.800;  999.420
914.665;  156.256;  -11.370;  984.020
915.224;  153.190;  -11.430; 1035.760
915.782;  150.090;  -12.260;  922.560
916.341;  150.009;  -12.540; 1049.840
916.900;  147.875;  -12.540;  925.260
917.458;  145.736;  -13.480;  884.220
918.017;  146.896;  -12.470;  942.600
918.576;  146.330;  -13.450;  904.440
919.134;  144.535;  -12.890;  837.980
919.693;  141.387;  -15.480;  893.060
920.251;  138.263;  -14.420;  876.500
920.809;  134.806;  -12.170;  839.580
921.368;  133.629;  -13.650;  885.360
921.926;  133.245;  -12.750;  842.940
922.484;  132.556;  -14.150;  903.360
923.042;  133.647;  -15.100;  880.340
923.601;  136.441;  -10.990;  998.680
924.159;  135.751;  -12.470;  935.560
924.717;  134.755;  -15.640;  841.080
925.275;  137.257;  -12.380;  903.240
925.833;  136.714;  -12.710;  779.320
926.391;  139.821;  -11.200;  938.380
926.949;  140.547;  -16.000;  857.680
927.506;  141.532;  -12.260;  903.500
928.064;  142.419;  -11.300;  877.580
928.622;  142.736;  -13.750;  880.100
929.180;  142.060;  -15.290;  814.180
929.737;  143.469;  -14.500;  808.540
930.295;  145.734;  -10.630;  928.480
930.853;  147.208;  -14.590;  849.100
931.410;  147.464;  -14.450;  821.120
931.968;  149.844;  -14.390;  940.660
932.525;  151.930;  -13.050;  909.380
933.082;  154.514;  -15.620;  811.440
933.640;  161.979;  -15.650;  925.900
934.197;  166.503;  -13.610;  886.360
934.754;  169.629;  -13.320;  897.780
935.312;  168.533;  -13.370;  863.340
935.869;  171.081;  -12.780; 1012.980
936.426;  172.896;  -14.480;  872.800
936.983;  175.763;  -13.180;  889.020
937.540;  176.093;  -15.710;  838.280
938.097;  176.688;  -14.980;  940.120
938.654;  174.569;  -13.060;  898.860
939.211;  173.503;  -12.760;  952.480
939.768;  173.689;  -16.230;  915.420
940.324;  177.935;  -10.940;  904.200
940.881;  184.210;  -12.570;  878.500
941.438;  186.989;  -13.650; 1021.200
941.995;  183.147;  -13.300;  992.560
942.551;  182.329;  -15.800;  875.620
943.108;  180.685;  -14.180;  937.920
943.664;  175.540;  -13.890;  869.340
944.221;  175.049;  -12.640; 1088.140
944.777;  174.459;  -14.700;  869.680
945.334;  176.727;  -13.010;  884.840
945.890;  177.024;  -13.480;  946.480
946.446;  174.700;  -14.920;  947.020
947.003;  176.330;  -13.860;  964.940
947.559;  176.613;  -12.000; 1063.040
948.115;  174.203;  -10.510; 1026.540
948.671;  172.176;  -12.760;  967.300
949.227;  168.531;  -15.390;  859.560
949.783;  165.219;  -15.570;  858.900
950.339;  165.441;  -12.800;  991.000
950.895;  163.137;  -13.780; 1023.840
951.451;  159.595;  -13.810;  925.280
952.007;  159.276;  -12.390;  998.540
952.563;  157.501;  -11.980;  937.780
953.118;  153.960;  -14.070;  904.940
953.674;  152.017;  -14.140;  935.780
954.230;  153.829;  -12.680;  949.640
954.785;  154.848;  -12.770;  936.640
955.341;  155.091;  -11.450;  998.160
955.897;  148.502;  -15.350;  834.660
956.452;  148.399;  -14.200;  953.840
957.008;  148.119;  -10.820; 1083.640
957.563;  144.094;  -13.200; 1009.540
958.118;  139.428;  -14.460;  877.700
958.674;  139.298;  -13.840;  946.780
959.229;  140.642;  -10.670; 1013.980
959.784;  141.170;  -17.040;  832.400
960.339;  144.472;  -12.970; 1001.280
960.894;  144.195;  -12.700;  963.760
961.449;  143.091;  -13.790;  859.960
962.004;  147.915;  -11.760; 1212.840
962.559;  146.772;  -14.840;  860.140
963.114;  146.765;  -14.530;  742.480
963.669;  148.361;  -12.780;  915.500
964.224;  147.752;  -14.330;  874.340
964.779;  143.791;  -14.380;  828.420
965.334;  139.642;  -12.460; 1017.860
965.888;  135.240;  -13.490;  875.360
966.443;  135.645;  -14.140;  972.380
966.998;  131.301;  -16.240;  819.460
967.552;  128.797;  -12.730;  908.380
968.107;  124.872;  -14.510;  868.300
968.661;  126.686;  -11.850;  922.440
969.216;  123.695;  -14.370;  856.280
969.770;  123.183;  -13.010;  917.200
970.324;  122.544;  -12.460;  923.140
970.879;  121.352;  -11.580;  947.180
971.433;  120.505;  -13.130;  952.720
971.987;  118.525;  -12.360;  895.340
972.541;  118.093;  -14.330;  917.100
973.095;  119.158;  -13.310; 1009.460
973.649;  117.032;  -15.830;  809.480
974.203;  118.846;  -15.830;  829.040
974.757;  122.732;  -13.480;  855.220
975.311;  121.881;  -13.720;  872.600
975.865;  118.211;  -15.780;  881.820
976.419;  114.323;  -14.290;  857.400
976.973;  113.097;  -13.210;  849.620
977.526;  112.552;  -12.300;  949.920
978.080;  108.707;  -14.840;  796.780
978.634;  108.623;  -13.100;  921.320
979.187;  106.194;  -12.300;  905.400
979.741;  102.540;  -12.020; 1018.380
980.294;   96.454;  -14.590;  789.160
980.848;   94.026;  -14.390;  717.220
981.401;   94.303;  -14.280;  816.540
981.955;   95.042;  -11.920;  844.300
982.508;   91.863;  -15.790;  746.340
983.061;   91.470;  -12.070;  915.260
983.615;   88.789;  -13.260;  798.800
984.168;   86.776;  -15.540;  770.080
984.721;   86.370;  -13.230;  880.760
985.274;   85.286;  -11.820;  867.500
985.827;   83.010;  -13.510;  834.220
986.380;   79.606;  -14.840;  721.340
986.933;   80.083;  -13.970;  864.800
987.486;   78.676;  -12.450;  861.920
988.039;   77.156;  -11.170;  863.100
988.591;   73.858;  -13.070;  893.260
989.144;   70.539;  -15.530;  737.260
989.697;   69.452;  -14.300;  758.740
990.250;   68.613;  -13.310;  858.100
990.802;   66.779;  -14.490;  755.860
991.355;   68.051;  -12.980;  974.880
991.907;   66.691;  -13.715;  864.320
992.460;   65.332;  -14.450;  753.760
993.012;   64.135;  -12.590;  749.540
993.565;   62.426;  -15.180;  711.360
994.117;   63.901;  -11.630;  950.780
994.669;   59.920;  -13.760;  701.320
995.221;   59.260;  -12.710;  791.920
995.774;   59.208;  -14.620;  787.580
996.326;   57.620;  -13.150;  740.220
996.878;   58.235;  -12.880;  838.420
997.430;   57.104;  -14.580;  699.860
997.982;   56.227;  -14.030;  750.140
998.534;   55.333;  -12.190;  739.060
999.086;   54.248;  -12.990;  738.220
999.638;   52.457;  -13.180;  661.380
1000.190;   52.383;  -14.970;  699.320
1000.741;   52.444;  -12.200;  742.700
1001.293;   52.366;  -13.400;  686.020
1001.845;   50.987;  -14.490;  676.640
1002.396;   51.610;  -15.280;  743.400
1002.948;   51.233;  -12.380;  737.400
1003.500;   49.872;  -13.260;  723.780
1004.051;   50.632;  -13.730;  907.580
1004.603;   49.714;  -12.300;  791.820
1005.154;   45.905;  -15.330;  608.980
1005.705;   45.449;  -12.800;  723.960
1006.257;   44.956;  -13.900;  707.220
1006.808;   44.144;  -14.430;  685.460
1007.359;   43.761;  -12.010;  763.240
1007.910;   42.346;  -12.690;  646.640
1008.461;   41.779;  -13.610;  732.940
1009.013;   40.212;  -14.990;  588.340
1009.564;   41.565;  -11.860;  793.520
1010.115;   39.030;  -12.640;  597.040
1010.665;   38.995;  -14.570;  602.160
1011.216;   39.661;  -15.190;  667.920
1011.767;   39.081;  -13.470;  697.920
1012.318;   39.447;  -13.760;  736.980
1012.869;   37.559;  -15.950;  679.000
1013.419;   38.044;  -15.880;  603.120
1013.970;   37.773;  -14.540;  666.640
1014.521;   37.305;  -13.220;  620.620
1015.071;   37.680;  -15.020;  670.380
1015.622;   36.494;  -17.510;  635.460
1016.172;   35.451;  -14.130;  596.820
1016.723;   36.342;  -14.220;  614.380
1017.273;   35.110;  -15.370;  604.160
1017.823;   35.792;  -15.290;  650.340
1018.374;   35.387;  -13.420;  611.760
1018.924;   35.622;  -11.740;  716.880
1019.474;   36.271;  -12.250;  718.880
1020.024;   33.955;  -15.850;  657.580
1020.574;   35.008;  -13.280;  726.160
1021.124;   34.420;  -13.560;  673.580
1021.674;   32.772;  -13.790;  559.120
1022.224;   35.330;  -14.610;  708.940
1022.774;   32.962;  -13.100;  668.820
1023.324;   34.431;  -11.470;  753.520
1023.874;   35.342;  -11.990;  875.760
1024.423;   32.297;  -14.550;  613.700
1024.973;   31.915;  -14.440;  610.760
1025.523;   31.998;  -13.250;  620.960
1026.072;   31.707;  -15.200;  606.420
1026.622;   32.043;  -14.590;  675.740
1027.172;   32.327;  -11.080;  715.660
1027.721;   30.856;  -14.010;  601.220
1028.270;   31.257;  -13.690;  663.400
1028.820;   30.915;  -15.380;  638.080
1029.369;   30.359;  -14.980;  612.700
1029.918;   31.584;  -13.100;  649.840
1030.468;   30.038;  -13.680;  564.780
1031.017;   30.457;  -13.770;  634.800
1031.566;   28.934;  -14.100;  608.900
1032.115;   30.735;  -11.770;  694.500
1032.664;   28.627;  -14.940;  596.480
1033.213;   29.840;  -13.370;  735.420
1033.762;   29.490;  -13.660;  635.620
1034.311;   28.877;  -13.650;  677.220
1034.860;   29.295;  -13.820;  691.000
1035.408;   28.818;  -12.860;  722.720
1035.957;   29.449;  -13.060;  719.540
1036.506;   26.704;  -14.510;  530.800
1037.055;   30.029;  -13.470;  844.320
1037.603;   27.705;  -14.800;  664.000
1038.152;   26.441;  -14.190;  534.760
1038.700;   26.863;  -11.810;  585.740
1039.249;   26.974;  -12.850;  681.220
1039.797;   26.898;  -14.610;  633.360
1040.345;   27.289;  -15.220;  705.420
1040.894;   26.899;  -13.480;  625.300
1041.442;   26.212;  -13.310;  632.200
1041.990;   24.810;  -14.510;  559.160
1042.538;   24.698;  -15.700;  536.180
1043.087;   24.491;  -13.910;  570.860
1043.635;   26.471;  -13.620;  670.500
1044.183;   24.992;  -14.230;  586.400
1044.731;   25.111;  -13.730;  576.000
1045.279;   24.777;  -13.970;  674.920
1045.827;   27.504;  -10.750;  892.400
1046.374;   22.747;  -15.230;  515.420
1046.922;   23.202;  -15.390;  590.580
1047.470;   24.521;  -12.320;  691.300
1048.018;   24.825;  -13.230;  647.960
1048.565;   24.924;  -13.390;  708.600
1049.113;   22.884;  -15.030;  557.000
1049.660;   23.329;  -12.540;  629.660
1050.208;   23.736;  -15.040;  675.640
1050.755;   23.331;  -14.680;  606.580
1051.303;   23.608;  -13.610;  686.820
1051.850;   22.630;  -14.340;  635.120
1052.397;   20.803;  -16.330;  473.960
1052.945;   22.106;  -15.710;  617.760
1053.492;   23.749;  -12.320;  741.840
1054.039;   23.278;  -13.730;  720.180
1054.586;   22.258;  -16.140;  557.240
1055.133;   22.762;  -14.020;  693.140
1055.680;   22.548;  -13.430;  646.620
1056.227;   21.309;  -14.570;  542.780
1056.774;   23.667;  -14.400;  794.980
1057.321;   20.621;  -14.230;  523.260
1057.868;   21.237;  -14.220;  651.320
1058.415;   21.455;  -14.060;  651.980
1058.961;   21.766;  -14.640;  678.940
1059.508;   21.820;  -13.970;  643.820
1060.055;   20.683;  -15.100;  581.780
1060.601;   21.295;  -12.180;  624.300
1061.148;   20.354;  -15.010;  616.820
1061.694;   19.151;  -14.750;  592.580
1062.241;   20.113;  -14.130;  596.320
1062.787;   19.950;  -14.770;  663.140
1063.334;   22.296;  -13.130;  808.560
1063.880;   19.941;  -14.420;  668.360
1064.426;   20.175;  -13.130;  706.820
1064.972;   18.893;  -13.960;  601.340
1065.518;   17.954;  -13.680;  566.640
1066.065;   19.146;  -15.720;  624.460
1066.611;   18.819;  -13.970;  598.800
1067.157;   18.522;  -13.920;  641.860
1067.703;   19.107;  -14.760;  668.480
1068.249;   19.264;  -14.490;  605.220
1068.794;   18.734;  -14.740;  626.880
1069.340;   17.664;  -13.220;  578.960
1069.886;   18.517;  -14.930;  590.700
1070.432;   17.467;  -14.700;  541.720
1070.977;   17.050;  -14.470;  601.080
1071.523;   17.680;  -14.330;  573.060
1072.068;   17.589;  -14.960;  582.000
1072.614;   16.588;  -16.220;  527.760
1073.160;   18.203;  -11.280;  687.040
1073.705;   16.727;  -15.990;  572.520
1074.250;   16.905;  -16.550;  559.900
1074.796;   17.269;  -14.600;  655.160
1075.341;   17.426;  -13.440;  664.100
1075.886;   16.491;  -14.450;  594.240
1076.431;   17.044;  -13.160;  649.880
1076.976;   16.542;  -14.710;  639.220
1077.521;   15.816;  -14.000;  583.080
1078.067;   15.476;  -14.470;  579.400
1078.612;   16.791;  -14.530;  661.620
1079.156;   15.757;  -15.660;  601.540
1079.701;   15.894;  -16.120;  693.260
1080.246;   16.578;  -12.960;  696.300
1080.791;   16.379;  -13.700;  625.020
1081.336;   15.458;  -15.540;  659.320
1081.880;   15.814;  -14.640;  649.680
1082.425;   14.670;  -14.220;  573.480
1082.970;   16.493;  -11.890;  717.040
1083.514;   14.686;  -13.820;  597.000
1084.059;   14.165;  -14.280;  586.720
1084.603;   13.745;  -12.890;  565.840
1085.147;   15.172;  -13.590;  645.220
1085.692;   15.479;  -14.050;  716.800
1086.236;   12.796;  -14.990;  503.140
1086.780;   16.299;  -12.640;  751.440
1087.325;   14.736;  -15.550;  654.620
1087.869;   14.267;  -14.980;  610.700
1088.413;   14.740;  -13.440;  705.040
1088.957;   12.957;  -12.170;  543.400
1089.501;   14.776;  -12.730;  766.640
1090.045;   14.889;  -14.650;  726.480
1090.589;   12.052;  -14.500;  569.920
1091.133;   13.556;  -12.320;  673.340
1091.676;   13.201;  -16.130;  591.940
1092.220;   12.690;  -13.930;  600.920
1092.764;   13.857;  -12.820;  706.960
1093.307;   13.625;  -11.700;  673.780
1093.851;   11.553;  -15.600;  556.540
1094.395;   12.630;  -13.920;  683.140
1094.938;   12.386;  -16.090;  632.520
1095.482;   12.091;  -13.820;  559.800
1096.025;   12.910;  -12.720;  710.880
1096.568;   13.563;  -12.100;  779.280
1097.112;    9.939;  -15.450;  508.180
1097.655;   12.541;  -14.310;  603.000
1098.198;   11.038;  -14.740;  600.180
1098.741;   11.174;  -15.550;  612.860
1099.285;   12.386;  -12.600;  657.300
1099.828;    9.376;  -15.050;  439.400
1100.371;   11.620;  -14.800;  608.160
1100.914;   11.496;  -16.480;  682.660
1101.457;   11.376;  -12.990;  679.900
1101.999;   10.070;  -14.110;  584.680
1102.542;   11.820;  -11.450;  641.440
1103.085;   10.293;  -13.350;  658.500
1103.628;   11.545;  -13.200;  762.060
1104.170;   10.775;  -12.310;  588.280
1104.713;   10.184;  -14.320;  646.700
1105.256;    9.965;  -16.110;  557.440
1105.798;    8.214;  -15.910;  499.980
1106.341;   11.556;  -12.200;  728.900
1106.883;    9.030;  -14.910;  521.340
1107.425;   10.111;  -14.960;  668.180
1107.968;    9.725;  -13.440;  612.380
1108.510;   10.910;  -14.010;  684.960
1109.052;    8.249;  -15.430;  612.620
1109.594;    8.738;  -15.290;  554.440
1110.136;   10.156;  -13.360;  643.220
1110.679;    8.744;  -13.820;  633.080
1111.221;    9.700;  -13.690;  604.460
1111.763;    8.657;  -14.890;  559.220
1112.304;    8.135;  -14.550;  547.140
1112.846;    9.569;  -12.760;  666.240
1113.388;   11.783;  -10.780;  942.180
1113.930;    8.691;  -12.690;  694.200
1114.472;    7.875;  -15.730;  606.540
1115.013;    7.010;  -14.620;  551.280
1115.555;    7.730;  -14.950;  587.100
1116.097;    6.830;  -16.460;  579.480
1116.638;    8.018;  -13.730;  684.600
1117.180;    8.395;  -13.810;  667.740
1117.721;    7.578;  -13.280;  568.580
1118.262;    9.137;  -15.080;  677.960
1118.804;    8.046;  -14.040;  637.340
1119.345;    7.010;  -15.430;  578.400
1119.886;    8.036;  -15.240;  704.040
1120.427;    7.215;  -15.820;  589.020
1120.969;    6.941;  -14.550;  597.920
1121.510;    6.598;  -14.030;  563.060
1122.051;    7.157;  -11.990;  723.580
1122.592;    6.996;  -16.490;  655.420
1123.133;    5.065;  -15.580;  547.940
1123.673;    7.512;  -12.850;  706.480
1124.214;    7.072;  -13.630;  612.460
1124.755;    7.074;  -14.830;  639.460
1125.296;    6.569;  -13.110;  627.320
1125.836;    7.335;  -11.320;  691.500
1126.377;    6.491;  -14.330;  599.660
1126.918;    6.910;  -12.800;  614.980
1127.458;    5.452;  -13.580;  622.220
1127.999;    6.702;  -10.330;  656.980
1128.539;    6.411;  -13.390;  694.240
1129.079;    5.138;  -16.420;  632.720
1129.620;    4.925;  -15.700;  558.100
1130.160;    5.544;  -14.790;  539.480
1130.700;    6.228;  -12.910;  640.840
1131.240;    5.983;  -15.610;  643.700
1131.781;    5.544;  -12.920;  619.680
1132.321;    5.234;  -15.300;  599.120
1132.861;    4.896;  -14.760;  564.200
1133.401;    3.971;  -15.470;  593.940
1133.941;    4.595;  -13.710;  626.280
1134.481;    4.632;  -11.820;  597.580
1135.020;    4.814;  -14.810;  609.160
1135.560;    5.228;  -13.660;  674.940
1136.100;    3.989;  -13.940;  501.160
1136.640;    3.898;  -15.410;  510.480
1137.179;    3.514;  -16.920;  537.960
1137.719;    3.840;  -16.430;  605.400
1138.258;    4.056;  -16.300;  587.360
1138.798;    4.828;  -13.710;  663.780
1139.337;    2.984;  -13.840;  482.840
1139.877;    4.244;  -16.140;  642.360
1140.416;    6.314;  -11.410;  878.060
1140.955;    3.479;  -12.820;  535.380
1141.494;    3.738;  -12.310;  669.280
1142.034;    2.756;  -16.280;  583.520
1142.573;    3.879;  -13.090;  646.280
1143.112;    2.991;  -13.770;  553.480
1143.651;    3.861;  -15.830;  536.480
1144.190;    4.391;  -15.010;  691.640
1144.729;    3.204;  -13.650;  607.420
1145.267;    3.226;  -13.670;  584.900
1145.806;    4.096;  -13.630;  637.040
1146.345;    3.131;  -14.160;  635.020
1146.884;    2.952;  -11.180;  622.500
1147.422;    1.990;  -15.890;  533.060
1147.961;    3.730;  -12.760;  708.460
1148.500;    2.799;  -15.220;  669.720
1149.038;    3.389;  -13.720;  632.500
1149.577;    3.304;  -13.250;  698.640
1150.115;    0.699;  -16.790;  452.280
1150.653;    2.745;  -15.810;  607.340
1151.192;    1.991;  -14.730;  552.920
1151.730;    2.373;  -13.660;  652.560
1152.268;    1.555;  -15.120;  589.520
1152.806;    1.568;  -15.580;  571.180
1153.344;    0.871;  -16.210;  577.640
1153.882;    1.959;  -12.810;  600.060
1154.421;   -0.223;  -14.150;  470.620
1154.958;    1.118;  -15.360;  595.240
1155.496;    1.962;  -14.710;  645.280
1156.034;    2.003;  -13.640;  721.880
1156.572;    3.152;  -13.740;  667.060
1157.110;    0.218;  -16.960;  473.940
1157.647;    1.606;  -11.940;  676.960
1158.185;    1.144;  -14.090;  564.320
1158.723;    0.317;  -13.610;  509.200
1159.260;    2.215;  -14.760;  701.700
1159.798;    2.034;  -13.700;  658.160
1160.335;    0.822;  -13.820;  631.820

