
Integration time [ms]:   3.276
Averaging Nr. [scans]: 1000
Smoothing Nr. [pixels]: 0
Data measured with spectrometer [name]: 7414430SP
Wave   ;Sample   ;Dark     ;Reference
[nm]   ;[counts] ;[counts] ;[counts] 

288.544;  150.721;    7.793;  793.890
289.143;  154.538;    7.462;  681.602
289.742;  155.524;    8.602;  828.814
290.341;  140.235;    1.321;  789.841
290.940;  128.564;   -0.709;  730.702
291.538;  129.635;    0.881;  881.108
292.137;  129.570;    0.122;  792.581
292.736;  135.508;   -1.929;  975.101
293.335;  131.294;   -8.229;  735.086
293.934;  130.828;   -5.279;  781.677
294.532;  130.821;   -1.369; 1031.958
295.131;  115.652;   -7.641;  834.394
295.730;  116.399;   -8.420;  809.588
296.328;  114.986;   -5.611;  783.442
296.927;  116.523;   -5.781;  779.652
297.525;  116.819;   -6.361;  781.236
298.124;  107.866;  -11.382;  654.009
298.722;  110.445;   -7.641;  761.933
299.321;  108.651;   -6.811;  708.597
299.919;  106.893;   -6.991;  751.918
300.518;  103.607;  -10.362;  689.338
301.116;  106.094;   -9.581;  691.381
301.715;  104.916;   -4.891;  730.222
302.313;  103.908;   -8.801;  704.943
302.911;   99.266;   -8.522;  733.830
303.509;  105.891;   -6.171;  925.627
304.108;  102.507;   -7.311;  760.383
304.706;  101.453;   -8.321;  801.664
305.304;   95.912;  -10.222;  796.707
305.902;  101.507;   -6.021;  784.484
306.500;   98.064;   -4.971;  728.200
307.098;   96.784;   -7.061;  746.560
307.696;   94.102;   -8.801;  780.432
308.294;   94.413;   -6.411;  731.359
308.892;   96.818;   -2.901;  759.769
309.490;   92.791;   -5.041;  712.161
310.088;   90.475;   -5.002;  788.444
310.686;   95.346;   -2.041;  821.749
311.284;   90.395;   -2.351;  766.040
311.882;   88.420;   -4.422;  731.225
312.480;   85.458;   -4.192;  697.167
313.078;   86.534;   -1.172;  808.331
313.675;   87.701;   -2.601;  691.600
314.273;   83.367;   -1.312;  797.837
314.871;   82.204;   -3.942;  589.829
315.468;   80.006;   -2.802;  652.090
316.066;   83.144;   -0.701;  694.427
316.664;   76.045;   -4.362;  656.351
317.261;   79.888;   -2.872;  910.128
317.859;   75.461;   -2.022;  768.735
318.456;   76.045;   -0.531;  830.096
319.054;   72.620;   -3.912;  787.828
319.651;   70.478;   -4.752;  759.928
320.249;   70.071;   -2.602;  810.188
320.846;   67.622;   -0.821;  714.286
321.443;   65.473;   -4.642;  832.135
322.041;   60.627;   -5.002;  812.315
322.638;   59.939;   -3.982;  701.456
323.235;   60.983;   -3.411;  665.683
323.833;   58.961;   -7.361;  740.354
324.430;   53.752;   -8.611;  615.900
325.027;   54.020;   -4.061;  876.855
325.624;   54.650;   -4.031;  644.532
326.221;   51.352;   -7.481;  689.717
326.818;   51.000;   -5.281;  818.332
327.415;   53.680;   -7.460;  748.828
328.012;   53.522;   -5.510;  690.585
328.609;   52.263;   -7.880;  731.389
329.206;   49.781;   -8.331;  778.621
329.803;   50.033;   -5.121;  737.841
330.400;   52.174;   -4.510;  704.260
330.997;   54.840;   -6.441;  817.147
331.594;   53.152;   -8.831;  788.185
332.191;   57.693;   -7.621;  728.722
332.787;   60.683;   -4.591;  844.463
333.384;   60.259;   -7.412;  763.093
333.981;   58.235;   -8.293;  815.687
334.578;   60.534;   -7.052;  708.378
335.174;   64.123;   -3.102;  731.469
335.771;   63.394;   -5.943;  836.456
336.367;   60.854;   -7.393;  710.631
336.964;   64.120;   -4.063;  793.266
337.561;   62.124;   -3.813;  731.112
338.157;   58.081;   -4.654;  911.916
338.754;   54.987;   -7.934;  796.589
339.350;   54.065;   -4.414;  722.493
339.946;   55.508;   -4.664;  773.135
340.543;   46.895;   -6.375;  846.136
341.139;   41.709;   -9.815;  720.836
341.735;   39.865;   -4.526;  772.593
342.332;   38.917;   -4.895;  691.472
342.928;   38.357;   -4.295;  795.394
343.524;   32.939;   -5.476;  761.684
344.120;   29.026;   -5.856;  738.562
344.716;   32.131;   -2.155;  723.717
345.313;   30.888;   -6.275;  795.342
345.909;   24.715;   -8.815;  627.336
346.505;   27.124;   -5.305;  740.247
347.101;   27.715;   -2.674;  827.864
347.697;   28.499;   -4.344;  785.398
348.293;   22.294;   -9.975;  627.244
348.889;   22.495;   -5.774;  745.914
349.485;   22.342;   -5.004;  688.205
350.081;   23.008;   -4.704;  772.592
350.676;   18.199;   -6.635;  691.606
351.272;   23.026;   -4.504;  809.530
351.868;   22.033;   -3.914;  780.497
352.464;   19.343;   -9.044;  723.932
353.059;   14.943;   -8.314;  646.017
353.655;   19.115;   -7.024;  777.063
354.251;   20.058;   -5.343;  759.845
354.846;   14.983;   -8.604;  740.646
355.442;   11.713;   -6.945;  753.071
356.038;   14.584;   -7.564;  751.708
356.633;   14.307;   -5.814;  728.594
357.229;   12.870;   -7.364;  724.757
357.824;   10.366;   -8.024;  703.600
358.420;   10.138;   -9.384;  679.726
359.015;    9.793;   -5.104;  695.357
359.610;   11.368;   -6.854;  763.920
360.206;    5.341;  -10.185;  603.240
360.801;    8.884;   -7.054;  646.503
361.396;   10.735;   -5.034;  725.975
361.992;    6.536;   -8.284;  668.220
362.587;    2.981;   -8.625;  670.160
363.182;    4.699;   -7.674;  689.631
363.777;    6.274;   -5.164;  738.242
364.372;    6.014;   -8.604;  737.314
364.967;    1.187;   -9.055;  680.744
365.563;    6.062;   -6.114;  815.567
366.158;    3.830;   -5.814;  685.161
366.753;    4.277;   -7.854;  649.263
367.348;    1.817;   -7.804;  746.056
367.942;    1.888;   -7.954;  697.298
368.537;    0.994;   -4.984;  754.245
369.132;    1.510;   -8.564;  703.428
369.727;   -2.882;   -8.855;  638.079
370.322;   -1.470;   -6.245;  580.186
370.917;   -1.712;   -6.425;  710.646
371.511;    1.016;   -6.294;  861.834
372.106;   -2.342;   -7.685;  776.964
372.701;   -5.443;   -7.335;  585.988
373.296;    0.196;   -4.564;  863.135
373.890;   -4.742;  -10.235;  647.840
374.485;   -6.651;   -7.885;  691.199
375.079;   -3.012;   -7.324;  738.685
375.674;   -1.303;   -3.494;  812.970
376.268;   -6.339;   -8.525;  691.759
376.863;  -11.869;  -10.086;  580.327
377.457;   -6.010;   -7.025;  662.490
378.052;   -7.389;   -3.585;  764.884
378.646;   -8.416;   -7.595;  741.167
379.240;   -9.099;   -8.335;  721.176
379.835;   -7.980;   -5.785;  636.978
380.429;   -9.262;   -4.335;  562.557
381.023;   -9.166;   -6.805;  779.205
381.617;  -11.773;   -9.195;  680.106
382.212;   -9.017;   -6.905;  685.303
382.806;   -7.899;   -3.745;  760.690
383.400;  -12.288;   -7.745;  672.281
383.994;  -13.005;   -9.765;  664.870
384.588;   -9.366;   -6.564;  697.701
385.182;   -7.817;   -5.344;  726.624
385.776;   -9.461;   -8.514;  706.875
386.370;  -12.535;   -9.555;  681.968
386.964;  -11.469;   -8.715;  684.155
387.558;   -9.825;   -6.174;  598.360
388.152;  -13.543;   -8.725;  681.959
388.745;  -11.924;   -7.965;  814.707
389.339;  -10.096;   -5.924;  747.642
389.933;   -8.017;   -5.524;  695.370
390.527;   -9.531;   -7.114;  859.029
391.120;  -16.002;  -10.725;  595.318
391.714;  -13.013;   -8.035;  711.633
392.308;  -10.426;   -3.574;  780.253
392.901;  -14.082;   -7.245;  642.460
393.495;  -15.951;   -9.285;  595.414
394.089;  -13.385;   -5.895;  760.452
394.682;  -14.104;   -4.295;  697.188
395.275;  -14.308;   -9.875;  719.927
395.869;  -15.871;   -8.485;  667.314
396.462;  -14.324;   -7.455;  616.609
397.056;  -10.031;   -5.424;  776.621
397.649;  -15.276;   -6.605;  731.575
398.242;  -12.411;   -8.224;  712.645
398.836;  -12.230;   -7.474;  766.408
399.429;  -13.011;   -7.094;  631.041
400.022;  -16.009;   -9.475;  665.902
400.615;  -13.561;   -7.145;  805.609
401.208;  -11.665;   -7.174;  691.451
401.802;  -13.376;   -5.515;  699.329
402.395;  -15.570;   -9.875;  683.502
402.988;  -16.162;   -8.845;  696.627
403.581;  -12.991;   -8.874;  646.878
404.174;   -9.910;   -5.324;  686.568
404.767;  -13.508;   -9.575;  638.583
405.360;  -15.709;  -10.965;  621.445
405.953;  -11.014;   -8.764;  759.034
406.545;   -9.437;   -7.514;  725.342
407.138;  -14.695;  -10.025;  618.350
407.731;  -13.045;  -10.034;  613.303
408.324;   -8.979;   -9.374;  660.554
408.917;   -9.933;   -6.534;  681.864
409.509;  -11.552;   -8.004;  740.396
410.102;  -13.584;   -9.875;  643.948
410.695;   -8.504;   -8.604;  665.758
411.287;   -8.727;   -6.794;  599.821
411.880;  -10.447;   -9.334;  585.421
412.472;  -13.005;  -10.254;  613.092
413.065;  -10.999;   -6.714;  629.408
413.657;   -8.312;   -7.234;  576.678
414.250;   -8.242;  -10.544;  646.681
414.842;  -10.393;   -9.744;  676.353
415.434;   -7.936;   -6.994;  570.463
416.027;   -3.401;   -5.893;  652.196
416.619;   -5.823;   -7.264;  713.400
417.211;   -6.820;  -10.374;  599.352
417.804;   -2.825;   -7.993;  628.499
418.396;   -6.580;   -7.234;  607.643
418.988;   -3.845;   -9.443;  659.238
419.580;   -8.259;  -10.724;  568.276
420.172;   -6.118;  -10.323;  536.196
420.764;   -0.968;   -8.793;  672.482
421.356;   -2.647;  -11.143;  636.898
421.948;   -3.775;   -8.293;  677.661
422.540;    1.282;   -7.893;  680.027
423.132;    0.614;   -7.082;  600.641
423.724;   -2.340;   -8.653;  561.267
424.316;   -1.255;  -10.213;  621.345
424.908;    3.252;   -9.762;  591.517
425.500;    3.723;   -5.572;  647.978
426.092;    4.264;   -8.422;  648.268
426.683;    2.604;   -9.283;  684.836
427.275;    5.145;   -7.852;  641.471
427.867;    7.445;   -5.272;  668.948
428.458;    7.631;   -7.682;  732.344
429.050;    6.499;  -10.612;  680.749
429.642;    8.282;   -9.882;  743.124
430.233;    9.275;   -6.962;  569.356
430.825;   10.249;   -6.842;  724.809
431.416;    7.569;   -9.672;  698.241
432.008;   11.473;   -6.552;  651.723
432.599;   12.149;   -6.891;  656.073
433.190;    8.753;  -10.912;  637.670
433.782;    8.247;  -11.172;  590.395
434.373;   15.200;   -6.061;  884.765
434.964;   14.537;   -8.251;  602.920
435.556;   12.034;   -9.722;  634.537
436.147;   15.094;   -9.082;  758.490
436.738;   14.974;   -8.041;  701.099
437.329;   20.250;   -7.341;  721.723
437.920;   13.159;   -8.162;  666.688
438.511;   13.409;  -11.802;  564.526
439.103;   19.520;  -10.191;  623.998
439.694;   21.208;   -7.601;  681.583
440.285;   22.054;   -8.541;  764.432
440.876;   20.114;   -9.751;  845.738
441.466;   19.884;   -9.401;  575.162
442.057;   24.591;   -7.760;  665.814
442.648;   23.778;   -9.971;  746.255
443.239;   21.667;  -11.001;  620.477
443.830;   26.734;   -7.990;  704.958
444.421;   28.736;   -7.910;  655.474
445.011;   25.138;   -8.131;  693.619
445.602;   23.933;   -7.111;  743.126
446.193;   26.414;  -10.920;  488.117
446.783;   30.637;   -6.500;  640.397
447.374;   26.612;   -8.671;  692.759
447.964;   26.439;  -10.781;  713.770
448.555;   35.508;   -9.650;  822.742
449.145;   32.751;   -8.660;  662.853
449.736;   33.260;   -8.990;  803.179
450.326;   32.945;   -9.500;  713.626
450.917;   37.199;   -8.680;  675.324
451.507;   37.684;   -7.520;  600.661
452.097;   38.008;   -8.590;  746.267
452.688;   38.450;  -11.340;  742.160
453.278;   38.324;  -10.100;  566.840
453.868;   42.396;   -6.019;  793.550
454.458;   39.874;   -9.440;  651.141
455.048;   40.910;  -10.560;  711.783
455.639;   42.255;  -11.799;  567.096
456.229;   45.953;   -6.899;  710.694
456.819;   47.784;   -7.389;  751.158
457.409;   48.237;  -11.119;  773.993
457.999;   50.949;   -9.289;  737.505
458.589;   50.488;   -6.139;  686.606
459.179;   50.204;   -8.729;  717.658
459.769;   48.381;   -9.789;  627.099
460.358;   53.646;  -10.259;  797.262
460.948;   53.534;   -7.299;  689.503
461.538;   55.456;  -10.289;  660.677
462.128;   53.217;  -11.269;  664.934
462.717;   60.228;   -9.368;  710.326
463.307;   62.525;   -7.908;  705.846
463.897;   58.628;   -9.599;  656.942
464.486;   57.593;   -9.769;  837.128
465.076;   62.323;   -8.048;  733.776
465.666;   66.261;   -9.358;  652.900
466.255;   63.601;   -7.919;  785.651
466.845;   62.514;  -11.689;  666.749
467.434;   65.818;   -7.818;  725.873
468.023;   67.210;   -7.678;  658.357
468.613;   64.293;  -10.939;  713.946
469.202;   68.086;  -10.118;  646.507
469.791;   71.760;   -9.108;  737.811
470.381;   74.610;   -6.058;  742.813
470.970;   74.557;  -10.428;  711.099
471.559;   73.372;  -10.268;  733.291
472.148;   76.756;   -8.448;  675.737
472.738;   79.371;   -6.917;  765.466
473.327;   79.408;  -11.978;  637.529
473.916;   78.030;  -11.888;  737.446
474.505;   82.515;   -9.437;  751.703
475.094;   85.934;   -6.747;  806.570
475.683;   85.547;   -9.367;  797.699
476.272;   85.576;  -12.637;  730.632
476.861;   89.417;  -10.027;  706.754
477.449;   95.337;   -8.716;  728.487
478.038;   89.891;   -9.577;  692.513
478.627;   90.497;   -9.718;  714.852
479.216;   97.338;   -8.947;  769.441
479.805;  100.247;   -6.256;  783.375
480.393;  100.443;   -7.937; 1008.945
480.982;   98.766;   -7.717;  874.501
481.571;  105.056;   -9.266;  858.333
482.159;  106.007;   -7.636;  705.386
482.748;  105.955;   -9.667;  821.385
483.336;  109.724;  -10.376;  858.209
483.925;  110.526;   -7.147;  774.373
484.513;  117.853;   -7.996;  758.962
485.102;  113.732;  -10.027;  810.965
485.690;  122.407;  -10.446; 1011.050
486.278;  124.714;   -8.446;  979.329
486.867;  125.512;   -6.356;  809.662
487.455;  127.233;   -9.136;  898.229
488.043;  127.672;  -10.646;  748.361
488.631;  136.251;   -7.456; 1005.079
489.220;  140.842;   -6.636;  908.626
489.808;  141.097;  -11.036;  741.415
490.396;  149.032;  -10.246;  914.645
490.984;  154.166;   -8.556;  830.161
491.572;  164.925;   -5.886;  940.315
492.160;  169.870;   -9.486;  919.081
492.748;  180.340;  -10.976;  884.341
493.336;  202.875;   -8.776; 1019.693
493.924;  229.064;   -5.465;  958.077
494.512;  254.717;   -9.986; 1066.638
495.100;  288.878;  -10.636; 1103.280
495.687;  343.714;  -10.885; 1206.373
496.275;  405.129;   -8.126; 1150.796
496.863;  471.865;  -10.586; 1281.171
497.451;  568.643;  -11.926; 1386.805
498.038;  698.348;  -10.885; 1556.729
498.626;  803.071;   -6.315; 1741.407
499.214;  947.827;   -7.326; 2016.609
499.801; 1141.793;  -11.906; 2220.633
500.389; 1368.711;  -10.466; 2312.494
500.976; 1659.477;   -5.236; 2744.849
501.564; 2077.720;   -8.936; 3148.565
502.151; 2425.664;  -13.176; 3515.999
502.738; 2824.790;  -10.646; 3971.274
503.326; 3206.024;   -9.525; 4403.796
503.913; 3604.117;  -10.856; 5161.749
504.500; 3973.311;  -11.586; 5986.420
505.088; 4340.006;  -10.336; 6381.201
505.675; 4857.917;   -6.355; 6925.547
506.262; 5509.624;   -9.046; 7619.060
506.849; 6223.088;  -10.416; 8733.969
507.436; 6771.622;  -10.305; 9790.121
508.023; 7328.118;   -5.496; 9985.472
508.610; 7533.055;   -7.856;10434.618
509.197; 8111.922;  -10.097;11198.435
509.784; 9408.933;  -10.886;12391.194
510.371;10575.544;   -9.315;13603.713
510.958;11336.214;   -9.936;14426.586
511.545;12045.369;   -9.326;15243.775
512.132;12835.054;  -10.075;15945.876
512.719;13355.835;   -7.796;16340.369
513.305;14528.978;  -10.606;18011.766
513.892;15213.864;  -11.486;19754.971
514.479;16321.232;   -9.126;20967.805
515.066;17741.836;   -6.026;22299.793
515.652;19268.059;   -8.466;22908.660
516.239;20497.518;  -10.886;23798.875
516.825;21365.395;  -11.496;25567.275
517.412;22425.377;   -5.796;28154.959
517.998;23171.264;  -10.506;28344.111
518.585;23163.838;  -10.076;27134.219
519.171;23686.561;   -8.315;27268.576
519.758;25582.344;   -8.596;28964.129
520.344;27505.727;   -8.466;30664.494
520.930;27199.225;  -11.006;32550.605
521.516;28277.342;  -10.495;35422.895
522.103;30094.648;   -5.526;38280.004
522.689;30689.502;   -8.746;37835.117
523.275;30186.721;  -11.376;37288.613
523.861;31812.059;  -11.156;37281.395
524.447;33685.285;   -8.135;37846.949
525.033;33575.363;   -7.896;38321.949
525.619;33748.547;  -12.476;38579.285
526.205;34972.027;   -9.516;40622.875
526.791;37689.305;   -6.926;42258.836
527.377;37658.281;   -8.346;42966.902
527.963;38624.227;   -8.717;42018.949
528.549;37913.652;  -11.016;42476.828
529.135;36744.664;   -8.536;41854.852
529.721;35707.078;   -9.666;41237.711
530.306;35306.027;  -10.066;41259.445
530.892;35108.785;  -11.356;41506.047
531.478;35796.129;   -6.596;43559.613
532.063;38907.395;   -8.836;47695.563
532.649;40128.281;  -10.047;50808.324
533.235;40797.508;   -9.746;51787.500
533.820;41156.523;   -6.566;52145.035
534.406;42481.406;  -10.817;51133.488
534.991;42361.039;   -9.416;49996.805
535.576;40665.785;   -9.036;48882.852
536.162;41488.547;   -6.156;46942.285
536.747;42769.672;  -11.607;45711.746
537.333;45630.293;  -11.787;48510.180
537.918;48221.145;  -12.437;50439.891
538.503;47559.609;   -7.196;50863.711
539.088;44465.582;  -10.556;50906.922
539.673;44733.914;   -8.767;52621.965
540.259;45171.613;  -10.026;52368.094
540.844;42631.699;   -7.416;50879.109
541.429;44283.520;   -9.467;52077.777
542.014;46276.266;   -9.527;52716.695
542.599;45368.699;   -9.946;52363.281
543.184;42463.371;   -7.927;53187.137
543.769;43704.398;   -9.297;54697.605
544.354;44063.543;  -10.127;53913.914
544.938;42651.938;   -9.267;49680.164
545.523;44186.719;   -6.506;47386.277
546.108;46892.328;   -9.787;49151.949
546.693;48682.457;  -11.587;51384.637
547.278;49048.027;  -10.986;51853.254
547.862;46234.496;   -8.206;51173.750
548.447;41928.293;  -10.067;51691.395
549.031;41055.934;   -9.637;52456.703
549.616;45580.695;   -9.926;52714.516
550.201;45477.629;   -6.347;52414.598
550.785;46851.336;   -7.917;52355.059
551.370;45964.012;  -10.867;54589.453
551.954;45511.277;   -9.047;58267.348
552.538;46172.492;   -7.827;59062.176
553.123;44530.910;  -10.287;58115.285
553.707;42358.266;  -12.178;56556.285
554.291;43823.930;   -8.717;56201.668
554.876;46796.297;   -7.457;55335.762
555.460;46948.336;  -10.387;54155.703
556.044;47109.285;   -9.618;53721.484
556.628;45109.230;  -11.567;53731.016
557.212;44059.797;   -8.097;54312.531
557.796;42907.324;  -11.077;53797.773
558.380;43128.953;  -11.108;56145.984
558.964;43364.609;   -9.057;57277.930
559.548;44085.867;   -6.977;56459.641
560.132;42131.824;  -11.457;54434.543
560.716;40756.801;  -11.378;54800.617
561.300;41993.625;   -9.577;57606.945
561.884;43087.465;   -7.127;58972.445
562.467;41159.555;   -7.118;57327.570
563.051;40253.496;  -13.358;54962.434
563.635;41664.180;  -10.178;52594.473
564.219;42469.508;   -7.837;50610.410
564.802;43136.422;  -11.398;49551.180
565.386;42704.289;  -12.788;48370.953
565.969;42171.602;   -9.077;48178.871
566.553;40986.930;   -6.207;49957.305
567.136;41807.832;   -8.568;50369.594
567.720;38681.055;  -11.868;49492.004
568.303;36553.188;   -8.268;50616.352
568.887;36431.574;   -8.698;50727.148
569.470;37125.004;   -6.808;51698.379
570.053;36424.516;  -13.188;52122.078
570.637;33999.176;  -12.037;52536.438
571.220;33637.484;   -8.577;51186.098
571.803;34606.746;   -8.498;51032.762
572.386;36942.105;  -10.498;49609.887
572.969;39414.188;   -9.388;48285.926
573.552;37642.664;   -8.338;47624.285
574.135;36117.348;   -8.518;45498.641
574.718;33651.066;  -13.628;41970.434
575.301;32954.887;  -10.893;41447.137
575.884;32258.705;   -8.158;40923.836
576.467;33205.699;  -10.328;45267.723
577.050;34688.871;  -13.058;48175.543
577.633;35918.555;   -9.458;47729.328
578.216;35108.508;   -8.928;47579.793
578.799;34029.898;   -9.358;47820.996
579.381;32651.426;  -11.388;48115.551
579.964;30468.168;  -11.718;47333.766
580.547;32397.680;   -8.588;46668.969
581.129;33505.215;   -8.859;44466.141
581.712;34545.406;  -10.729;44164.922
582.294;35097.793;  -11.118;46477.855
582.877;35270.668;   -5.218;48244.254
583.459;33541.426;   -8.679;47437.895
584.042;31316.160;  -10.709;46943.219
584.624;31040.732;  -11.669;46792.227
585.206;30610.668;   -8.218;46557.250
585.789;30709.041;  -10.569;45793.773
586.371;32218.912;  -11.859;43836.391
586.953;31333.273;  -10.719;42972.492
587.536;29903.541;   -7.198;42487.211
588.118;28709.313;   -8.720;42086.414
588.700;26902.512;  -10.439;43389.930
589.282;28951.439;   -9.198;43646.039
589.864;32028.777;   -9.199;43438.109
590.446;34074.355;  -11.319;43151.926
591.028;34141.313;  -11.159;42781.867
591.610;32894.730;  -11.779;42839.098
592.192;30333.197;   -7.668;42820.402
592.774;29041.725;  -11.949;40724.277
593.356;28163.551;  -12.129;39874.789
593.937;27235.412;  -10.669;39980.648
594.519;29498.947;   -6.509;42069.633
595.101;31476.568;  -10.849;42976.031
595.683;31479.084;  -11.679;44084.441
596.264;32276.445;   -9.049;43478.797
596.846;31964.369;   -8.849;43803.672
597.427;31785.740;   -9.570;42986.934
598.009;32921.457;  -12.620;42832.219
598.591;33420.828;  -10.039;42580.086
599.172;33223.727;  -10.369;43061.805
599.753;33385.813;   -9.140;41691.469
600.335;34405.051;  -11.430;40692.520
600.916;32539.766;   -9.939;39982.422
601.498;30620.148;   -8.479;40318.617
602.079;29151.043;  -10.920;40670.609
602.660;28879.039;  -11.480;41450.898
603.241;30621.088;  -11.699;41137.738
603.823;29192.770;   -9.579;38868.797
604.404;28546.047;  -10.620;38182.785
604.985;30259.488;  -10.450;38078.047
605.566;30308.861;   -9.129;38056.633
606.147;30311.119;   -7.510;37020.418
606.728;31761.900;  -10.660;37883.359
607.309;30418.266;  -11.740;38748.273
607.890;30162.854;   -9.759;38850.230
608.471;29653.637;   -8.250;37457.918
609.051;29016.488;   -9.240;36066.457
609.632;27775.082;  -12.120;35991.074
610.213;28027.137;   -9.110;37402.641
610.794;29021.867;   -8.030;38383.363
611.374;28961.043;   -8.110;40562.387
611.955;29681.146;  -13.560;38533.727
612.536;31022.203;  -11.400;36951.789
613.116;30792.396;   -8.070;37197.891
613.697;31043.434;  -10.830;38411.125
614.277;29254.607;  -11.641;38673.938
614.858;30009.822;  -13.310;37075.863
615.438;29690.117;   -7.460;35092.906
616.019;27483.494;   -7.601;33666.301
616.599;27664.889;  -12.020;34189.023
617.179;29140.100;  -11.780;36952.047
617.760;30226.898;   -8.570;39582.574
618.340;31068.158;  -11.471;38943.977
618.920;31914.404;  -11.170;37594.156
619.500;31985.727;  -11.071;37866.938
620.080;31215.170;   -7.750;37869.043
620.660;32356.883;  -12.711;36868.617
621.241;34150.082;  -10.211;36352.309
621.821;34474.051;  -10.961;35459.520
622.401;33144.117;   -7.720;35207.414
622.980;32038.957;   -8.981;35980.422
623.560;30684.658;   -9.331;37351.328
624.140;29561.365;   -9.850;34388.582
624.720;24794.443;   -7.451;32368.764
625.300;21365.207;   -9.070;32638.629
625.880;24696.219;  -12.601;34599.035
626.459;28744.799;  -11.751;36831.738
627.039;31516.734;   -9.281;38299.098
627.619;31405.482;   -8.801;38289.574
628.198;29814.695;  -12.071;37220.695
628.778;28848.051;   -9.461;37632.563
629.357;29609.670;   -8.491;38003.012
629.937;29802.838;   -9.721;38402.039
630.516;29330.881;   -9.951;37868.801
631.096;29063.125;  -11.731;35760.410
631.675;31412.703;   -8.572;35225.219
632.254;36513.457;  -11.282;35130.289
632.834;35985.543;  -13.322;35794.570
633.413;34347.211;  -10.301;35788.922
633.992;31919.947;   -8.582;34532.863
634.571;32400.059;   -8.352;33590.113
635.151;34862.820;  -11.912;34943.863
635.730;33497.750;  -10.511;35352.523
636.309;30280.771;   -7.731;35366.605
636.888;27766.133;   -9.952;36165.637
637.467;28248.600;  -11.672;37515.902
638.046;29642.961;   -8.901;39288.695
638.625;32547.518;   -7.912;38279.699
639.204;32517.266;  -10.022;37741.598
639.782;31580.195;  -12.252;38364.551
640.361;27712.016;  -10.041;36740.621
640.940;25111.813;  -11.161;34950.082
641.519;25761.744;   -9.701;34137.398
642.097;28528.322;  -11.271;35654.258
642.676;31400.266;   -8.651;35637.957
643.255;32497.686;   -8.711;36567.074
643.833;31749.256;   -9.581;37809.434
644.412;31803.617;  -13.711;37337.293
644.990;30737.096;  -11.811;37018.531
645.569;30624.395;   -9.411;36518.469
646.147;30343.980;  -10.291;36186.430
646.726;30339.596;  -12.401;36267.688
647.304;31204.777;  -10.411;36647.625
647.882;32585.516;   -9.651;39286.742
648.461;34259.828;   -9.631;39157.703
649.039;32646.430;  -11.881;35412.883
649.617;31590.627;   -9.661;34744.918
650.195;30854.463;   -9.301;35403.098
650.773;29524.348;  -10.511;35053.797
651.352;27257.609;  -11.521;33756.816
651.930;24960.055;  -12.211;31868.773
652.508;23273.287;   -9.171;33121.551
653.086;27111.148;   -9.371;33564.793
653.663;30080.379;  -13.161;34054.668
654.241;28914.375;  -13.031;35693.309
654.819;30398.602;   -9.371;36422.906
655.397;30201.986;  -10.511;38213.484
655.975;29618.330;  -10.371;39507.625
656.553;29198.881;  -10.051;39498.223
657.130;27938.836;  -10.061;40395.480
657.708;27454.963;   -9.561;39242.020
658.286;27606.139;  -11.511;38920.020
658.863;28656.379;  -10.261;40202.898
659.441;31885.145;   -7.531;39677.938
660.018;31868.088;   -9.501;40413.355
660.596;30468.986;  -13.301;39931.414
661.173;32072.029;  -11.211;39604.531
661.750;32624.791;   -9.951;39700.070
662.328;31697.471;   -9.390;39292.809
662.905;30680.605;  -11.330;38235.648
663.482;26224.219;   -9.050;36212.305
664.060;24244.420;   -8.240;35944.945
664.637;27106.955;  -10.050;35170.785
665.214;28566.023;  -11.760;34197.523
665.791;30159.877;  -10.530;34549.520
666.368;29451.764;   -9.690;35118.578
666.945;29935.379;   -9.320;36019.418
667.522;31345.934;  -11.860;36048.438
668.099;31152.891;  -10.770;36243.914
668.676;29803.783;   -6.260;35958.875
669.253;28504.775;   -7.000;37384.730
669.830;28835.475;  -10.190;36779.629
670.407;28787.773;   -9.550;35231.289
670.984;28775.334;   -9.260;35544.270
671.560;29564.916;   -9.280;35466.867
672.137;28854.004;  -11.810;34280.863
672.714;29917.881;  -11.490;34632.863
673.290;31177.061;   -7.740;35135.422
673.867;31082.104;  -10.660;36114.480
674.443;30831.973;  -12.230;36152.859
675.020;28878.111;  -10.450;35327.238
675.596;29967.779;   -9.260;35795.176
676.173;30764.809;  -10.780;35430.355
676.749;30303.471;  -13.690;33549.516
677.326;29864.461;  -11.980;32210.012
677.902;29635.252;   -8.630;32068.871
678.478;28961.814;  -10.730;32583.891
679.054;28039.230;  -10.520;32088.928
679.631;28561.039;  -11.920;30978.848
680.207;30066.783;   -7.490;33160.887
680.783;31512.379;   -9.860;35570.363
681.359;30609.676;  -13.380;36125.184
681.935;30405.549;  -12.480;35240.922
682.511;30246.764;   -7.900;34429.961
683.087;30606.629;   -7.710;34463.680
683.663;29880.232;  -11.480;34648.898
684.239;28403.225;  -14.090;34546.457
684.815;27681.875;   -7.560;35586.375
685.390;27775.533;   -9.910;35821.895
685.966;28384.088;  -11.159;35085.871
686.542;31057.623;  -11.169;34198.230
687.118;33450.098;   -5.959;32847.707
687.693;33752.484;  -10.329;32794.027
688.269;33421.387;  -12.059;33072.367
688.844;31589.469;  -10.909;33141.664
689.420;29618.688;   -8.019;33965.742
689.995;27843.469;   -8.399;34655.523
690.571;26610.207;  -10.949;33576.742
691.146;26653.158;   -9.619;32657.219
691.722;26452.980;   -8.999;32526.979
692.297;26128.209;  -11.589;33014.617
692.872;27385.678;  -11.739;34012.254
693.448;27140.191;  -11.059;34237.434
694.023;26160.631;  -10.139;34142.672
694.598;28242.092;   -9.029;34132.031
695.173;29005.332;  -13.319;34205.250
695.748;28067.943;  -10.169;32882.488
696.323;27890.094;   -8.339;32864.906
696.898;28023.588;   -8.169;33170.004
697.473;28111.977;  -12.309;32432.984
698.048;27316.172;  -10.989;31649.303
698.623;26997.182;   -9.329;30778.141
699.198;28484.602;   -9.849;31140.119
699.773;29894.799;  -12.329;31764.299
700.348;28821.566;  -10.389;31780.816
700.922;28749.549;   -9.269;32046.375
701.497;29585.525;   -9.329;32603.574
702.072;29640.148;  -10.789;34799.871
702.646;28339.162;  -10.839;35793.172
703.221;26428.357;   -9.099;35201.590
703.795;28332.195;  -10.939;34764.527
704.370;28721.742;  -12.859;34307.367
704.944;28799.576;  -11.559;33509.887
705.519;29421.566;   -7.939;31388.584
706.093;30675.867;  -10.499;31340.104
706.668;31197.359;  -11.289;32630.281
707.242;30181.852;  -11.509;32728.779
707.816;28961.797;   -9.639;32947.238
708.390;27529.021;  -11.429;33277.855
708.965;27952.547;  -11.869;33834.336
709.539;27946.740;  -11.689;33709.273
710.113;27989.908;  -10.478;33044.313
710.687;27470.416;  -10.228;31953.992
711.261;26018.158;  -13.698;30505.949
711.835;25954.670;  -13.378;30262.369
712.409;26359.566;   -9.698;31254.447
712.983;28298.531;  -11.898;32754.986
713.557;29609.396;  -15.138;34018.824
714.131;29399.758;  -14.098;34579.625
714.704;28259.617;   -9.958;33890.262
715.278;25761.736;  -10.028;33531.102
715.852;24620.980;  -11.148;33601.660
716.425;25788.002;   -9.068;33515.117
716.999;26958.775;  -10.038;33185.555
717.573;27847.320;   -9.798;33905.996
718.146;28832.965;  -12.378;35199.293
718.720;28934.645;  -11.918;35060.551
719.293;28880.287;   -8.088;34973.230
719.867;31800.045;  -10.888;36394.449
720.440;31481.672;  -11.938;36663.008
721.013;29615.000;  -12.818;35102.426
721.587;28022.104;  -10.298;33985.266
722.160;26872.164;  -10.048;33524.965
722.733;25956.576;  -12.108;32987.043
723.306;26273.822;  -10.818;33066.301
723.880;28326.943;   -8.908;33399.500
724.453;30483.211;   -9.878;33468.297
725.026;29719.951;  -11.188;33816.637
725.599;26977.844;  -11.678;32797.996
726.172;26948.316;   -9.618;33187.434
726.745;27921.771;   -8.258;35136.613
727.318;29233.531;  -12.978;35751.730
727.891;29890.350;  -12.148;35890.430
728.463;29430.357;   -8.968;34822.090
729.036;28075.473;  -10.188;32895.086
729.609;28535.600;  -11.788;31823.225
730.182;25816.770;  -11.788;31445.283
730.754;23521.053;  -10.268;32373.223
731.327;23901.594;   -9.998;33676.820
731.900;24340.635;  -12.228;33417.000
732.472;25120.980;  -13.848;31978.498
733.045;26629.348;   -8.698;30368.777
733.617;26561.564;  -10.607;30574.215
734.190;26708.111;  -11.507;31280.975
734.762;24400.842;  -13.647;31674.412
735.334;22550.244;   -9.767;31247.291
735.907;22870.650;   -9.897;29876.211
736.479;23104.588;  -11.637;29808.488
737.051;22927.346;   -9.567;30233.547
737.623;23503.275;   -8.187;31469.086
738.195;23867.607;  -11.187;31784.225
738.768;26026.559;  -12.337;32120.523
739.340;26895.404;  -12.227;32094.342
739.912;25967.617;  -11.057;31312.680
740.484;24518.484;  -10.207;31946.238
741.056;22942.713;  -10.047;32984.059
741.628;24139.258;  -13.627;33897.715
742.199;26305.863;   -7.177;33213.016
742.771;25021.109;  -10.797;31369.113
743.343;23001.057;  -11.997;31865.473
743.915;22084.135;  -12.867;32388.631
744.487;22066.107;   -7.617;31079.568
745.058;22042.535;   -9.557;30570.107
745.630;22593.254;   -9.877;29970.127
746.201;23935.764;  -14.177;29186.766
746.773;24868.217;   -9.237;28805.723
747.344;24659.100;   -9.847;29591.223
747.916;22709.582;  -11.657;31412.201
748.487;22584.746;  -10.587;32194.898
749.059;23909.703;   -8.707;32533.719
749.630;24775.895;  -10.537;32158.518
750.201;23977.895;  -11.687;30855.395
750.773;22220.150;  -11.647;28622.555
751.344;21869.477;   -7.147;28405.732
751.915;22691.855;   -9.757;28461.551
752.486;22755.998;  -12.427;27842.850
753.057;20787.773;  -12.227;27845.008
753.628;19632.932;  -10.417;27728.107
754.199;20514.303;  -11.767;27381.086
754.770;21478.047;  -11.187;25882.203
755.341;21707.816;  -10.507;25886.184
755.912;21962.053;   -9.387;26050.861
756.483;21610.576;  -10.647;26798.779
757.054;19767.799;  -11.837;27048.238
757.625;18289.865;  -12.716;26294.838
758.195;18104.475;   -9.666;26142.076
758.766;17855.342;   -8.656;26392.234
759.337;18374.615;  -12.856;26334.594
759.907;19741.205;  -13.366;27579.652
760.478;20649.688;   -8.576;28352.770
761.048;20184.320;  -10.526;27325.088
761.619;19221.049;  -11.116;26460.428
762.189;19310.111;  -12.136;26029.826
762.760;20347.053;   -9.456;26430.145
763.330;21487.367;   -7.136;26670.902
763.900;21079.377;  -11.786;26603.021
764.471;18645.102;  -11.546;25542.740
765.041;17158.555;   -8.096;24358.459
765.611;16908.938;   -8.876;23991.297
766.181;17260.371;  -12.196;24470.236
766.751;18495.199;  -11.636;24845.975
767.321;18314.371;  -10.156;24533.633
767.891;16169.361;  -11.766;24916.492
768.461;15526.895;  -14.936;24776.771
769.031;16105.737;  -12.356;24757.988
769.601;17825.715;   -7.526;24181.088
770.171;17927.375;  -10.766;23670.387
770.741;17073.240;  -13.176;22960.045
771.311;17163.490;  -10.616;22917.523
771.880;17729.240;   -9.576;23562.941
772.450;17706.662;  -10.336;24216.500
773.020;17687.188;  -13.516;24140.398
773.589;16846.705;  -13.466;24414.857
774.159;16138.839;   -8.686;23858.717
774.729;15753.077;   -9.476;22942.135
775.298;15386.919;  -13.666;22324.033
775.867;14938.924;  -11.716;21140.313
776.437;15072.721;   -9.906;20838.092
777.006;14854.442;  -12.166;20599.510
777.576;14498.255;  -12.356;20508.809
778.145;14441.640;  -11.646;20732.947
778.714;14484.485;   -8.226;21062.465
779.283;14005.957;   -9.556;20949.664
779.853;13477.066;  -14.116;20508.623
780.422;13883.522;  -11.506;20649.082
780.991;13449.130;   -9.556;21527.520
781.560;12130.287;   -9.095;22632.658
782.129;11877.230;  -12.135;23048.277
782.698;11898.158;  -10.865;23438.555
783.267;11508.285;   -9.335;23267.734
783.836;11456.028;  -11.045;22415.133
784.404;12485.035;  -13.865;20443.152
784.973;13148.415;  -13.095;19699.150
785.542;13206.396;  -11.575;19763.828
786.111;13047.313;   -9.705;20341.408
786.679;12539.387;  -12.105;20207.967
787.248;12280.651;  -12.455;19516.465
787.817;12086.803;  -11.535;18900.363
788.385;11686.992;   -9.765;17879.121
788.954;11137.814;  -14.005;17658.301
789.522;10575.349;  -11.955;17788.879
790.090;11020.077;  -10.135;18118.277
790.659;11617.695;  -10.975;18338.736
791.227;11189.871;  -13.375;18508.615
791.795;11513.761;  -12.375;17898.254
792.364;11804.499;  -10.725;17295.133
792.932;12193.260;   -9.715;16822.051
793.500;12538.127;  -12.675;17040.148
794.068;12841.908;  -13.495;17179.787
794.636;13004.764;  -10.885;16664.246
795.204;12297.274;  -11.045;16524.545
795.772;12279.258;  -13.175;17274.564
796.340;11785.640;  -12.445;17891.002
796.908;11515.258;   -9.735;17648.561
797.476;11352.629;   -9.815;17064.080
798.044;10913.843;  -13.985;16672.777
798.612;10199.477;  -13.115;17023.996
799.180; 9828.187;  -10.185;16561.615
799.747; 9667.261;   -9.055;15962.773
800.315; 9390.812;  -12.385;15296.992
800.883; 9175.950;  -15.035;14801.771
801.450; 9375.534;  -10.365;14534.430
802.018; 9507.998;   -9.855;14173.248
802.585; 9508.986;  -11.905;14029.547
803.153; 9485.806;  -11.585;13836.846
803.720; 9286.043;   -9.095;13567.324
804.287; 8736.027;   -9.135;13360.622
804.855; 8221.208;  -11.604;13681.981
805.422; 8121.176;  -11.794;13536.560
805.989; 8211.374;  -10.734;13355.958
806.556; 8443.226;  -10.444;13747.896
807.124; 8728.765;  -12.764;13987.376
807.691; 8697.650;  -12.964;14038.674
808.258; 8493.096;  -11.134;14120.152
808.825; 8100.233;   -9.854;13860.111
809.392; 8216.414;  -10.504;13268.790
809.959; 7798.248;  -13.054;12680.389
810.526; 7290.843;   -8.294;12427.308
811.093; 7264.862;   -8.394;12030.105
811.659; 7879.787;  -12.304;11653.664
812.226; 8421.188;  -13.944;11637.183
812.793; 8134.968;  -10.484;11611.521
813.360; 7493.570;  -10.144;11885.181
813.926; 7197.815;  -11.684;12770.539
814.493; 7016.478;  -13.644;12677.638
815.060; 6636.115;   -9.724;11974.336
815.626; 6573.903;   -9.854;11594.715
816.193; 6922.961;  -13.254;11579.474
816.759; 6951.838;  -13.204;11666.972
817.325; 6989.532;   -9.434;11325.530
817.892; 7340.518;  -10.134;11105.369
818.458; 7786.570;  -13.474;10843.928
819.024; 7433.444;  -11.854;10714.406
819.591; 7156.360;  -10.244;10469.165
820.157; 6965.800;  -10.704;10235.523
820.723; 6436.280;  -12.324;10847.563
821.289; 6113.886;   -9.444;11040.980
821.855; 6025.831;   -8.374;10357.100
822.421; 5965.685;  -10.234; 9978.918
822.987; 5907.541;  -13.294; 9754.177
823.553; 5556.455;  -10.884;10065.755
824.119; 5395.970;   -8.884;10036.294
824.685; 5581.062;   -6.784;10029.192
825.251; 5711.402;  -12.004;10199.230
825.816; 5639.331;  -11.474; 9820.189
826.382; 5332.656;   -9.174; 9297.248
826.948; 5466.689;   -9.214; 9381.347
827.513; 5880.281;  -10.774; 9450.726
828.079; 5749.082;  -11.924; 9472.444
828.645; 5154.039;  -10.543; 9292.643
829.210; 4963.714;  -10.533; 9065.341
829.776; 4918.508;  -10.753; 9132.620
830.341; 4796.377;  -10.173; 9092.878
830.906; 4965.636;  -10.743; 9078.557
831.472; 5314.050;  -11.113; 8534.535
832.037; 5127.301;  -10.603; 8677.874
832.602; 4615.543;  -13.323; 8628.692
833.167; 4364.086;  -10.823; 8879.031
833.733; 4309.876;  -10.113; 9189.790
834.298; 4443.512;  -13.583; 9052.608
834.863; 4580.049;  -12.703; 8895.087
835.428; 4599.287;  -10.523; 8824.266
835.993; 4438.392;   -6.963; 8845.385
836.558; 4229.082;  -10.763; 8888.563
837.123; 4281.854;   -9.903; 8966.582
837.688; 4527.253;   -9.913; 8617.860
838.253; 4764.738;  -10.283; 8590.699
838.817; 4948.226;  -12.963; 8443.797
839.382; 4900.524;  -14.243; 8799.356
839.947; 4624.990;  -10.733; 8810.595
840.511; 4327.914;   -9.383; 8796.394
841.076; 3933.072;  -12.563; 8347.231
841.641; 3978.054;  -12.953; 8224.330
842.205; 4073.505;   -7.043; 8223.349
842.770; 4096.984;   -8.163; 8622.107
843.334; 4232.746;  -12.503; 8410.386
843.898; 4196.981;  -11.693; 8337.465
844.463; 4206.027;  -10.203; 8506.283
845.027; 4012.502;   -9.533; 8280.962
845.591; 3838.400;  -13.443; 8231.141
846.156; 3834.559;  -13.143; 7969.179
846.720; 3747.735;   -9.433; 7768.278
847.284; 3636.702;  -11.033; 7630.957
847.848; 3494.621;  -10.403; 7472.395
848.412; 3391.227;  -11.553; 7437.394
848.976; 3427.075;   -8.393; 7674.592
849.540; 3347.586;   -8.713; 7836.011
850.104; 3397.117;  -12.463; 7913.669
850.668; 3754.619;  -12.973; 7694.508
851.232; 3921.293;  -10.793; 7756.887
851.796; 3785.396;  -10.662; 7926.545
852.359; 3470.906;  -13.082; 7827.844
852.923; 3289.340;  -12.192; 7641.163
853.487; 3141.560;  -11.912; 7342.501
854.050; 3130.455;  -10.892; 7042.820
854.614; 3280.500;  -13.992; 7151.338
855.177; 3379.587;  -11.732; 7105.077
855.741; 3412.580;   -8.962; 6989.675
856.304; 3318.871;   -9.442; 6596.634
856.868; 3303.260;  -14.192; 6356.272
857.431; 3427.375;  -12.702; 6468.571
857.995; 3563.987;   -9.942; 6373.210
858.558; 3594.850;   -9.112; 6324.448
859.121; 3327.895;  -12.932; 6408.327
859.684; 3148.669;  -13.442; 6347.886
860.247; 3234.866;  -10.632; 6321.264
860.810; 3266.045;  -11.272; 6301.903
861.374; 3020.425;   -9.832; 6607.881
861.937; 2751.151;  -11.762; 6408.200
862.500; 2747.953;   -9.722; 6572.639
863.062; 2900.651;  -10.512; 6387.297
863.625; 3045.474;  -11.232; 6190.836
864.188; 3209.332;  -14.112; 5807.254
864.751; 3300.459;  -11.302; 5682.413
865.314; 3216.636;  -10.112; 5547.492
865.876; 2994.260;  -12.182; 5500.150
866.439; 2956.938;  -10.722; 5415.909
867.002; 2911.813;   -9.252; 5501.567
867.564; 2715.397;   -9.572; 5413.946
868.127; 2502.490;  -13.142; 5160.325
868.689; 2380.869;  -12.902; 5133.183
869.252; 2267.024;   -9.732; 5252.382
869.814; 2155.806;   -9.432; 5297.141
870.377; 2159.918;  -11.552; 5390.919
870.939; 2234.166;   -9.052; 5599.898
871.501; 2313.110;  -10.982; 5248.336
872.063; 2326.893;  -12.292; 4854.235
872.626; 2261.332;  -14.912; 4817.074
873.188; 2249.214;  -13.112; 4987.732
873.750; 2223.500;  -13.442; 4868.651
874.312; 2142.818;   -9.402; 4779.330
874.874; 2059.487;  -11.062; 4866.348
875.436; 1978.991;  -13.931; 4718.887
875.998; 1976.011;   -9.561; 4660.005
876.560; 2001.443;  -11.321; 4462.964
877.122; 1938.318;  -12.221; 4145.042
877.683; 1829.693;  -12.191; 4056.481
878.245; 1752.983;  -12.101; 3950.740
878.807; 1793.879;   -8.971; 4058.958
879.369; 1817.859;  -12.071; 3954.677
879.930; 1729.353;  -14.621; 3941.495
880.492; 1663.721;  -10.311; 4067.014
881.053; 1625.849;  -10.901; 3859.633
881.615; 1521.947;  -14.411; 3776.071
882.176; 1425.398;  -13.761; 3734.750
882.738; 1374.997;   -9.181; 3678.489
883.299; 1355.044;  -11.791; 3405.407
883.860; 1341.947;  -13.121; 3351.106
884.422; 1323.001;  -11.211; 3394.044
884.983; 1281.669;  -10.091; 3166.443
885.544; 1211.256;   -8.461; 3189.802
886.105; 1137.749;  -12.361; 3160.360
886.666; 1071.363;  -14.141; 3093.059
887.227; 1008.833;  -11.361; 2941.957
887.788;  943.644;  -11.401; 2974.836
888.349;  875.619;  -13.791; 2721.214
888.910;  865.852;  -13.191; 2696.493
889.471;  867.770;   -9.881; 2560.172
890.032;  848.473;   -9.881; 2558.190
890.593;  819.965;  -10.371; 2567.669
891.153;  792.577;  -13.301; 2460.307
891.714;  749.204;  -11.431; 2372.046
892.275;  715.701;  -11.291; 2309.505
892.835;  682.013;  -11.471; 2382.543
893.396;  629.801;  -11.541; 2295.502
893.956;  569.764;  -11.181; 2162.420
894.517;  527.101;  -11.741; 2125.439
895.077;  520.327;  -11.671; 2086.978
895.638;  524.310;  -11.311; 2126.316
896.198;  494.744;   -9.831; 1838.275
896.758;  453.260;   -8.421; 1892.813
897.319;  421.913;  -12.351; 1792.232
897.879;  405.270;  -13.511; 1762.751
898.439;  381.279;  -12.001; 1661.149
898.999;  356.197;  -10.180; 1781.468
899.559;  345.089;  -12.030; 1703.347
900.119;  339.839;  -15.710; 1537.525
900.679;  336.345;   -8.900; 1638.384
901.239;  321.048;   -8.340; 1527.902
901.799;  309.765;  -13.910; 1456.441
902.359;  303.759;  -13.460; 1357.140
902.919;  297.185;  -11.490; 1331.118
903.479;  284.631;  -12.110; 1317.257
904.038;  263.391;  -11.720; 1262.595
904.598;  248.179;  -13.610; 1152.034
905.158;  244.351;  -11.040; 1240.893
905.717;  238.325;  -10.900; 1233.691
906.277;  228.373;  -15.080; 1217.330
906.836;  218.294;  -13.380; 1222.408
907.396;  209.175;  -10.780; 1193.047
907.955;  201.955;   -8.500; 1182.526
908.515;  195.709;  -12.760; 1099.364
909.074;  190.041;  -11.900; 1092.863
909.633;  184.879;   -8.950; 1069.121
910.192;  180.333;   -8.770; 1196.460
910.752;  174.297;  -12.390; 1029.960
911.311;  169.812;  -13.680; 1009.780
911.870;  167.111;  -12.370;  971.460
912.429;  168.449;  -10.900; 1094.080
912.988;  167.289;  -11.690; 1081.060
913.547;  162.559;  -13.240;  940.380
914.106;  158.368;  -11.990;  999.420
914.665;  154.880;   -9.990;  984.020
915.224;  153.956;  -12.880; 1035.760
915.782;  153.314;  -12.350;  922.560
916.341;  153.226;   -9.110; 1049.840
916.900;  149.246;   -9.270;  925.260
917.458;  147.329;  -13.240;  884.220
918.017;  146.447;  -13.550;  942.600
918.576;  147.218;  -12.320;  904.440
919.134;  145.725;  -11.490;  837.980
919.693;  142.104;  -13.670;  893.060
920.251;  141.399;  -15.470;  876.500
920.809;  140.570;  -11.290;  839.580
921.368;  140.454;  -10.210;  885.360
921.926;  139.268;  -12.140;  842.940
922.484;  137.404;  -13.080;  903.360
923.042;  137.728;  -11.720;  880.340
923.601;  140.018;   -7.480;  998.680
924.159;  139.240;  -11.570;  935.560
924.717;  134.396;  -13.840;  841.080
925.275;  134.967;  -10.640;  903.240
925.833;  134.906;  -11.540;  779.320
926.391;  135.705;  -12.960;  938.380
926.949;  133.455;  -14.130;  857.680
927.506;  134.785;  -11.750;  903.500
928.064;  134.580;  -10.250;  877.580
928.622;  133.882;  -13.030;  880.100
929.180;  132.890;  -13.400;  814.180
929.737;  134.741;  -10.700;  808.540
930.295;  138.457;  -10.070;  928.480
930.853;  140.280;  -11.960;  849.100
931.410;  140.030;  -13.120;  821.120
931.968;  139.571;  -10.770;  940.660
932.525;  139.705;  -10.680;  909.380
933.082;  140.323;  -13.130;  811.440
933.640;  140.824;  -13.210;  925.900
934.197;  139.181;  -11.060;  886.360
934.754;  140.424;   -9.580;  897.780
935.312;  144.042;  -14.000;  863.340
935.869;  147.968;  -10.710; 1012.980
936.426;  148.272;   -9.860;  872.800
936.983;  149.124;   -9.710;  889.020
937.540;  149.731;  -13.990;  838.280
938.097;  147.986;  -14.040;  940.120
938.654;  148.309;  -10.310;  898.860
939.211;  150.700;  -10.560;  952.480
939.768;  154.321;  -13.900;  915.420
940.324;  157.675;  -14.760;  904.200
940.881;  159.551;  -10.370;  878.500
941.438;  161.101;   -8.260; 1021.200
941.995;  157.171;  -12.540;  992.560
942.551;  153.765;  -14.670;  875.620
943.108;  153.370;  -10.450;  937.920
943.664;  155.867;  -10.750;  869.340
944.221;  160.184;  -11.550; 1088.140
944.777;  156.369;  -14.770;  869.680
945.334;  157.663;  -12.820;  884.840
945.890;  159.845;  -10.130;  946.480
946.446;  159.958;  -13.470;  947.020
947.003;  160.857;  -12.120;  964.940
947.559;  164.656;   -9.980; 1063.040
948.115;  164.479;   -9.080; 1026.540
948.671;  161.960;  -10.830;  967.300
949.227;  159.512;  -12.440;  859.560
949.783;  157.069;  -12.910;  858.900
950.339;  159.708;  -10.270;  991.000
950.895;  159.949;  -13.630; 1023.840
951.451;  158.699;  -15.100;  925.280
952.007;  158.199;  -11.330;  998.540
952.563;  157.616;  -10.580;  937.780
953.118;  156.457;  -13.440;  904.940
953.674;  155.354;  -12.710;  935.780
954.230;  155.178;  -10.350;  949.640
954.785;  152.884;   -9.190;  936.640
955.341;  151.525;  -11.200;  998.160
955.897;  150.062;  -16.560;  834.660
956.452;  152.061;  -12.570;  953.840
957.008;  151.165;   -7.970; 1083.640
957.563;  149.670;  -11.940; 1009.540
958.118;  144.437;  -13.450;  877.700
958.674;  144.255;  -12.030;  946.780
959.229;  147.316;   -9.410; 1013.980
959.784;  144.473;  -12.000;  832.400
960.339;  143.755;  -14.780; 1001.280
960.894;  140.475;   -9.860;  963.760
961.449;  135.930;   -9.970;  859.960
962.004;  135.806;  -10.900; 1212.840
962.559;  129.336;  -13.150;  860.140
963.114;  126.947;  -13.740;  742.480
963.669;  127.084;   -9.820;  915.500
964.224;  125.901;  -13.890;  874.340
964.779;  124.745;  -12.600;  828.420
965.334;  125.836;  -10.950; 1017.860
965.888;  125.161;  -11.170;  875.360
966.443;  128.956;  -12.540;  972.380
966.998;  128.105;  -15.780;  819.460
967.552;  127.395;   -9.760;  908.380
968.107;  123.996;   -9.060;  868.300
968.661;  125.473;  -11.950;  922.440
969.216;  126.006;  -12.800;  856.280
969.770;  126.500;  -11.210;  917.200
970.324;  126.076;  -11.610;  923.140
970.879;  122.282;  -11.370;  947.180
971.433;  118.482;  -12.540;  952.720
971.987;  113.128;  -11.320;  895.340
972.541;  109.322;  -10.720;  917.100
973.095;  108.947;   -9.680; 1009.460
973.649;  106.967;  -11.440;  809.480
974.203;  106.533;  -11.210;  829.040
974.757;  107.709;  -10.240;  855.220
975.311;  107.241;  -13.720;  872.600
975.865;  102.310;  -13.770;  881.820
976.419;   94.561;  -11.690;  857.400
976.973;   86.040;   -9.510;  849.620
977.526;   81.742;  -12.620;  949.920
978.080;   77.980;  -12.010;  796.780
978.634;   80.173;  -10.170;  921.320
979.187;   81.373;   -9.020;  905.400
979.741;   83.004;   -9.820; 1018.380
980.294;   80.226;  -14.870;  789.160
980.848;   78.486;  -12.380;  717.220
981.401;   82.425;  -10.350;  816.540
981.955;   85.020;  -13.720;  844.300
982.508;   84.405;  -11.490;  746.340
983.061;   85.870;  -10.000;  915.260
983.615;   83.380;  -11.480;  798.800
984.168;   81.186;  -13.220;  770.080
984.721;   80.842;  -13.960;  880.760
985.274;   79.951;  -10.870;  867.500
985.827;   79.779;   -9.790;  834.220
986.380;   78.075;  -13.120;  721.340
986.933;   77.974;  -12.450;  864.800
987.486;   75.976;  -10.210;  861.920
988.039;   75.321;   -8.430;  863.100
988.591;   73.684;  -10.520;  893.260
989.144;   72.097;  -14.860;  737.260
989.697;   69.776;  -13.080;  758.740
990.250;   71.103;  -10.150;  858.100
990.802;   70.747;  -13.430;  755.860
991.355;   71.611;  -12.750;  974.880
991.907;   69.519;  -12.040;  864.320
992.460;   67.427;  -11.330;  753.760
993.012;   66.549;  -13.610;  749.540
993.565;   65.157;  -13.460;  711.360
994.117;   67.846;   -9.360;  950.780
994.669;   64.671;  -11.300;  701.320
995.221;   62.187;  -13.540;  791.920
995.774;   59.186;  -13.430;  787.580
996.326;   57.219;  -12.520;  740.220
996.878;   56.038;  -10.950;  838.420
997.430;   54.709;  -14.300;  699.860
997.982;   54.615;  -13.760;  750.140
998.534;   54.271;  -11.530;  739.060
999.086;   53.629;  -10.310;  738.220
999.638;   51.577;  -12.530;  661.380
1000.190;   51.816;  -11.840;  699.320
1000.741;   50.708;  -10.260;  742.700
1001.293;   51.645;   -8.860;  686.020
1001.845;   49.305;  -13.700;  676.640
1002.396;   50.143;  -12.100;  743.400
1002.948;   50.038;  -12.760;  737.400
1003.500;   48.173;  -10.380;  723.780
1004.051;   49.195;  -11.900;  907.580
1004.603;   47.368;  -12.250;  791.820
1005.154;   43.390;  -13.210;  608.980
1005.705;   42.239;  -10.950;  723.960
1006.257;   42.409;  -13.880;  707.220
1006.808;   42.126;  -12.840;  685.460
1007.359;   41.534;  -10.570;  763.240
1007.910;   40.086;   -9.620;  646.640
1008.461;   40.038;  -13.630;  732.940
1009.013;   38.255;  -17.200;  588.340
1009.564;   40.083;  -10.200;  793.520
1010.115;   37.964;  -12.570;  597.040
1010.665;   37.897;  -15.150;  602.160
1011.216;   37.994;  -14.480;  667.920
1011.767;   36.438;  -11.340;  697.920
1012.318;   37.089;   -9.780;  736.980
1012.869;   36.339;  -12.380;  679.000
1013.419;   35.182;  -15.560;  603.120
1013.970;   35.829;  -11.010;  666.640
1014.521;   35.523;  -11.610;  620.620
1015.071;   35.831;  -13.450;  670.380
1015.622;   35.582;  -13.870;  635.460
1016.172;   34.792;  -11.610;  596.820
1016.723;   34.698;  -12.120;  614.380
1017.273;   33.949;  -13.620;  604.160
1017.823;   34.078;  -14.140;  650.340
1018.374;   33.071;  -12.800;  611.760
1018.924;   33.238;  -12.340;  716.880
1019.474;   33.789;  -11.410;  718.880
1020.024;   32.775;  -14.770;  657.580
1020.574;   32.740;   -9.780;  726.160
1021.124;   33.241;   -8.560;  673.580
1021.674;   31.821;  -15.190;  559.120
1022.224;   33.164;  -13.530;  708.940
1022.774;   32.124;  -13.280;  668.820
1023.324;   32.983;  -10.690;  753.520
1023.874;   34.038;  -10.240;  875.760
1024.423;   31.196;  -12.540;  613.700
1024.973;   31.205;  -10.010;  610.760
1025.523;   30.454;  -10.550;  620.960
1026.072;   30.300;  -13.560;  606.420
1026.622;   30.108;  -15.120;  675.740
1027.172;   30.569;  -11.260;  715.660
1027.721;   29.779;  -11.410;  601.220
1028.270;   30.421;  -13.530;  663.400
1028.820;   29.827;  -13.680;  638.080
1029.369;   29.507;  -13.520;  612.700
1029.918;   29.678;  -10.980;  649.840
1030.468;   29.119;  -13.530;  564.780
1031.017;   29.605;  -13.170;  634.800
1031.566;   27.669;  -12.200;  608.900
1032.115;   28.662;   -9.960;  694.500
1032.664;   27.380;  -13.210;  596.480
1033.213;   28.052;  -12.500;  735.420
1033.762;   27.452;  -11.910;  635.620
1034.311;   28.186;   -9.640;  677.220
1034.860;   27.945;  -13.310;  691.000
1035.408;   27.492;  -11.830;  722.720
1035.957;   28.128;  -12.000;  719.540
1036.506;   26.162;  -11.690;  530.800
1037.055;   28.602;  -10.990;  844.320
1037.603;   26.840;  -15.120;  664.000
1038.152;   25.090;  -12.450;  534.760
1038.700;   26.089;  -10.560;  585.740
1039.249;   25.687;  -11.080;  681.220
1039.797;   25.841;  -12.540;  633.360
1040.345;   25.813;  -11.920;  705.420
1040.894;   25.716;  -11.410;  625.300
1041.442;   25.228;  -14.320;  632.200
1041.990;   24.917;  -16.240;  559.160
1042.538;   23.546;  -11.680;  536.180
1043.087;   25.084;  -10.760;  570.860
1043.635;   25.861;  -11.850;  670.500
1044.183;   23.901;  -15.480;  586.400
1044.731;   23.095;  -11.770;  576.000
1045.279;   23.849;  -13.090;  674.920
1045.827;   25.724;  -12.440;  892.400
1046.374;   22.900;  -13.840;  515.420
1046.922;   22.231;  -13.220;  590.580
1047.470;   24.044;  -10.230;  691.300
1048.018;   23.876;  -14.590;  647.960
1048.565;   24.301;  -12.050;  708.600
1049.113;   21.778;  -11.650;  557.000
1049.660;   22.228;  -10.510;  629.660
1050.208;   22.932;  -13.310;  675.640
1050.755;   21.185;  -15.900;  606.580
1051.303;   22.911;  -11.430;  686.820
1051.850;   21.931;   -8.480;  635.120
1052.397;   20.428;  -15.010;  473.960
1052.945;   20.955;  -13.960;  617.760
1053.492;   22.415;  -13.150;  741.840
1054.039;   22.142;   -9.630;  720.180
1054.586;   21.134;  -13.680;  557.240
1055.133;   21.588;  -14.570;  693.140
1055.680;   21.300;  -13.820;  646.620
1056.227;   20.789;  -11.730;  542.780
1056.774;   22.735;  -12.480;  794.980
1057.321;   20.384;  -13.930;  523.260
1057.868;   20.227;  -11.690;  651.320
1058.415;   20.653;   -9.520;  651.980
1058.961;   20.766;  -13.160;  678.940
1059.508;   20.030;  -12.920;  643.820
1060.055;   19.906;  -11.920;  581.780
1060.601;   20.340;  -11.500;  624.300
1061.148;   20.342;  -14.330;  616.820
1061.694;   18.518;  -16.870;  592.580
1062.241;   18.899;  -10.330;  596.320
1062.787;   20.335;  -10.620;  663.140
1063.334;   21.127;  -10.110;  808.560
1063.880;   18.949;  -13.400;  668.360
1064.426;   18.761;  -10.680;  706.820
1064.972;   18.518;   -9.920;  601.340
1065.518;   17.330;  -10.980;  566.640
1066.065;   18.258;  -14.890;  624.460
1066.611;   17.551;  -12.870;  598.800
1067.157;   19.319;  -12.950;  641.860
1067.703;   17.782;  -13.540;  668.480
1068.249;   18.017;  -13.540;  605.220
1068.794;   18.517;  -12.600;  626.880
1069.340;   17.334;  -10.620;  578.960
1069.886;   17.432;  -12.830;  590.700
1070.432;   15.866;  -14.870;  541.720
1070.977;   16.522;  -11.980;  601.080
1071.523;   17.441;   -8.200;  573.060
1072.068;   17.757;  -12.330;  582.000
1072.614;   16.744;  -16.370;  527.760
1073.160;   17.412;  -11.100;  687.040
1073.705;   15.888;  -10.480;  572.520
1074.250;   16.427;  -14.520;  559.900
1074.796;   17.253;  -11.460;  655.160
1075.341;   16.611;  -11.950;  664.100
1075.886;   16.344;  -11.460;  594.240
1076.431;   15.598;  -13.770;  649.880
1076.976;   15.795;  -12.680;  639.220
1077.521;   14.579;  -13.170;  583.080
1078.067;   14.973;  -10.860;  579.400
1078.612;   15.147;  -13.920;  661.620
1079.156;   14.757;  -13.880;  601.540
1079.701;   15.742;  -13.120;  693.260
1080.246;   16.274;   -9.940;  696.300
1080.791;   15.946;  -14.740;  625.020
1081.336;   15.426;  -13.750;  659.320
1081.880;   14.315;  -13.400;  649.680
1082.425;   14.215;  -12.220;  573.480
1082.970;   16.662;  -11.610;  717.040
1083.514;   14.133;  -13.580;  597.000
1084.059;   13.113;  -12.810;  586.720
1084.603;   13.820;  -12.320;  565.840
1085.147;   14.431;  -13.190;  645.220
1085.692;   15.435;  -12.480;  716.800
1086.236;   12.345;  -13.020;  503.140
1086.780;   15.011;   -9.190;  751.440
1087.325;   14.145;  -12.480;  654.620
1087.869;   13.459;  -12.450;  610.700
1088.413;   13.853;  -12.240;  705.040
1088.957;   12.238;   -9.020;  543.400
1089.501;   14.979;  -10.320;  766.640
1090.045;   13.367;  -12.720;  726.480
1090.589;   11.202;  -13.690;  569.920
1091.133;   13.308;  -10.020;  673.340
1091.676;   12.969;  -12.330;  591.940
1092.220;   11.631;  -14.970;  600.920
1092.764;   13.519;  -12.430;  706.960
1093.307;   13.378;   -9.800;  673.780
1093.851;   12.057;  -14.970;  556.540
1094.395;   12.611;  -15.310;  683.140
1094.938;   11.498;  -10.370;  632.520
1095.482;   12.450;  -11.050;  559.800
1096.025;   12.426;  -11.840;  710.880
1096.568;   12.322;  -12.840;  779.280
1097.112;    9.688;  -14.700;  508.180
1097.655;   12.154;   -8.720;  603.000
1098.198;   11.031;  -13.610;  600.180
1098.741;   10.824;  -13.350;  612.860
1099.285;   11.972;  -11.230;  657.300
1099.828;    9.484;  -11.840;  439.400
1100.371;   10.948;  -10.840;  608.160
1100.914;   10.865;  -14.190;  682.660
1101.457;   10.264;  -11.240;  679.900
1101.999;    9.778;  -11.270;  584.680
1102.542;   10.178;  -11.480;  641.440
1103.085;    9.739;  -11.750;  658.500
1103.628;   10.596;  -11.400;  762.060
1104.170;   10.201;  -10.490;  588.280
1104.713;   10.197;  -10.600;  646.700
1105.256;    9.115;  -14.360;  557.440
1105.798;    8.258;  -13.210;  499.980
1106.341;   11.046;  -10.270;  728.900
1106.883;   10.068;  -12.200;  521.340
1107.425;    9.289;  -13.110;  668.180
1107.968;    9.361;  -12.840;  612.380
1108.510;    9.786;   -6.480;  684.960
1109.052;    7.960;  -13.940;  612.620
1109.594;    8.820;  -13.690;  554.440
1110.136;    9.169;  -11.880;  643.220
1110.679;    7.646;   -9.500;  633.080
1111.221;    8.834;  -14.160;  604.460
1111.763;    7.983;  -13.980;  559.220
1112.304;    7.064;  -13.880;  547.140
1112.846;    9.323;  -12.210;  666.240
1113.388;   12.212;  -11.390;  942.180
1113.930;    7.802;  -14.540;  694.200
1114.472;    7.309;  -12.640;  606.540
1115.013;    6.399;  -11.620;  551.280
1115.555;    7.026;  -13.640;  587.100
1116.097;    6.373;  -15.380;  579.480
1116.638;    7.862;  -12.640;  684.600
1117.180;    7.909;   -9.850;  667.740
1117.721;    7.647;  -13.690;  568.580
1118.262;    8.209;  -12.680;  677.960
1118.804;    8.053;  -12.530;  637.340
1119.345;    6.387;  -11.690;  578.400
1119.886;    8.703;  -13.380;  704.040
1120.427;    7.110;  -14.070;  589.020
1120.969;    6.367;  -13.500;  597.920
1121.510;    5.985;  -11.480;  563.060
1122.051;    6.615;  -12.830;  723.580
1122.592;    6.162;  -14.290;  655.420
1123.133;    4.630;  -12.400;  547.940
1123.673;    6.864;  -10.130;  706.480
1124.214;    6.108;  -12.930;  612.460
1124.755;    6.409;  -14.380;  639.460
1125.296;    5.923;  -14.000;  627.320
1125.836;    7.128;  -10.070;  691.500
1126.377;    5.430;  -12.640;  599.660
1126.918;    6.175;  -12.960;  614.980
1127.458;    5.306;  -13.350;  622.220
1127.999;    6.844;  -10.750;  656.980
1128.539;    6.143;  -12.350;  694.240
1129.079;    4.705;  -14.860;  632.720
1129.620;    4.642;  -13.840;  558.100
1130.160;    4.943;  -12.330;  539.480
1130.700;    5.704;  -14.530;  640.840
1131.240;    5.660;  -12.530;  643.700
1131.781;    4.760;  -14.450;  619.680
1132.321;    5.039;   -9.790;  599.120
1132.861;    3.668;  -14.860;  564.200
1133.401;    4.152;  -14.290;  593.940
1133.941;    4.239;  -11.750;  626.280
1134.481;    4.075;   -9.920;  597.580
1135.020;    3.769;  -12.290;  609.160
1135.560;    4.375;  -11.650;  674.940
1136.100;    3.766;  -16.270;  501.160
1136.640;    4.285;  -10.890;  510.480
1137.179;    3.441;  -14.180;  537.960
1137.719;    3.414;  -16.250;  605.400
1138.258;    3.959;  -14.230;  587.360
1138.798;    4.794;   -9.090;  663.780
1139.337;    3.078;  -15.130;  482.840
1139.877;    3.664;  -13.680;  642.360
1140.416;    5.042;  -11.320;  878.060
1140.955;    3.245;  -10.860;  535.380
1141.494;    3.924;  -12.920;  669.280
1142.034;    2.194;  -13.930;  583.520
1142.573;    4.251;  -11.440;  646.280
1143.112;    2.872;  -12.000;  553.480
1143.651;    2.777;  -13.670;  536.480
1144.190;    4.383;  -12.730;  691.640
1144.729;    2.558;  -14.560;  607.420
1145.267;    2.940;  -11.830;  584.900
1145.806;    4.050;  -12.230;  637.040
1146.345;    2.367;  -14.130;  635.020
1146.884;    1.871;  -11.590;  622.500
1147.422;    1.870;  -12.550;  533.060
1147.961;    3.903;  -11.180;  708.460
1148.500;    3.278;  -11.510;  669.720
1149.038;    2.964;  -11.640;  632.500
1149.577;    3.572;  -10.130;  698.640
1150.115;    0.828;  -13.970;  452.280
1150.653;    2.257;  -14.520;  607.340
1151.192;    2.052;  -12.810;  552.920
1151.730;    2.133;   -9.100;  652.560
1152.268;    1.506;  -12.220;  589.520
1152.806;    1.365;  -14.140;  571.180
1153.344;    0.256;  -12.350;  577.640
1153.882;    1.862;   -8.980;  600.060
1154.421;    0.256;  -15.190;  470.620
1154.958;    0.778;  -15.210;  595.240
1155.496;    2.143;  -12.850;  645.280
1156.034;    2.184;   -9.940;  721.880
1156.572;    2.574;  -13.570;  667.060
1157.110;    0.731;  -14.590;  473.940
1157.647;    2.183;  -13.030;  676.960
1158.185;    0.681;  -12.140;  564.320
1158.723;   -0.147;  -14.390;  509.200
1159.260;    0.812;  -14.090;  701.700
1159.798;    1.614;  -11.920;  658.160
1160.335;    0.601;  -11.110;  631.820

