
Integration time [ms]:   3.276
Averaging Nr. [scans]: 1000
Smoothing Nr. [pixels]: 0
Data measured with spectrometer [name]: 7414430SP
Wave   ;Sample   ;Dark     ;Reference
[nm]   ;[counts] ;[counts] ;[counts] 

288.544;  150.764;    7.793;  793.890
289.143;  156.005;    7.462;  681.602
289.742;  156.123;    8.602;  828.814
290.341;  140.159;    1.321;  789.841
290.940;  129.590;   -0.709;  730.702
291.538;  130.527;    0.881;  881.108
292.137;  131.388;    0.122;  792.581
292.736;  134.612;   -1.929;  975.101
293.335;  130.969;   -8.229;  735.086
293.934;  132.420;   -5.279;  781.677
294.532;  130.883;   -1.369; 1031.958
295.131;  115.811;   -7.641;  834.394
295.730;  115.921;   -8.420;  809.588
296.328;  115.899;   -5.611;  783.442
296.927;  116.342;   -5.781;  779.652
297.525;  117.228;   -6.361;  781.236
298.124;  106.973;  -11.382;  654.009
298.722;  111.140;   -7.641;  761.933
299.321;  109.664;   -6.811;  708.597
299.919;  106.737;   -6.991;  751.918
300.518;  104.421;  -10.362;  689.338
301.116;  106.559;   -9.581;  691.381
301.715;  106.076;   -4.891;  730.222
302.313;  104.477;   -8.801;  704.943
302.911;  100.186;   -8.522;  733.830
303.509;  106.381;   -6.171;  925.627
304.108;  103.792;   -7.311;  760.383
304.706;  101.977;   -8.321;  801.664
305.304;   96.683;  -10.222;  796.707
305.902;  103.033;   -6.021;  784.484
306.500;   99.168;   -4.971;  728.200
307.098;   96.366;   -7.061;  746.560
307.696;   94.387;   -8.801;  780.432
308.294;   96.053;   -6.411;  731.359
308.892;   98.135;   -2.901;  759.769
309.490;   93.274;   -5.041;  712.161
310.088;   91.194;   -5.002;  788.444
310.686;   95.926;   -2.041;  821.749
311.284;   91.750;   -2.351;  766.040
311.882;   88.983;   -4.422;  731.225
312.480;   86.530;   -4.192;  697.167
313.078;   87.041;   -1.172;  808.331
313.675;   88.538;   -2.601;  691.600
314.273;   83.264;   -1.312;  797.837
314.871;   83.038;   -3.942;  589.829
315.468;   81.167;   -2.802;  652.090
316.066;   84.372;   -0.701;  694.427
316.664;   76.312;   -4.362;  656.351
317.261;   80.330;   -2.872;  910.128
317.859;   75.974;   -2.022;  768.735
318.456;   77.062;   -0.531;  830.096
319.054;   71.558;   -3.912;  787.828
319.651;   71.582;   -4.752;  759.928
320.249;   70.281;   -2.602;  810.188
320.846;   68.794;   -0.821;  714.286
321.443;   65.128;   -4.642;  832.135
322.041;   62.865;   -5.002;  812.315
322.638;   60.217;   -3.982;  701.456
323.235;   61.965;   -3.411;  665.683
323.833;   59.131;   -7.361;  740.354
324.430;   54.399;   -8.611;  615.900
325.027;   55.266;   -4.061;  876.855
325.624;   55.234;   -4.031;  644.532
326.221;   51.492;   -7.481;  689.717
326.818;   51.520;   -5.281;  818.332
327.415;   55.812;   -7.460;  748.828
328.012;   55.156;   -5.510;  690.585
328.609;   52.468;   -7.880;  731.389
329.206;   50.901;   -8.331;  778.621
329.803;   50.959;   -5.121;  737.841
330.400;   53.824;   -4.510;  704.260
330.997;   55.267;   -6.441;  817.147
331.594;   54.160;   -8.831;  788.185
332.191;   59.805;   -7.621;  728.722
332.787;   62.167;   -4.591;  844.463
333.384;   61.186;   -7.412;  763.093
333.981;   59.713;   -8.293;  815.687
334.578;   61.978;   -7.052;  708.378
335.174;   65.273;   -3.102;  731.469
335.771;   64.533;   -5.943;  836.456
336.367;   60.824;   -7.393;  710.631
336.964;   65.257;   -4.063;  793.266
337.561;   63.146;   -3.813;  731.112
338.157;   57.912;   -4.654;  911.916
338.754;   55.908;   -7.934;  796.589
339.350;   54.138;   -4.414;  722.493
339.946;   56.456;   -4.664;  773.135
340.543;   47.807;   -6.375;  846.136
341.139;   42.498;   -9.815;  720.836
341.735;   40.890;   -4.526;  772.593
342.332;   40.003;   -4.895;  691.472
342.928;   40.088;   -4.295;  795.394
343.524;   33.963;   -5.476;  761.684
344.120;   30.336;   -5.856;  738.562
344.716;   34.443;   -2.155;  723.717
345.313;   31.404;   -6.275;  795.342
345.909;   25.616;   -8.815;  627.336
346.505;   27.452;   -5.305;  740.247
347.101;   29.076;   -2.674;  827.864
347.697;   28.314;   -4.344;  785.398
348.293;   23.285;   -9.975;  627.244
348.889;   24.195;   -5.774;  745.914
349.485;   24.120;   -5.004;  688.205
350.081;   24.496;   -4.704;  772.592
350.676;   19.307;   -6.635;  691.606
351.272;   24.424;   -4.504;  809.530
351.868;   23.432;   -3.914;  780.497
352.464;   20.475;   -9.044;  723.932
353.059;   17.080;   -8.314;  646.017
353.655;   21.011;   -7.024;  777.063
354.251;   21.896;   -5.343;  759.845
354.846;   15.994;   -8.604;  740.646
355.442;   13.665;   -6.945;  753.071
356.038;   15.730;   -7.564;  751.708
356.633;   16.254;   -5.814;  728.594
357.229;   13.059;   -7.364;  724.757
357.824;   11.744;   -8.024;  703.600
358.420;   11.301;   -9.384;  679.726
359.015;   12.423;   -5.104;  695.357
359.610;   12.513;   -6.854;  763.920
360.206;    5.834;  -10.185;  603.240
360.801;    9.708;   -7.054;  646.503
361.396;   11.887;   -5.034;  725.975
361.992;    6.977;   -8.284;  668.220
362.587;    4.445;   -8.625;  670.160
363.182;    7.171;   -7.674;  689.631
363.777;    7.204;   -5.164;  738.242
364.372;    6.714;   -8.604;  737.314
364.967;    3.332;   -9.055;  680.744
365.563;    7.836;   -6.114;  815.567
366.158;    6.034;   -5.814;  685.161
366.753;    4.409;   -7.854;  649.263
367.348;    3.617;   -7.804;  746.056
367.942;    4.454;   -7.954;  697.298
368.537;    3.572;   -4.984;  754.245
369.132;    1.776;   -8.564;  703.428
369.727;   -1.034;   -8.855;  638.079
370.322;    0.865;   -6.245;  580.186
370.917;    0.354;   -6.425;  710.646
371.511;    1.679;   -6.294;  861.834
372.106;   -1.530;   -7.685;  776.964
372.701;   -3.066;   -7.335;  585.988
373.296;    2.484;   -4.564;  863.135
373.890;   -3.036;  -10.235;  647.840
374.485;   -5.260;   -7.885;  691.199
375.079;   -0.918;   -7.324;  738.685
375.674;    0.415;   -3.494;  812.970
376.268;   -4.957;   -8.525;  691.759
376.863;  -10.582;  -10.086;  580.327
377.457;   -3.534;   -7.025;  662.490
378.052;   -5.045;   -3.585;  764.884
378.646;   -6.637;   -7.595;  741.167
379.240;   -6.747;   -8.335;  721.176
379.835;   -5.625;   -5.785;  636.978
380.429;   -7.686;   -4.335;  562.557
381.023;   -8.385;   -6.805;  779.205
381.617;  -10.149;   -9.195;  680.106
382.212;   -6.635;   -6.905;  685.303
382.806;   -5.246;   -3.745;  760.690
383.400;  -10.286;   -7.745;  672.281
383.994;  -11.120;   -9.765;  664.870
384.588;   -5.958;   -6.564;  697.701
385.182;   -5.559;   -5.344;  726.624
385.776;   -7.951;   -8.514;  706.875
386.370;  -10.743;   -9.555;  681.968
386.964;   -9.152;   -8.715;  684.155
387.558;   -7.452;   -6.174;  598.360
388.152;  -10.695;   -8.725;  681.959
388.745;   -9.116;   -7.965;  814.707
389.339;   -7.189;   -5.924;  747.642
389.933;   -6.281;   -5.524;  695.370
390.527;   -7.918;   -7.114;  859.029
391.120;  -13.701;  -10.725;  595.318
391.714;  -10.276;   -8.035;  711.633
392.308;   -7.285;   -3.574;  780.253
392.901;  -11.318;   -7.245;  642.460
393.495;  -12.619;   -9.285;  595.414
394.089;  -10.387;   -5.895;  760.452
394.682;  -10.522;   -4.295;  697.188
395.275;  -11.944;   -9.875;  719.927
395.869;  -14.186;   -8.485;  667.314
396.462;  -11.728;   -7.455;  616.609
397.056;   -7.151;   -5.424;  776.621
397.649;  -13.175;   -6.605;  731.575
398.242;  -10.198;   -8.224;  712.645
398.836;   -8.935;   -7.474;  766.408
399.429;   -9.609;   -7.094;  631.041
400.022;  -13.910;   -9.475;  665.902
400.615;  -11.329;   -7.145;  805.609
401.208;   -9.310;   -7.174;  691.451
401.802;  -11.691;   -5.515;  699.329
402.395;  -12.514;   -9.875;  683.502
402.988;  -13.898;   -8.845;  696.627
403.581;   -9.525;   -8.874;  646.878
404.174;   -7.483;   -5.324;  686.568
404.767;  -10.668;   -9.575;  638.583
405.360;  -14.076;  -10.965;  621.445
405.953;   -8.104;   -8.764;  759.034
406.545;   -7.043;   -7.514;  725.342
407.138;  -12.142;  -10.025;  618.350
407.731;  -11.136;  -10.034;  613.303
408.324;   -6.410;   -9.374;  660.554
408.917;   -6.893;   -6.534;  681.864
409.509;   -9.063;   -8.004;  740.396
410.102;  -11.561;   -9.875;  643.948
410.695;   -5.707;   -8.604;  665.758
411.287;   -5.626;   -6.794;  599.821
411.880;   -7.916;   -9.334;  585.421
412.472;  -10.418;  -10.254;  613.092
413.065;   -7.160;   -6.714;  629.408
413.657;   -4.726;   -7.234;  576.678
414.250;   -5.756;  -10.544;  646.681
414.842;   -6.988;   -9.744;  676.353
415.434;   -4.377;   -6.994;  570.463
416.027;    0.272;   -5.893;  652.196
416.619;   -2.796;   -7.264;  713.400
417.211;   -3.203;  -10.374;  599.352
417.804;    0.401;   -7.993;  628.499
418.396;   -2.371;   -7.234;  607.643
418.988;   -1.359;   -9.443;  659.238
419.580;   -4.858;  -10.724;  568.276
420.172;   -2.070;  -10.323;  536.196
420.764;    2.417;   -8.793;  672.482
421.356;    0.582;  -11.143;  636.898
421.948;   -0.478;   -8.293;  677.661
422.540;    5.334;   -7.893;  680.027
423.132;    4.841;   -7.082;  600.641
423.724;    0.282;   -8.653;  561.267
424.316;    2.952;  -10.213;  621.345
424.908;    6.569;   -9.762;  591.517
425.500;    7.789;   -5.572;  647.978
426.092;    7.289;   -8.422;  648.268
426.683;    6.420;   -9.283;  684.836
427.275;    9.097;   -7.852;  641.471
427.867;   11.471;   -5.272;  668.948
428.458;   11.255;   -7.682;  732.344
429.050;    9.777;  -10.612;  680.749
429.642;   12.503;   -9.882;  743.124
430.233;   13.076;   -6.962;  569.356
430.825;   14.189;   -6.842;  724.809
431.416;   11.600;   -9.672;  698.241
432.008;   15.440;   -6.552;  651.723
432.599;   16.130;   -6.891;  656.073
433.190;   12.588;  -10.912;  637.670
433.782;   11.866;  -11.172;  590.395
434.373;   20.247;   -6.061;  884.765
434.964;   18.618;   -8.251;  602.920
435.556;   15.153;   -9.722;  634.537
436.147;   18.784;   -9.082;  758.490
436.738;   19.565;   -8.041;  701.099
437.329;   25.474;   -7.341;  721.723
437.920;   16.825;   -8.162;  666.688
438.511;   18.078;  -11.802;  564.526
439.103;   23.753;  -10.191;  623.998
439.694;   26.303;   -7.601;  681.583
440.285;   26.380;   -8.541;  764.432
440.876;   24.498;   -9.751;  845.738
441.466;   24.094;   -9.401;  575.162
442.057;   28.779;   -7.760;  665.814
442.648;   28.173;   -9.971;  746.255
443.239;   26.007;  -11.001;  620.477
443.830;   31.642;   -7.990;  704.958
444.421;   33.555;   -7.910;  655.474
445.011;   29.986;   -8.131;  693.619
445.602;   28.893;   -7.111;  743.126
446.193;   32.201;  -10.920;  488.117
446.783;   36.300;   -6.500;  640.397
447.374;   31.239;   -8.671;  692.759
447.964;   32.502;  -10.781;  713.770
448.555;   40.605;   -9.650;  822.742
449.145;   37.719;   -8.660;  662.853
449.736;   38.017;   -8.990;  803.179
450.326;   37.722;   -9.500;  713.626
450.917;   43.143;   -8.680;  675.324
451.507;   42.442;   -7.520;  600.661
452.097;   43.086;   -8.590;  746.267
452.688;   43.152;  -11.340;  742.160
453.278;   44.132;  -10.100;  566.840
453.868;   48.446;   -6.019;  793.550
454.458;   45.998;   -9.440;  651.141
455.048;   46.145;  -10.560;  711.783
455.639;   47.994;  -11.799;  567.096
456.229;   52.465;   -6.899;  710.694
456.819;   53.262;   -7.389;  751.158
457.409;   53.362;  -11.119;  773.993
457.999;   56.443;   -9.289;  737.505
458.589;   57.546;   -6.139;  686.606
459.179;   56.019;   -8.729;  717.658
459.769;   54.895;   -9.789;  627.099
460.358;   59.933;  -10.259;  797.262
460.948;   59.677;   -7.299;  689.503
461.538;   60.915;  -10.289;  660.677
462.128;   59.101;  -11.269;  664.934
462.717;   66.031;   -9.368;  710.326
463.307;   68.879;   -7.908;  705.846
463.897;   64.693;   -9.599;  656.942
464.486;   63.990;   -9.769;  837.128
465.076;   68.361;   -8.048;  733.776
465.666;   72.912;   -9.358;  652.900
466.255;   70.270;   -7.919;  785.651
466.845;   68.519;  -11.689;  666.749
467.434;   72.593;   -7.818;  725.873
468.023;   74.097;   -7.678;  658.357
468.613;   70.896;  -10.939;  713.946
469.202;   74.888;  -10.118;  646.507
469.791;   79.005;   -9.108;  737.811
470.381;   82.925;   -6.058;  742.813
470.970;   80.848;  -10.428;  711.099
471.559;   81.560;  -10.268;  733.291
472.148;   84.983;   -8.448;  675.737
472.738;   88.052;   -6.917;  765.466
473.327;   86.706;  -11.978;  637.529
473.916;   86.190;  -11.888;  737.446
474.505;   91.120;   -9.437;  751.703
475.094;   94.086;   -6.747;  806.570
475.683;   92.894;   -9.367;  797.699
476.272;   94.253;  -12.637;  730.632
476.861;   98.286;  -10.027;  706.754
477.449;  104.069;   -8.716;  728.487
478.038;   97.496;   -9.577;  692.513
478.627;   99.208;   -9.718;  714.852
479.216;  105.776;   -8.947;  769.441
479.805;  109.134;   -6.256;  783.375
480.393;  108.693;   -7.937; 1008.945
480.982;  108.107;   -7.717;  874.501
481.571;  114.689;   -9.266;  858.333
482.159;  115.277;   -7.636;  705.386
482.748;  115.213;   -9.667;  821.385
483.336;  120.471;  -10.376;  858.209
483.925;  120.538;   -7.147;  774.373
484.513;  127.832;   -7.996;  758.962
485.102;  124.170;  -10.027;  810.965
485.690;  132.841;  -10.446; 1011.050
486.278;  134.791;   -8.446;  979.329
486.867;  135.784;   -6.356;  809.662
487.455;  138.112;   -9.136;  898.229
488.043;  138.711;  -10.646;  748.361
488.631;  148.017;   -7.456; 1005.079
489.220;  152.971;   -6.636;  908.626
489.808;  152.603;  -11.036;  741.415
490.396;  161.004;  -10.246;  914.645
490.984;  167.717;   -8.556;  830.161
491.572;  179.156;   -5.886;  940.315
492.160;  184.408;   -9.486;  919.081
492.748;  197.498;  -10.976;  884.341
493.336;  222.210;   -8.776; 1019.693
493.924;  251.910;   -5.465;  958.077
494.512;  279.761;   -9.986; 1066.638
495.100;  321.288;  -10.636; 1103.280
495.687;  380.775;  -10.885; 1206.373
496.275;  450.378;   -8.126; 1150.796
496.863;  525.913;  -10.586; 1281.171
497.451;  633.052;  -11.926; 1386.805
498.038;  777.375;  -10.885; 1556.729
498.626;  894.453;   -6.315; 1741.407
499.214; 1060.616;   -7.326; 2016.609
499.801; 1274.836;  -11.906; 2220.633
500.389; 1522.703;  -10.466; 2312.494
500.976; 1850.396;   -5.236; 2744.849
501.564; 2311.418;   -8.936; 3148.565
502.151; 2690.465;  -13.176; 3515.999
502.738; 3149.822;  -10.646; 3971.274
503.326; 3579.756;   -9.525; 4403.796
503.913; 4034.981;  -10.856; 5161.749
504.500; 4456.231;  -11.586; 5986.420
505.088; 4866.560;  -10.336; 6381.201
505.675; 5431.330;   -6.355; 6925.547
506.262; 6164.463;   -9.046; 7619.060
506.849; 6950.142;  -10.416; 8733.969
507.436; 7542.919;  -10.305; 9790.121
508.023; 8151.248;   -5.496; 9985.472
508.610; 8370.772;   -7.856;10434.618
509.197; 9011.060;  -10.097;11198.435
509.784;10416.530;  -10.886;12391.194
510.371;11691.587;   -9.315;13603.713
510.958;12548.284;   -9.936;14426.586
511.545;13320.461;   -9.326;15243.775
512.132;14159.856;  -10.075;15945.876
512.719;14749.289;   -7.796;16340.369
513.305;16044.398;  -10.606;18011.766
513.892;16883.178;  -11.486;19754.971
514.479;18133.646;   -9.126;20967.805
515.066;19609.543;   -6.026;22299.793
515.652;21272.650;   -8.466;22908.660
516.239;22624.273;  -10.886;23798.875
516.825;23520.207;  -11.496;25567.275
517.412;24740.840;   -5.796;28154.959
517.998;25569.402;  -10.506;28344.111
518.585;25480.203;  -10.076;27134.219
519.171;25976.342;   -8.315;27268.576
519.758;28137.867;   -8.596;28964.129
520.344;30304.574;   -8.466;30664.494
520.930;29818.242;  -11.006;32550.605
521.516;30997.936;  -10.495;35422.895
522.103;33107.602;   -5.526;38280.004
522.689;33778.234;   -8.746;37835.117
523.275;33133.320;  -11.376;37288.613
523.861;34923.836;  -11.156;37281.395
524.447;36969.523;   -8.135;37846.949
525.033;36850.098;   -7.896;38321.949
525.619;37101.977;  -12.476;38579.285
526.205;38337.105;   -9.516;40622.875
526.791;41228.980;   -6.926;42258.836
527.377;41078.039;   -8.346;42966.902
527.963;42111.434;   -8.717;42018.949
528.549;41437.203;  -11.016;42476.828
529.135;40109.105;   -8.536;41854.852
529.721;38991.516;   -9.666;41237.711
530.306;38414.137;  -10.066;41259.445
530.892;38200.125;  -11.356;41506.047
531.478;38961.133;   -6.596;43559.613
532.063;42449.371;   -8.836;47695.563
532.649;43792.617;  -10.047;50808.324
533.235;44426.090;   -9.746;51787.500
533.820;44937.102;   -6.566;52145.035
534.406;46195.086;  -10.817;51133.488
534.991;45930.227;   -9.416;49996.805
535.576;44249.801;   -9.036;48882.852
536.162;45133.965;   -6.156;46942.285
536.747;46509.492;  -11.607;45711.746
537.333;49381.855;  -11.787;48510.180
537.918;52215.262;  -12.437;50439.891
538.503;51688.695;   -7.196;50863.711
539.088;48340.570;  -10.556;50906.922
539.673;48437.559;   -8.767;52621.965
540.259;49119.020;  -10.026;52368.094
540.844;46311.465;   -7.416;50879.109
541.429;47966.465;   -9.467;52077.777
542.014;50132.902;   -9.527;52716.695
542.599;49155.555;   -9.946;52363.281
543.184;45865.422;   -7.927;53187.137
543.769;46951.934;   -9.297;54697.605
544.354;47439.594;  -10.127;53913.914
544.938;46117.895;   -9.267;49680.164
545.523;47863.969;   -6.506;47386.277
546.108;50661.664;   -9.787;49151.949
546.693;52492.934;  -11.587;51384.637
547.278;52912.738;  -10.986;51853.254
547.862;49757.422;   -8.206;51173.750
548.447;44935.180;  -10.067;51691.395
549.031;44173.180;   -9.637;52456.703
549.616;49165.051;   -9.926;52714.516
550.201;49020.750;   -6.347;52414.598
550.785;50348.992;   -7.917;52355.059
551.370;49528.742;  -10.867;54589.453
551.954;49045.531;   -9.047;58267.348
552.538;49788.633;   -7.827;59062.176
553.123;47936.137;  -10.287;58115.285
553.707;45648.898;  -12.178;56556.285
554.291;47338.211;   -8.717;56201.668
554.876;50595.922;   -7.457;55335.762
555.460;50628.465;  -10.387;54155.703
556.044;50519.699;   -9.618;53721.484
556.628;48431.234;  -11.567;53731.016
557.212;47356.652;   -8.097;54312.531
557.796;45983.684;  -11.077;53797.773
558.380;46049.645;  -11.108;56145.984
558.964;46482.344;   -9.057;57277.930
559.548;47360.844;   -6.977;56459.641
560.132;45281.566;  -11.457;54434.543
560.716;43759.445;  -11.378;54800.617
561.300;45139.277;   -9.577;57606.945
561.884;46405.527;   -7.127;58972.445
562.467;44231.008;   -7.118;57327.570
563.051;43015.656;  -13.358;54962.434
563.635;44355.031;  -10.178;52594.473
564.219;45491.180;   -7.837;50610.410
564.802;46194.672;  -11.398;49551.180
565.386;45556.313;  -12.788;48370.953
565.969;44937.676;   -9.077;48178.871
566.553;43899.148;   -6.207;49957.305
567.136;44855.914;   -8.568;50369.594
567.720;41366.176;  -11.868;49492.004
568.303;39209.871;   -8.268;50616.352
568.887;39092.234;   -8.698;50727.148
569.470;39766.727;   -6.808;51698.379
570.053;38966.285;  -13.188;52122.078
570.637;36380.602;  -12.037;52536.438
571.220;36041.898;   -8.577;51186.098
571.803;36939.527;   -8.498;51032.762
572.386;39216.742;  -10.498;49609.887
572.969;41889.148;   -9.388;48285.926
573.552;40264.531;   -8.338;47624.285
574.135;38808.043;   -8.518;45498.641
574.718;36145.008;  -13.628;41970.434
575.301;35292.191;  -10.893;41447.137
575.884;34439.375;   -8.158;40923.836
576.467;35554.473;  -10.328;45267.723
577.050;37146.809;  -13.058;48175.543
577.633;38399.141;   -9.458;47729.328
578.216;37665.445;   -8.928;47579.793
578.799;36756.961;   -9.358;47820.996
579.381;35524.906;  -11.388;48115.551
579.964;33330.031;  -11.718;47333.766
580.547;35256.523;   -8.588;46668.969
581.129;36111.426;   -8.859;44466.141
581.712;37096.551;  -10.729;44164.922
582.294;37606.160;  -11.118;46477.855
582.877;37670.883;   -5.218;48244.254
583.459;35865.969;   -8.679;47437.895
584.042;33560.559;  -10.709;46943.219
584.624;33432.098;  -11.669;46792.227
585.206;33397.852;   -8.218;46557.250
585.789;34006.066;  -10.569;45793.773
586.371;36369.168;  -11.859;43836.391
586.953;36955.262;  -10.719;42972.492
587.536;37933.691;   -7.198;42487.211
588.118;38392.668;   -8.720;42086.414
588.700;34371.121;  -10.439;43389.930
589.282;33358.945;   -9.198;43646.039
589.864;34478.449;   -9.199;43438.109
590.446;35784.289;  -11.319;43151.926
591.028;35396.598;  -11.159;42781.867
591.610;33986.160;  -11.779;42839.098
592.192;31377.322;   -7.668;42820.402
592.774;30022.775;  -11.949;40724.277
593.356;29179.078;  -12.129;39874.789
593.937;28247.441;  -10.669;39980.648
594.519;30656.205;   -6.509;42069.633
595.101;32616.664;  -10.849;42976.031
595.683;32610.469;  -11.679;44084.441
596.264;33400.012;   -9.049;43478.797
596.846;33007.117;   -8.849;43803.672
597.427;32784.160;   -9.570;42986.934
598.009;33899.938;  -12.620;42832.219
598.591;34394.254;  -10.039;42580.086
599.172;34169.086;  -10.369;43061.805
599.753;34383.793;   -9.140;41691.469
600.335;35582.641;  -11.430;40692.520
600.916;33722.289;   -9.939;39982.422
601.498;31668.406;   -8.479;40318.617
602.079;30119.959;  -10.920;40670.609
602.660;29891.119;  -11.480;41450.898
603.241;31599.277;  -11.699;41137.738
603.823;30069.305;   -9.579;38868.797
604.404;29423.705;  -10.620;38182.785
604.985;31249.580;  -10.450;38078.047
605.566;31228.164;   -9.129;38056.633
606.147;31295.824;   -7.510;37020.418
606.728;32815.539;  -10.660;37883.359
607.309;31313.787;  -11.740;38748.273
607.890;31033.291;   -9.759;38850.230
608.471;30617.381;   -8.250;37457.918
609.051;30017.734;   -9.240;36066.457
609.632;28755.326;  -12.120;35991.074
610.213;28997.484;   -9.110;37402.641
610.794;29994.006;   -8.030;38383.363
611.374;30086.014;   -8.110;40562.387
611.955;30836.539;  -13.560;38533.727
612.536;32122.273;  -11.400;36951.789
613.116;31763.740;   -8.070;37197.891
613.697;31978.883;  -10.830;38411.125
614.277;30155.303;  -11.641;38673.938
614.858;30908.932;  -13.310;37075.863
615.438;30556.568;   -7.460;35092.906
616.019;28249.678;   -7.601;33666.301
616.599;28371.287;  -12.020;34189.023
617.179;29944.168;  -11.780;36952.047
617.760;31068.018;   -8.570;39582.574
618.340;31824.844;  -11.471;38943.977
618.920;32558.449;  -11.170;37594.156
619.500;32700.754;  -11.071;37866.938
620.080;31903.895;   -7.750;37869.043
620.660;33047.078;  -12.711;36868.617
621.241;34992.680;  -10.211;36352.309
621.821;35336.992;  -10.961;35459.520
622.401;34009.145;   -7.720;35207.414
622.980;32859.875;   -8.981;35980.422
623.560;31394.287;   -9.331;37351.328
624.140;30319.365;   -9.850;34388.582
624.720;25460.154;   -7.451;32368.764
625.300;21939.211;   -9.070;32638.629
625.880;25279.920;  -12.601;34599.035
626.459;29439.668;  -11.751;36831.738
627.039;32262.164;   -9.281;38299.098
627.619;32110.916;   -8.801;38289.574
628.198;30508.195;  -12.071;37220.695
628.778;29494.723;   -9.461;37632.563
629.357;30247.520;   -8.491;38003.012
629.937;30486.016;   -9.721;38402.039
630.516;30060.254;   -9.951;37868.801
631.096;29757.297;  -11.731;35760.410
631.675;32064.623;   -8.572;35225.219
632.254;37230.246;  -11.282;35130.289
632.834;36669.742;  -13.322;35794.570
633.413;35028.453;  -10.301;35788.922
633.992;32460.094;   -8.582;34532.863
634.571;33073.371;   -8.352;33590.113
635.151;35501.195;  -11.912;34943.863
635.730;33993.398;  -10.511;35352.523
636.309;30716.084;   -7.731;35366.605
636.888;28272.365;   -9.952;36165.637
637.467;28792.133;  -11.672;37515.902
638.046;30250.512;   -8.901;39288.695
638.625;33258.508;   -7.912;38279.699
639.204;33243.555;  -10.022;37741.598
639.782;32172.074;  -12.252;38364.551
640.361;28124.584;  -10.041;36740.621
640.940;25412.504;  -11.161;34950.082
641.519;26135.385;   -9.701;34137.398
642.097;29073.588;  -11.271;35654.258
642.676;31831.158;   -8.651;35637.957
643.255;32963.250;   -8.711;36567.074
643.833;32171.182;   -9.581;37809.434
644.412;32182.457;  -13.711;37337.293
644.990;31113.693;  -11.811;37018.531
645.569;31146.740;   -9.411;36518.469
646.147;30892.537;  -10.291;36186.430
646.726;30807.418;  -12.401;36267.688
647.304;31687.797;  -10.411;36647.625
647.882;33077.074;   -9.651;39286.742
648.461;34674.453;   -9.631;39157.703
649.039;33025.754;  -11.881;35412.883
649.617;31838.240;   -9.661;34744.918
650.195;31113.621;   -9.301;35403.098
650.773;29804.975;  -10.511;35053.797
651.352;27547.006;  -11.521;33756.816
651.930;25363.564;  -12.211;31868.773
652.508;23710.045;   -9.171;33121.551
653.086;27631.969;   -9.371;33564.793
653.663;30603.910;  -13.161;34054.668
654.241;29400.781;  -13.031;35693.309
654.819;30884.590;   -9.371;36422.906
655.397;30598.529;  -10.511;38213.484
655.975;29972.564;  -10.371;39507.625
656.553;29548.924;  -10.051;39498.223
657.130;28204.730;  -10.061;40395.480
657.708;27697.543;   -9.561;39242.020
658.286;27766.727;  -11.511;38920.020
658.863;28859.221;  -10.261;40202.898
659.441;32277.588;   -7.531;39677.938
660.018;32331.564;   -9.501;40413.355
660.596;30907.082;  -13.301;39931.414
661.173;32443.500;  -11.211;39604.531
661.750;32900.949;   -9.951;39700.070
662.328;32135.473;   -9.390;39292.809
662.905;31223.426;  -11.330;38235.648
663.482;26585.432;   -9.050;36212.305
664.060;24604.600;   -8.240;35944.945
664.637;27659.443;  -10.050;35170.785
665.214;29173.492;  -11.760;34197.523
665.791;30833.594;  -10.530;34549.520
666.368;29968.381;   -9.690;35118.578
666.945;30269.506;   -9.320;36019.418
667.522;31725.598;  -11.860;36048.438
668.099;31612.668;  -10.770;36243.914
668.676;30206.713;   -6.260;35958.875
669.253;28769.986;   -7.000;37384.730
669.830;29019.715;  -10.190;36779.629
670.407;29014.869;   -9.550;35231.289
670.984;28987.305;   -9.260;35544.270
671.560;29685.785;   -9.280;35466.867
672.137;28980.115;  -11.810;34280.863
672.714;30112.498;  -11.490;34632.863
673.290;31337.063;   -7.740;35135.422
673.867;31324.975;  -10.660;36114.480
674.443;31051.125;  -12.230;36152.859
675.020;28910.969;  -10.450;35327.238
675.596;30048.963;   -9.260;35795.176
676.173;30909.100;  -10.780;35430.355
676.749;30423.324;  -13.690;33549.516
677.326;30028.779;  -11.980;32210.012
677.902;29847.338;   -8.630;32068.871
678.478;29161.295;  -10.730;32583.891
679.054;28296.371;  -10.520;32088.928
679.631;28812.881;  -11.920;30978.848
680.207;30256.021;   -7.490;33160.887
680.783;31599.350;   -9.860;35570.363
681.359;30690.666;  -13.380;36125.184
681.935;30567.377;  -12.480;35240.922
682.511;30481.813;   -7.900;34429.961
683.087;30825.377;   -7.710;34463.680
683.663;30095.326;  -11.480;34648.898
684.239;28644.047;  -14.090;34546.457
684.815;27885.682;   -7.560;35586.375
685.390;27905.648;   -9.910;35821.895
685.966;28387.262;  -11.159;35085.871
686.542;30925.531;  -11.169;34198.230
687.118;33419.996;   -5.959;32847.707
687.693;33826.379;  -10.329;32794.027
688.269;33426.941;  -12.059;33072.367
688.844;31490.400;  -10.909;33141.664
689.420;29489.414;   -8.019;33965.742
689.995;27806.262;   -8.399;34655.523
690.571;26568.342;  -10.949;33576.742
691.146;26512.609;   -9.619;32657.219
691.722;26274.209;   -8.999;32526.979
692.297;26103.875;  -11.589;33014.617
692.872;27358.768;  -11.739;34012.254
693.448;27134.947;  -11.059;34237.434
694.023;26183.994;  -10.139;34142.672
694.598;28198.242;   -9.029;34132.031
695.173;28904.914;  -13.319;34205.250
695.748;27919.617;  -10.169;32882.488
696.323;27610.395;   -8.339;32864.906
696.898;27651.184;   -8.169;33170.004
697.473;27913.174;  -12.309;32432.984
698.048;27252.996;  -10.989;31649.303
698.623;26939.564;   -9.329;30778.141
699.198;28442.559;   -9.849;31140.119
699.773;29916.174;  -12.329;31764.299
700.348;28843.102;  -10.389;31780.816
700.922;28728.727;   -9.269;32046.375
701.497;29599.713;   -9.329;32603.574
702.072;29631.184;  -10.789;34799.871
702.646;28252.381;  -10.839;35793.172
703.221;26310.709;   -9.099;35201.590
703.795;28153.594;  -10.939;34764.527
704.370;28601.471;  -12.859;34307.367
704.944;28827.775;  -11.559;33509.887
705.519;29521.613;   -7.939;31388.584
706.093;30700.482;  -10.499;31340.104
706.668;31026.475;  -11.289;32630.281
707.242;29980.041;  -11.509;32728.779
707.816;28780.654;   -9.639;32947.238
708.390;27279.660;  -11.429;33277.855
708.965;27724.773;  -11.869;33834.336
709.539;27893.869;  -11.689;33709.273
710.113;27928.035;  -10.478;33044.313
710.687;27348.996;  -10.228;31953.992
711.261;25798.625;  -13.698;30505.949
711.835;25740.652;  -13.378;30262.369
712.409;26237.051;   -9.698;31254.447
712.983;28208.928;  -11.898;32754.986
713.557;29413.496;  -15.138;34018.824
714.131;29285.037;  -14.098;34579.625
714.704;28312.414;   -9.958;33890.262
715.278;25817.340;  -10.028;33531.102
715.852;24662.592;  -11.148;33601.660
716.425;25718.387;   -9.068;33515.117
716.999;26855.135;  -10.038;33185.555
717.573;27734.346;   -9.798;33905.996
718.146;28619.938;  -12.378;35199.293
718.720;28670.648;  -11.918;35060.551
719.293;28589.963;   -8.088;34973.230
719.867;31473.875;  -10.888;36394.449
720.440;31156.922;  -11.938;36663.008
721.013;29315.168;  -12.818;35102.426
721.587;27797.787;  -10.298;33985.266
722.160;26578.186;  -10.048;33524.965
722.733;25623.561;  -12.108;32987.043
723.306;25964.348;  -10.818;33066.301
723.880;27921.531;   -8.908;33399.500
724.453;29996.951;   -9.878;33468.297
725.026;29316.527;  -11.188;33816.637
725.599;26670.539;  -11.678;32797.996
726.172;26592.678;   -9.618;33187.434
726.745;27549.166;   -8.258;35136.613
727.318;28903.510;  -12.978;35751.730
727.891;29597.297;  -12.148;35890.430
728.463;29032.297;   -8.968;34822.090
729.036;27610.092;  -10.188;32895.086
729.609;28154.016;  -11.788;31823.225
730.182;25452.725;  -11.788;31445.283
730.754;23222.873;  -10.268;32373.223
731.327;23687.717;   -9.998;33676.820
731.900;24146.223;  -12.228;33417.000
732.472;24853.682;  -13.848;31978.498
733.045;26318.904;   -8.698;30368.777
733.617;26235.631;  -10.607;30574.215
734.190;26429.881;  -11.507;31280.975
734.762;24074.426;  -13.647;31674.412
735.334;22198.639;   -9.767;31247.291
735.907;22609.125;   -9.897;29876.211
736.479;22829.496;  -11.637;29808.488
737.051;22618.650;   -9.567;30233.547
737.623;23212.424;   -8.187;31469.086
738.195;23545.637;  -11.187;31784.225
738.768;25582.057;  -12.337;32120.523
739.340;26428.732;  -12.227;32094.342
739.912;25545.793;  -11.057;31312.680
740.484;24181.141;  -10.207;31946.238
741.056;22640.242;  -10.047;32984.059
741.628;23821.098;  -13.627;33897.715
742.199;26010.855;   -7.177;33213.016
742.771;24743.115;  -10.797;31369.113
743.343;22678.582;  -11.997;31865.473
743.915;21761.768;  -12.867;32388.631
744.487;21702.756;   -7.617;31079.568
745.058;21633.984;   -9.557;30570.107
745.630;22125.158;   -9.877;29970.127
746.201;23412.525;  -14.177;29186.766
746.773;24375.969;   -9.237;28805.723
747.344;24265.508;   -9.847;29591.223
747.916;22472.236;  -11.657;31412.201
748.487;22356.705;  -10.587;32194.898
749.059;23618.465;   -8.707;32533.719
749.630;24442.338;  -10.537;32158.518
750.201;23695.502;  -11.687;30855.395
750.773;21997.877;  -11.647;28622.555
751.344;21611.660;   -7.147;28405.732
751.915;22461.998;   -9.757;28461.551
752.486;22535.252;  -12.427;27842.850
753.057;20589.084;  -12.227;27845.008
753.628;19407.580;  -10.417;27728.107
754.199;20260.305;  -11.767;27381.086
754.770;21220.426;  -11.187;25882.203
755.341;21401.963;  -10.507;25886.184
755.912;21670.820;   -9.387;26050.861
756.483;21371.445;  -10.647;26798.779
757.054;19573.951;  -11.837;27048.238
757.625;18073.504;  -12.716;26294.838
758.195;17827.645;   -9.666;26142.076
758.766;17592.711;   -8.656;26392.234
759.337;18116.699;  -12.856;26334.594
759.907;19460.354;  -13.366;27579.652
760.478;20357.936;   -8.576;28352.770
761.048;19853.834;  -10.526;27325.088
761.619;18858.570;  -11.116;26460.428
762.189;18959.932;  -12.136;26029.826
762.760;20048.053;   -9.456;26430.145
763.330;21178.787;   -7.136;26670.902
763.900;20793.818;  -11.786;26603.021
764.471;18381.986;  -11.546;25542.740
765.041;16823.125;   -8.096;24358.459
765.611;16567.480;   -8.876;23991.297
766.181;16974.043;  -12.196;24470.236
766.751;18271.938;  -11.636;24845.975
767.321;18014.445;  -10.156;24533.633
767.891;15820.076;  -11.766;24916.492
768.461;15151.128;  -14.936;24776.771
769.031;15672.648;  -12.356;24757.988
769.601;17354.252;   -7.526;24181.088
770.171;17550.865;  -10.766;23670.387
770.741;16783.406;  -13.176;22960.045
771.311;16874.010;  -10.616;22917.523
771.880;17436.412;   -9.576;23562.941
772.450;17390.266;  -10.336;24216.500
773.020;17312.406;  -13.516;24140.398
773.589;16411.662;  -13.466;24414.857
774.159;15691.722;   -8.686;23858.717
774.729;15361.325;   -9.476;22942.135
775.298;15048.899;  -13.666;22324.033
775.867;14618.404;  -11.716;21140.313
776.437;14719.333;   -9.906;20838.092
777.006;14478.597;  -12.166;20599.510
777.576;14145.810;  -12.356;20508.809
778.145;14108.635;  -11.646;20732.947
778.714;14186.750;   -8.226;21062.465
779.283;13770.045;   -9.556;20949.664
779.853;13278.029;  -14.116;20508.623
780.422;13693.992;  -11.506;20649.082
780.991;13247.931;   -9.556;21527.520
781.560;11926.748;   -9.095;22632.658
782.129;11651.507;  -12.135;23048.277
782.698;11638.345;  -10.865;23438.555
783.267;11254.505;   -9.335;23267.734
783.836;11207.401;  -11.045;22415.133
784.404;12188.607;  -13.865;20443.152
784.973;12836.966;  -13.095;19699.150
785.542;12914.607;  -11.575;19763.828
786.111;12782.425;   -9.705;20341.408
786.679;12315.061;  -12.105;20207.967
787.248;12054.551;  -12.455;19516.465
787.817;11808.824;  -11.535;18900.363
788.385;11371.493;   -9.765;17879.121
788.954;10789.488;  -14.005;17658.301
789.522;10229.327;  -11.955;17788.879
790.090;10650.369;  -10.135;18118.277
790.659;11233.035;  -10.975;18338.736
791.227;10830.271;  -13.375;18508.615
791.795;11182.176;  -12.375;17898.254
792.364;11456.988;  -10.725;17295.133
792.932;11789.174;   -9.715;16822.051
793.500;12129.229;  -12.675;17040.148
794.068;12447.406;  -13.495;17179.787
794.636;12621.578;  -10.885;16664.246
795.204;11906.544;  -11.045;16524.545
795.772;11853.567;  -13.175;17274.564
796.340;11366.664;  -12.445;17891.002
796.908;11121.514;   -9.735;17648.561
797.476;11013.102;   -9.815;17064.080
798.044;10599.123;  -13.985;16672.777
798.612; 9905.443;  -13.115;17023.996
799.180; 9536.344;  -10.185;16561.615
799.747; 9357.167;   -9.055;15962.773
800.315; 9047.571;  -12.385;15296.992
800.883; 8837.651;  -15.035;14801.771
801.450; 9035.893;  -10.365;14534.430
802.018; 9159.537;   -9.855;14173.248
802.585; 9157.765;  -11.905;14029.547
803.153; 9132.171;  -11.585;13836.846
803.720; 8958.347;   -9.095;13567.324
804.287; 8441.264;   -9.135;13360.622
804.855; 7951.132;  -11.604;13681.981
805.422; 7857.554;  -11.794;13536.560
805.989; 7946.785;  -10.734;13355.958
806.556; 8169.580;  -10.444;13747.896
807.124; 8457.301;  -12.764;13987.376
807.691; 8420.353;  -12.964;14038.674
808.258; 8199.854;  -11.134;14120.152
808.825; 7801.384;   -9.854;13860.111
809.392; 7910.943;  -10.504;13268.790
809.959; 7542.603;  -13.054;12680.389
810.526; 7067.522;   -8.294;12427.308
811.093; 7021.759;   -8.394;12030.105
811.659; 7592.607;  -12.304;11653.664
812.226; 8108.720;  -13.944;11637.183
812.793; 7836.936;  -10.484;11611.521
813.360; 7218.003;  -10.144;11885.181
813.926; 6896.045;  -11.684;12770.539
814.493; 6723.617;  -13.644;12677.638
815.060; 6356.941;   -9.724;11974.336
815.626; 6312.586;   -9.854;11594.715
816.193; 6671.284;  -13.254;11579.474
816.759; 6689.204;  -13.204;11666.972
817.325; 6722.940;   -9.434;11325.530
817.892; 7080.822;  -10.134;11105.369
818.458; 7491.409;  -13.474;10843.928
819.024; 7131.049;  -11.854;10714.406
819.591; 6893.725;  -10.244;10469.165
820.157; 6730.508;  -10.704;10235.523
820.723; 6225.594;  -12.324;10847.563
821.289; 5937.860;   -9.444;11040.980
821.855; 5878.595;   -8.374;10357.100
822.421; 5829.141;  -10.234; 9978.918
822.987; 5751.888;  -13.294; 9754.177
823.553; 5372.563;  -10.884;10065.755
824.119; 5189.793;   -8.884;10036.294
824.685; 5350.183;   -6.784;10029.192
825.251; 5489.476;  -12.004;10199.230
825.816; 5442.969;  -11.474; 9820.189
826.382; 5161.321;   -9.174; 9297.248
826.948; 5284.848;   -9.214; 9381.347
827.513; 5667.174;  -10.774; 9450.726
828.079; 5532.872;  -11.924; 9472.444
828.645; 4961.623;  -10.543; 9292.643
829.210; 4777.929;  -10.533; 9065.341
829.776; 4731.234;  -10.753; 9132.620
830.341; 4618.873;  -10.173; 9092.878
830.906; 4781.041;  -10.743; 9078.557
831.472; 5127.369;  -11.113; 8534.535
832.037; 4953.227;  -10.603; 8677.874
832.602; 4450.840;  -13.323; 8628.692
833.167; 4189.433;  -10.823; 8879.031
833.733; 4128.152;  -10.113; 9189.790
834.298; 4257.981;  -13.583; 9052.608
834.863; 4388.376;  -12.703; 8895.087
835.428; 4422.546;  -10.523; 8824.266
835.993; 4285.815;   -6.963; 8845.385
836.558; 4097.288;  -10.763; 8888.563
837.123; 4152.676;   -9.903; 8966.582
837.688; 4404.303;   -9.913; 8617.860
838.253; 4647.113;  -10.283; 8590.699
838.817; 4828.373;  -12.963; 8443.797
839.382; 4772.600;  -14.243; 8799.356
839.947; 4484.153;  -10.733; 8810.595
840.511; 4187.992;   -9.383; 8796.394
841.076; 3812.891;  -12.563; 8347.231
841.641; 3855.895;  -12.953; 8224.330
842.205; 3941.596;   -7.043; 8223.349
842.770; 3957.018;   -8.163; 8622.107
843.334; 4088.873;  -12.503; 8410.386
843.898; 4057.969;  -11.693; 8337.465
844.463; 4052.323;  -10.203; 8506.283
845.027; 3857.703;   -9.533; 8280.962
845.591; 3676.015;  -13.443; 8231.141
846.156; 3672.991;  -13.143; 7969.179
846.720; 3608.798;   -9.433; 7768.278
847.284; 3510.951;  -11.033; 7630.957
847.848; 3368.771;  -10.403; 7472.395
848.412; 3266.138;  -11.553; 7437.394
848.976; 3300.697;   -8.393; 7674.592
849.540; 3227.226;   -8.713; 7836.011
850.104; 3266.865;  -12.463; 7913.669
850.668; 3602.847;  -12.973; 7694.508
851.232; 3767.927;  -10.793; 7756.887
851.796; 3644.500;  -10.662; 7926.545
852.359; 3338.265;  -13.082; 7827.844
852.923; 3170.840;  -12.192; 7641.163
853.487; 3038.711;  -11.912; 7342.501
854.050; 3026.345;  -10.892; 7042.820
854.614; 3157.893;  -13.992; 7151.338
855.177; 3254.884;  -11.732; 7105.077
855.741; 3282.333;   -8.962; 6989.675
856.304; 3189.456;   -9.442; 6596.634
856.868; 3174.094;  -14.192; 6356.272
857.431; 3286.622;  -12.702; 6468.571
857.995; 3407.883;   -9.942; 6373.210
858.558; 3431.908;   -9.112; 6324.448
859.121; 3177.426;  -12.932; 6408.327
859.684; 3003.448;  -13.442; 6347.886
860.247; 3092.667;  -10.632; 6321.264
860.810; 3129.046;  -11.272; 6301.903
861.374; 2894.909;   -9.832; 6607.881
861.937; 2629.143;  -11.762; 6408.200
862.500; 2626.618;   -9.722; 6572.639
863.062; 2772.794;  -10.512; 6387.297
863.625; 2908.382;  -11.232; 6190.836
864.188; 3069.877;  -14.112; 5807.254
864.751; 3158.587;  -11.302; 5682.413
865.314; 3083.257;  -10.112; 5547.492
865.876; 2861.518;  -12.182; 5500.150
866.439; 2822.850;  -10.722; 5415.909
867.002; 2781.586;   -9.252; 5501.567
867.564; 2595.391;   -9.572; 5413.946
868.127; 2387.835;  -13.142; 5160.325
868.689; 2273.211;  -12.902; 5133.183
869.252; 2160.666;   -9.732; 5252.382
869.814; 2056.743;   -9.432; 5297.141
870.377; 2055.707;  -11.552; 5390.919
870.939; 2121.521;   -9.052; 5599.898
871.501; 2203.264;  -10.982; 5248.336
872.063; 2219.042;  -12.292; 4854.235
872.626; 2153.109;  -14.912; 4817.074
873.188; 2141.587;  -13.112; 4987.732
873.750; 2116.231;  -13.442; 4868.651
874.312; 2039.827;   -9.402; 4779.330
874.874; 1959.486;  -11.062; 4866.348
875.436; 1880.388;  -13.931; 4718.887
875.998; 1880.247;   -9.561; 4660.005
876.560; 1905.086;  -11.321; 4462.964
877.122; 1851.021;  -12.221; 4145.042
877.683; 1749.226;  -12.191; 4056.481
878.245; 1672.721;  -12.101; 3950.740
878.807; 1706.794;   -8.971; 4058.958
879.369; 1724.061;  -12.071; 3954.677
879.930; 1641.976;  -14.621; 3941.495
880.492; 1581.949;  -10.311; 4067.014
881.053; 1546.696;  -10.901; 3859.633
881.615; 1444.596;  -14.411; 3776.071
882.176; 1356.423;  -13.761; 3734.750
882.738; 1311.003;   -9.181; 3678.489
883.299; 1289.332;  -11.791; 3405.407
883.860; 1274.724;  -13.121; 3351.106
884.422; 1258.954;  -11.211; 3394.044
884.983; 1222.326;  -10.091; 3166.443
885.544; 1156.964;   -8.461; 3189.802
886.105; 1085.791;  -12.361; 3160.360
886.666; 1023.343;  -14.141; 3093.059
887.227;  964.225;  -11.361; 2941.957
887.788;  903.620;  -11.401; 2974.836
888.349;  838.362;  -13.791; 2721.214
888.910;  830.143;  -13.191; 2696.493
889.471;  832.237;   -9.881; 2560.172
890.032;  810.682;   -9.881; 2558.190
890.593;  783.639;  -10.371; 2567.669
891.153;  759.734;  -13.301; 2460.307
891.714;  717.245;  -11.431; 2372.046
892.275;  684.674;  -11.291; 2309.505
892.835;  649.987;  -11.471; 2382.543
893.396;  601.260;  -11.541; 2295.502
893.956;  544.714;  -11.181; 2162.420
894.517;  505.381;  -11.741; 2125.439
895.077;  497.029;  -11.671; 2086.978
895.638;  499.551;  -11.311; 2126.316
896.198;  474.851;   -9.831; 1838.275
896.758;  433.716;   -8.421; 1892.813
897.319;  403.787;  -12.351; 1792.232
897.879;  389.242;  -13.511; 1762.751
898.439;  365.616;  -12.001; 1661.149
898.999;  341.195;  -10.180; 1781.468
899.559;  330.826;  -12.030; 1703.347
900.119;  326.285;  -15.710; 1537.525
900.679;  323.384;   -8.900; 1638.384
901.239;  308.908;   -8.340; 1527.902
901.799;  298.364;  -13.910; 1456.441
902.359;  292.182;  -13.460; 1357.140
902.919;  286.011;  -11.490; 1331.118
903.479;  273.849;  -12.110; 1317.257
904.038;  253.422;  -11.720; 1262.595
904.598;  238.959;  -13.610; 1152.034
905.158;  236.254;  -11.040; 1240.893
905.717;  229.553;  -10.900; 1233.691
906.277;  217.693;  -15.080; 1217.330
906.836;  209.786;  -13.380; 1222.408
907.396;  201.180;  -10.780; 1193.047
907.955;  195.031;   -8.500; 1182.526
908.515;  189.073;  -12.760; 1099.364
909.074;  182.613;  -11.900; 1092.863
909.633;  178.738;   -8.950; 1069.121
910.192;  174.336;   -8.770; 1196.460
910.752;  167.469;  -12.390; 1029.960
911.311;  163.752;  -13.680; 1009.780
911.870;  162.142;  -12.370;  971.460
912.429;  162.715;  -10.900; 1094.080
912.988;  160.545;  -11.690; 1081.060
913.547;  156.998;  -13.240;  940.380
914.106;  153.009;  -11.990;  999.420
914.665;  149.804;   -9.990;  984.020
915.224;  148.371;  -12.880; 1035.760
915.782;  148.671;  -12.350;  922.560
916.341;  148.318;   -9.110; 1049.840
916.900;  144.464;   -9.270;  925.260
917.458;  141.337;  -13.240;  884.220
918.017;  141.829;  -13.550;  942.600
918.576;  141.494;  -12.320;  904.440
919.134;  140.132;  -11.490;  837.980
919.693;  138.075;  -13.670;  893.060
920.251;  136.278;  -15.470;  876.500
920.809;  135.657;  -11.290;  839.580
921.368;  135.407;  -10.210;  885.360
921.926;  133.911;  -12.140;  842.940
922.484;  132.539;  -13.080;  903.360
923.042;  133.439;  -11.720;  880.340
923.601;  136.016;   -7.480;  998.680
924.159;  132.575;  -11.570;  935.560
924.717;  130.083;  -13.840;  841.080
925.275;  130.278;  -10.640;  903.240
925.833;  129.917;  -11.540;  779.320
926.391;  130.415;  -12.960;  938.380
926.949;  127.904;  -14.130;  857.680
927.506;  129.582;  -11.750;  903.500
928.064;  129.701;  -10.250;  877.580
928.622;  128.093;  -13.030;  880.100
929.180;  128.392;  -13.400;  814.180
929.737;  129.269;  -10.700;  808.540
930.295;  133.104;  -10.070;  928.480
930.853;  133.163;  -11.960;  849.100
931.410;  134.486;  -13.120;  821.120
931.968;  135.261;  -10.770;  940.660
932.525;  135.139;  -10.680;  909.380
933.082;  134.238;  -13.130;  811.440
933.640;  135.103;  -13.210;  925.900
934.197;  133.514;  -11.060;  886.360
934.754;  134.665;   -9.580;  897.780
935.312;  137.059;  -14.000;  863.340
935.869;  141.458;  -10.710; 1012.980
936.426;  142.467;   -9.860;  872.800
936.983;  143.635;   -9.710;  889.020
937.540;  142.321;  -13.990;  838.280
938.097;  141.063;  -14.040;  940.120
938.654;  142.263;  -10.310;  898.860
939.211;  145.063;  -10.560;  952.480
939.768;  146.482;  -13.900;  915.420
940.324;  151.127;  -14.760;  904.200
940.881;  153.370;  -10.370;  878.500
941.438;  153.931;   -8.260; 1021.200
941.995;  149.453;  -12.540;  992.560
942.551;  146.144;  -14.670;  875.620
943.108;  146.604;  -10.450;  937.920
943.664;  148.924;  -10.750;  869.340
944.221;  151.894;  -11.550; 1088.140
944.777;  149.977;  -14.770;  869.680
945.334;  150.437;  -12.820;  884.840
945.890;  151.047;  -10.130;  946.480
946.446;  151.118;  -13.470;  947.020
947.003;  153.082;  -12.120;  964.940
947.559;  156.273;   -9.980; 1063.040
948.115;  156.173;   -9.080; 1026.540
948.671;  152.893;  -10.830;  967.300
949.227;  150.737;  -12.440;  859.560
949.783;  149.580;  -12.910;  858.900
950.339;  151.179;  -10.270;  991.000
950.895;  150.159;  -13.630; 1023.840
951.451;  149.901;  -15.100;  925.280
952.007;  149.504;  -11.330;  998.540
952.563;  149.697;  -10.580;  937.780
953.118;  147.492;  -13.440;  904.940
953.674;  146.772;  -12.710;  935.780
954.230;  146.793;  -10.350;  949.640
954.785;  145.213;   -9.190;  936.640
955.341;  141.484;  -11.200;  998.160
955.897;  139.926;  -16.560;  834.660
956.452;  143.025;  -12.570;  953.840
957.008;  142.672;   -7.970; 1083.640
957.563;  139.020;  -11.940; 1009.540
958.118;  134.428;  -13.450;  877.700
958.674;  135.146;  -12.030;  946.780
959.229;  137.120;   -9.410; 1013.980
959.784;  134.487;  -12.000;  832.400
960.339;  134.404;  -14.780; 1001.280
960.894;  130.452;   -9.860;  963.760
961.449;  126.647;   -9.970;  859.960
962.004;  125.622;  -10.900; 1212.840
962.559;  120.529;  -13.150;  860.140
963.114;  119.583;  -13.740;  742.480
963.669;  119.016;   -9.820;  915.500
964.224;  116.046;  -13.890;  874.340
964.779;  115.387;  -12.600;  828.420
965.334;  116.988;  -10.950; 1017.860
965.888;  116.009;  -11.170;  875.360
966.443;  118.435;  -12.540;  972.380
966.998;  118.072;  -15.780;  819.460
967.552;  117.831;   -9.760;  908.380
968.107;  114.040;   -9.060;  868.300
968.661;  114.853;  -11.950;  922.440
969.216;  114.131;  -12.800;  856.280
969.770;  115.667;  -11.210;  917.200
970.324;  114.724;  -11.610;  923.140
970.879;  110.575;  -11.370;  947.180
971.433;  107.541;  -12.540;  952.720
971.987;  103.622;  -11.320;  895.340
972.541;  100.577;  -10.720;  917.100
973.095;   98.409;   -9.680; 1009.460
973.649;   98.109;  -11.440;  809.480
974.203;   96.731;  -11.210;  829.040
974.757;   97.622;  -10.240;  855.220
975.311;   97.411;  -13.720;  872.600
975.865;   96.689;  -13.770;  881.820
976.419;   96.424;  -11.690;  857.400
976.973;   96.337;   -9.510;  849.620
977.526;   96.787;  -12.620;  949.920
978.080;   95.446;  -12.010;  796.780
978.634;   98.117;  -10.170;  921.320
979.187;   95.461;   -9.020;  905.400
979.741;   93.307;   -9.820; 1018.380
980.294;   87.896;  -14.870;  789.160
980.848;   86.718;  -12.380;  717.220
981.401;   88.565;  -10.350;  816.540
981.955;   89.686;  -13.720;  844.300
982.508;   89.042;  -11.490;  746.340
983.061;   89.585;  -10.000;  915.260
983.615;   86.103;  -11.480;  798.800
984.168;   82.651;  -13.220;  770.080
984.721;   81.503;  -13.960;  880.760
985.274;   81.909;  -10.870;  867.500
985.827;   80.656;   -9.790;  834.220
986.380;   78.097;  -13.120;  721.340
986.933;   77.354;  -12.450;  864.800
987.486;   75.919;  -10.210;  861.920
988.039;   75.897;   -8.430;  863.100
988.591;   72.923;  -10.520;  893.260
989.144;   70.327;  -14.860;  737.260
989.697;   70.371;  -13.080;  758.740
990.250;   70.409;  -10.150;  858.100
990.802;   67.825;  -13.430;  755.860
991.355;   69.523;  -12.750;  974.880
991.907;   67.575;  -12.040;  864.320
992.460;   65.626;  -11.330;  753.760
993.012;   64.204;  -13.610;  749.540
993.565;   62.931;  -13.460;  711.360
994.117;   65.225;   -9.360;  950.780
994.669;   62.437;  -11.300;  701.320
995.221;   59.771;  -13.540;  791.920
995.774;   59.012;  -13.430;  787.580
996.326;   57.438;  -12.520;  740.220
996.878;   57.579;  -10.950;  838.420
997.430;   54.811;  -14.300;  699.860
997.982;   53.650;  -13.760;  750.140
998.534;   54.847;  -11.530;  739.060
999.086;   52.856;  -10.310;  738.220
999.638;   50.140;  -12.530;  661.380
1000.190;   49.977;  -11.840;  699.320
1000.741;   50.564;  -10.260;  742.700
1001.293;   50.565;   -8.860;  686.020
1001.845;   48.189;  -13.700;  676.640
1002.396;   48.401;  -12.100;  743.400
1002.948;   48.785;  -12.760;  737.400
1003.500;   46.573;  -10.380;  723.780
1004.051;   47.248;  -11.900;  907.580
1004.603;   45.174;  -12.250;  791.820
1005.154;   42.632;  -13.210;  608.980
1005.705;   41.292;  -10.950;  723.960
1006.257;   40.176;  -13.880;  707.220
1006.808;   39.258;  -12.840;  685.460
1007.359;   40.431;  -10.570;  763.240
1007.910;   40.130;   -9.620;  646.640
1008.461;   38.128;  -13.630;  732.940
1009.013;   36.817;  -17.200;  588.340
1009.564;   39.080;  -10.200;  793.520
1010.115;   36.613;  -12.570;  597.040
1010.665;   36.287;  -15.150;  602.160
1011.216;   36.226;  -14.480;  667.920
1011.767;   35.291;  -11.340;  697.920
1012.318;   36.415;   -9.780;  736.980
1012.869;   34.583;  -12.380;  679.000
1013.419;   33.556;  -15.560;  603.120
1013.970;   34.361;  -11.010;  666.640
1014.521;   34.124;  -11.610;  620.620
1015.071;   33.451;  -13.450;  670.380
1015.622;   33.139;  -13.870;  635.460
1016.172;   32.934;  -11.610;  596.820
1016.723;   32.674;  -12.120;  614.380
1017.273;   31.522;  -13.620;  604.160
1017.823;   32.527;  -14.140;  650.340
1018.374;   32.205;  -12.800;  611.760
1018.924;   32.163;  -12.340;  716.880
1019.474;   31.906;  -11.410;  718.880
1020.024;   29.449;  -14.770;  657.580
1020.574;   32.159;   -9.780;  726.160
1021.124;   32.071;   -8.560;  673.580
1021.674;   29.639;  -15.190;  559.120
1022.224;   31.234;  -13.530;  708.940
1022.774;   31.055;  -13.280;  668.820
1023.324;   31.761;  -10.690;  753.520
1023.874;   31.919;  -10.240;  875.760
1024.423;   28.805;  -12.540;  613.700
1024.973;   29.590;  -10.010;  610.760
1025.523;   28.834;  -10.550;  620.960
1026.072;   28.035;  -13.560;  606.420
1026.622;   27.576;  -15.120;  675.740
1027.172;   29.920;  -11.260;  715.660
1027.721;   28.653;  -11.410;  601.220
1028.270;   28.737;  -13.530;  663.400
1028.820;   27.662;  -13.680;  638.080
1029.369;   28.328;  -13.520;  612.700
1029.918;   29.020;  -10.980;  649.840
1030.468;   26.868;  -13.530;  564.780
1031.017;   28.270;  -13.170;  634.800
1031.566;   27.300;  -12.200;  608.900
1032.115;   27.413;   -9.960;  694.500
1032.664;   25.855;  -13.210;  596.480
1033.213;   26.862;  -12.500;  735.420
1033.762;   26.625;  -11.910;  635.620
1034.311;   26.426;   -9.640;  677.220
1034.860;   27.061;  -13.310;  691.000
1035.408;   25.327;  -11.830;  722.720
1035.957;   27.152;  -12.000;  719.540
1036.506;   25.203;  -11.690;  530.800
1037.055;   26.452;  -10.990;  844.320
1037.603;   24.786;  -15.120;  664.000
1038.152;   24.049;  -12.450;  534.760
1038.700;   24.777;  -10.560;  585.740
1039.249;   24.443;  -11.080;  681.220
1039.797;   24.073;  -12.540;  633.360
1040.345;   24.696;  -11.920;  705.420
1040.894;   24.543;  -11.410;  625.300
1041.442;   23.432;  -14.320;  632.200
1041.990;   22.310;  -16.240;  559.160
1042.538;   22.373;  -11.680;  536.180
1043.087;   22.697;  -10.760;  570.860
1043.635;   24.205;  -11.850;  670.500
1044.183;   21.418;  -15.480;  586.400
1044.731;   22.836;  -11.770;  576.000
1045.279;   22.707;  -13.090;  674.920
1045.827;   23.809;  -12.440;  892.400
1046.374;   21.644;  -13.840;  515.420
1046.922;   21.314;  -13.220;  590.580
1047.470;   23.607;  -10.230;  691.300
1048.018;   22.061;  -14.590;  647.960
1048.565;   22.483;  -12.050;  708.600
1049.113;   21.150;  -11.650;  557.000
1049.660;   22.085;  -10.510;  629.660
1050.208;   21.031;  -13.310;  675.640
1050.755;   19.564;  -15.900;  606.580
1051.303;   21.932;  -11.430;  686.820
1051.850;   20.935;   -8.480;  635.120
1052.397;   18.478;  -15.010;  473.960
1052.945;   18.669;  -13.960;  617.760
1053.492;   21.700;  -13.150;  741.840
1054.039;   20.817;   -9.630;  720.180
1054.586;   19.565;  -13.680;  557.240
1055.133;   20.290;  -14.570;  693.140
1055.680;   20.708;  -13.820;  646.620
1056.227;   19.532;  -11.730;  542.780
1056.774;   20.468;  -12.480;  794.980
1057.321;   18.183;  -13.930;  523.260
1057.868;   19.164;  -11.690;  651.320
1058.415;   19.443;   -9.520;  651.980
1058.961;   18.768;  -13.160;  678.940
1059.508;   17.789;  -12.920;  643.820
1060.055;   18.950;  -11.920;  581.780
1060.601;   19.948;  -11.500;  624.300
1061.148;   18.632;  -14.330;  616.820
1061.694;   17.001;  -16.870;  592.580
1062.241;   18.029;  -10.330;  596.320
1062.787;   18.199;  -10.620;  663.140
1063.334;   19.018;  -10.110;  808.560
1063.880;   17.477;  -13.400;  668.360
1064.426;   18.061;  -10.680;  706.820
1064.972;   17.186;   -9.920;  601.340
1065.518;   16.308;  -10.980;  566.640
1066.065;   17.148;  -14.890;  624.460
1066.611;   16.681;  -12.870;  598.800
1067.157;   17.865;  -12.950;  641.860
1067.703;   16.648;  -13.540;  668.480
1068.249;   16.508;  -13.540;  605.220
1068.794;   16.341;  -12.600;  626.880
1069.340;   15.868;  -10.620;  578.960
1069.886;   15.869;  -12.830;  590.700
1070.432;   15.052;  -14.870;  541.720
1070.977;   15.964;  -11.980;  601.080
1071.523;   15.772;   -8.200;  573.060
1072.068;   15.516;  -12.330;  582.000
1072.614;   14.347;  -16.370;  527.760
1073.160;   16.378;  -11.100;  687.040
1073.705;   15.828;  -10.480;  572.520
1074.250;   14.558;  -14.520;  559.900
1074.796;   15.794;  -11.460;  655.160
1075.341;   15.838;  -11.950;  664.100
1075.886;   14.187;  -11.460;  594.240
1076.431;   13.223;  -13.770;  649.880
1076.976;   13.521;  -12.680;  639.220
1077.521;   14.608;  -13.170;  583.080
1078.067;   14.628;  -10.860;  579.400
1078.612;   14.508;  -13.920;  661.620
1079.156;   13.554;  -13.880;  601.540
1079.701;   15.025;  -13.120;  693.260
1080.246;   14.762;   -9.940;  696.300
1080.791;   13.481;  -14.740;  625.020
1081.336;   13.321;  -13.750;  659.320
1081.880;   13.702;  -13.400;  649.680
1082.425;   13.006;  -12.220;  573.480
1082.970;   14.545;  -11.610;  717.040
1083.514;   12.542;  -13.580;  597.000
1084.059;   12.779;  -12.810;  586.720
1084.603;   13.412;  -12.320;  565.840
1085.147;   12.763;  -13.190;  645.220
1085.692;   12.933;  -12.480;  716.800
1086.236;   12.220;  -13.020;  503.140
1086.780;   14.179;   -9.190;  751.440
1087.325;   12.601;  -12.480;  654.620
1087.869;   12.356;  -12.450;  610.700
1088.413;   12.674;  -12.240;  705.040
1088.957;   11.628;   -9.020;  543.400
1089.501;   12.736;  -10.320;  766.640
1090.045;   11.634;  -12.720;  726.480
1090.589;   11.154;  -13.690;  569.920
1091.133;   12.543;  -10.020;  673.340
1091.676;   11.190;  -12.330;  591.940
1092.220;   10.885;  -14.970;  600.920
1092.764;   12.446;  -12.430;  706.960
1093.307;   11.567;   -9.800;  673.780
1093.851;    9.579;  -14.970;  556.540
1094.395;   10.868;  -15.310;  683.140
1094.938;   10.233;  -10.370;  632.520
1095.482;   11.401;  -11.050;  559.800
1096.025;   11.112;  -11.840;  710.880
1096.568;   11.094;  -12.840;  779.280
1097.112;    9.574;  -14.700;  508.180
1097.655;   10.613;   -8.720;  603.000
1098.198;    8.511;  -13.610;  600.180
1098.741;    8.781;  -13.350;  612.860
1099.285;   10.275;  -11.230;  657.300
1099.828;    8.967;  -11.840;  439.400
1100.371;    9.392;  -10.840;  608.160
1100.914;    9.028;  -14.190;  682.660
1101.457;   10.003;  -11.240;  679.900
1101.999;    8.311;  -11.270;  584.680
1102.542;    9.165;  -11.480;  641.440
1103.085;    7.976;  -11.750;  658.500
1103.628;   10.053;  -11.400;  762.060
1104.170;    9.366;  -10.490;  588.280
1104.713;    9.234;  -10.600;  646.700
1105.256;    8.258;  -14.360;  557.440
1105.798;    7.863;  -13.210;  499.980
1106.341;    9.551;  -10.270;  728.900
1106.883;    8.133;  -12.200;  521.340
1107.425;    7.747;  -13.110;  668.180
1107.968;    8.071;  -12.840;  612.380
1108.510;    9.084;   -6.480;  684.960
1109.052;    6.842;  -13.940;  612.620
1109.594;    6.844;  -13.690;  554.440
1110.136;    8.262;  -11.880;  643.220
1110.679;    8.012;   -9.500;  633.080
1111.221;    8.049;  -14.160;  604.460
1111.763;    6.419;  -13.980;  559.220
1112.304;    6.930;  -13.880;  547.140
1112.846;    8.642;  -12.210;  666.240
1113.388;    9.267;  -11.390;  942.180
1113.930;    6.474;  -14.540;  694.200
1114.472;    7.030;  -12.640;  606.540
1115.013;    5.670;  -11.620;  551.280
1115.555;    6.045;  -13.640;  587.100
1116.097;    4.988;  -15.380;  579.480
1116.638;    6.411;  -12.640;  684.600
1117.180;    8.168;   -9.850;  667.740
1117.721;    5.924;  -13.690;  568.580
1118.262;    6.792;  -12.680;  677.960
1118.804;    7.082;  -12.530;  637.340
1119.345;    6.007;  -11.690;  578.400
1119.886;    6.567;  -13.380;  704.040
1120.427;    5.078;  -14.070;  589.020
1120.969;    5.366;  -13.500;  597.920
1121.510;    6.022;  -11.480;  563.060
1122.051;    5.063;  -12.830;  723.580
1122.592;    4.365;  -14.290;  655.420
1123.133;    4.334;  -12.400;  547.940
1123.673;    6.348;  -10.130;  706.480
1124.214;    5.049;  -12.930;  612.460
1124.755;    5.002;  -14.380;  639.460
1125.296;    5.609;  -14.000;  627.320
1125.836;    6.483;  -10.070;  691.500
1126.377;    4.041;  -12.640;  599.660
1126.918;    3.774;  -12.960;  614.980
1127.458;    4.110;  -13.350;  622.220
1127.999;    5.505;  -10.750;  656.980
1128.539;    4.952;  -12.350;  694.240
1129.079;    3.496;  -14.860;  632.720
1129.620;    4.141;  -13.840;  558.100
1130.160;    3.778;  -12.330;  539.480
1130.700;    4.121;  -14.530;  640.840
1131.240;    3.994;  -12.530;  643.700
1131.781;    3.782;  -14.450;  619.680
1132.321;    4.849;   -9.790;  599.120
1132.861;    2.342;  -14.860;  564.200
1133.401;    2.114;  -14.290;  593.940
1133.941;    3.660;  -11.750;  626.280
1134.481;    3.110;   -9.920;  597.580
1135.020;    3.021;  -12.290;  609.160
1135.560;    2.694;  -11.650;  674.940
1136.100;    2.883;  -16.270;  501.160
1136.640;    2.703;  -10.890;  510.480
1137.179;    2.940;  -14.180;  537.960
1137.719;    2.269;  -16.250;  605.400
1138.258;    2.776;  -14.230;  587.360
1138.798;    3.600;   -9.090;  663.780
1139.337;    1.258;  -15.130;  482.840
1139.877;    1.975;  -13.680;  642.360
1140.416;    4.691;  -11.320;  878.060
1140.955;    2.385;  -10.860;  535.380
1141.494;    2.189;  -12.920;  669.280
1142.034;    1.481;  -13.930;  583.520
1142.573;    2.800;  -11.440;  646.280
1143.112;    2.334;  -12.000;  553.480
1143.651;    1.281;  -13.670;  536.480
1144.190;    2.343;  -12.730;  691.640
1144.729;    2.083;  -14.560;  607.420
1145.267;    2.317;  -11.830;  584.900
1145.806;    2.012;  -12.230;  637.040
1146.345;    0.285;  -14.130;  635.020
1146.884;    1.554;  -11.590;  622.500
1147.422;    1.375;  -12.550;  533.060
1147.961;    3.022;  -11.180;  708.460
1148.500;    1.497;  -11.510;  669.720
1149.038;    2.491;  -11.640;  632.500
1149.577;    2.517;  -10.130;  698.640
1150.115;   -1.054;  -13.970;  452.280
1150.653;    0.533;  -14.520;  607.340
1151.192;    0.788;  -12.810;  552.920
1151.730;    1.166;   -9.100;  652.560
1152.268;    0.642;  -12.220;  589.520
1152.806;    0.516;  -14.140;  571.180
1153.344;   -0.335;  -12.350;  577.640
1153.882;    1.579;   -8.980;  600.060
1154.421;   -1.612;  -15.190;  470.620
1154.958;   -0.568;  -15.210;  595.240
1155.496;    1.309;  -12.850;  645.280
1156.034;    1.122;   -9.940;  721.880
1156.572;    1.026;  -13.570;  667.060
1157.110;   -0.871;  -14.590;  473.940
1157.647;    0.596;  -13.030;  676.960
1158.185;    0.237;  -12.140;  564.320
1158.723;   -1.428;  -14.390;  509.200
1159.260;   -0.438;  -14.090;  701.700
1159.798;    0.690;  -11.920;  658.160
1160.335;    0.338;  -11.110;  631.820

