
Integration time [ms]:   3.882
Averaging Nr. [scans]: 1000
Smoothing Nr. [pixels]: 0
Data measured with spectrometer [name]: 7414430SP
Wave   ;Sample   ;Dark     ;Reference
[nm]   ;[counts] ;[counts] ;[counts] 

288.544;  140.597;    7.153;  793.890
289.143;  145.196;    8.402;  681.602
289.742;  145.836;    7.062;  828.814
290.341;  133.203;    0.191;  789.841
290.940;  123.167;    0.321;  730.702
291.538;  123.744;    3.811;  881.108
292.137;  123.122;   -3.438;  792.581
292.736;  125.371;   -2.809;  975.101
293.335;  121.368;   -5.239;  735.086
293.934;  124.469;   -4.939;  781.677
294.532;  124.637;   -2.199; 1031.958
295.131;  110.639;   -6.831;  834.394
295.730;  108.887;   -6.620;  809.588
296.328;  107.086;   -6.471;  783.442
296.927;  106.721;   -6.571;  779.652
297.525;  108.287;   -7.391;  781.236
298.124;   99.009;   -9.402;  654.009
298.722;  104.997;   -5.781;  761.933
299.321;  103.075;   -6.351;  708.597
299.919;   99.627;   -8.661;  751.918
300.518;   94.945;  -11.922;  689.338
301.116;   97.168;   -6.941;  691.381
301.715;   98.117;   -5.471;  730.222
302.313;   96.677;   -8.361;  704.943
302.911;   91.147;   -9.082;  733.830
303.509;   97.481;   -4.571;  925.627
304.108;   95.510;   -7.111;  760.383
304.706;   95.302;   -7.681;  801.664
305.304;   89.545;   -9.162;  796.707
305.902;   94.909;   -6.761;  784.484
306.500;   90.684;   -6.921;  728.200
307.098;   88.703;   -6.491;  746.560
307.696;   86.860;   -6.941;  780.432
308.294;   87.314;   -6.301;  731.359
308.892;   89.360;   -4.771;  759.769
309.490;   86.044;   -5.141;  712.161
310.088;   83.405;   -2.912;  788.444
310.686;   88.867;   -0.421;  821.749
311.284;   85.154;   -3.461;  766.040
311.882;   81.558;   -6.282;  731.225
312.480;   79.360;   -3.632;  697.167
313.078;   81.668;   -2.112;  808.331
313.675;   82.106;   -1.931;  691.600
314.273;   77.721;   -1.442;  797.837
314.871;   75.285;   -3.002;  589.829
315.468;   74.459;   -2.252;  652.090
316.066;   77.620;   -1.091;  694.427
316.664;   70.001;   -4.512;  656.351
317.261;   74.065;   -0.062;  910.128
317.859;   70.005;   -0.952;  768.735
318.456;   71.641;    0.719;  830.096
319.054;   66.656;   -4.002;  787.828
319.651;   66.135;   -4.972;  759.928
320.249;   65.320;   -1.162;  810.188
320.846;   63.049;   -2.651;  714.286
321.443;   60.245;   -3.832;  832.135
322.041;   57.891;   -4.312;  812.315
322.638;   55.389;   -3.872;  701.456
323.235;   58.454;   -4.361;  665.683
323.833;   54.944;   -4.821;  740.354
324.430;   50.439;   -6.971;  615.900
325.027;   52.088;   -4.361;  876.855
325.624;   52.954;   -5.581;  644.532
326.221;   48.563;   -6.601;  689.717
326.818;   48.525;   -7.301;  818.332
327.415;   51.228;   -6.180;  748.828
328.012;   50.843;   -5.920;  690.585
328.609;   47.747;   -8.390;  731.389
329.206;   46.562;   -6.121;  778.621
329.803;   46.724;   -5.241;  737.841
330.400;   48.564;   -7.420;  704.260
330.997;   48.676;   -5.931;  817.147
331.594;   46.155;   -5.641;  788.185
332.191;   52.922;   -6.451;  728.722
332.787;   56.615;   -4.651;  844.463
333.384;   54.182;   -5.472;  763.093
333.981;   51.100;   -6.303;  815.687
334.578;   54.611;   -5.892;  708.378
335.174;   57.131;   -4.102;  731.469
335.771;   56.584;   -8.053;  836.456
336.367;   52.666;   -7.363;  710.631
336.964;   57.316;   -6.243;  793.266
337.561;   55.947;   -5.653;  731.112
338.157;   51.464;   -7.074;  911.916
338.754;   48.506;   -5.474;  796.589
339.350;   48.375;   -5.624;  722.493
339.946;   51.224;   -5.054;  773.135
340.543;   42.046;   -6.695;  846.136
341.139;   36.819;   -6.215;  720.836
341.735;   36.483;   -5.746;  772.593
342.332;   33.817;   -7.335;  691.472
342.928;   33.931;   -4.835;  795.394
343.524;   28.993;   -4.586;  761.684
344.120;   25.500;   -3.946;  738.562
344.716;   28.799;   -4.835;  723.717
345.313;   26.359;   -5.325;  795.342
345.909;   21.618;   -6.535;  627.336
346.505;   24.329;   -4.725;  740.247
347.101;   24.955;   -4.164;  827.864
347.697;   24.871;   -5.274;  785.398
348.293;   18.242;   -7.145;  627.244
348.889;   19.624;   -4.364;  745.914
349.485;   20.123;   -6.404;  688.205
350.081;   19.086;   -7.534;  772.592
350.676;   14.397;   -6.995;  691.606
351.272;   20.059;   -3.544;  809.530
351.868;   19.892;   -5.324;  780.497
352.464;   17.114;   -7.204;  723.932
353.059;   12.865;   -6.894;  646.017
353.655;   17.096;   -3.754;  777.063
354.251;   17.876;   -6.143;  759.845
354.846;   13.004;   -9.464;  740.646
355.442;    9.994;   -7.555;  753.071
356.038;   11.439;   -5.474;  751.708
356.633;   11.921;   -5.914;  728.594
357.229;   10.458;   -8.944;  724.757
357.824;    7.470;   -6.794;  703.600
358.420;    7.512;   -5.754;  679.726
359.015;    8.733;   -5.664;  695.357
359.610;    9.238;   -8.004;  763.920
360.206;    2.906;   -8.815;  603.240
360.801;    6.335;   -8.834;  646.503
361.396;    9.557;   -6.274;  725.975
361.992;    3.328;   -8.574;  668.220
362.587;    0.938;   -9.265;  670.160
363.182;    4.216;   -5.484;  689.631
363.777;    5.054;   -5.164;  738.242
364.372;    4.159;   -6.954;  737.314
364.967;    0.338;   -7.065;  680.744
365.563;    4.448;   -5.684;  815.567
366.158;    2.666;   -6.484;  685.161
366.753;    2.044;   -8.004;  649.263
367.348;    1.049;  -10.114;  746.056
367.942;    1.034;   -7.764;  697.298
368.537;    0.054;   -4.554;  754.245
369.132;   -0.211;   -7.664;  703.428
369.727;   -4.697;   -8.905;  638.079
370.322;   -2.976;   -4.945;  580.186
370.917;   -2.544;   -7.095;  710.646
371.511;    0.619;   -6.574;  861.834
372.106;   -3.509;   -6.515;  776.964
372.701;   -6.942;   -8.225;  585.988
373.296;   -0.346;   -4.494;  863.135
373.890;   -6.027;   -7.965;  647.840
374.485;   -7.847;   -9.745;  691.199
375.079;   -3.549;   -5.554;  738.685
375.674;   -2.200;   -4.724;  812.970
376.268;   -6.516;   -8.365;  691.759
376.863;  -12.491;   -8.126;  580.327
377.457;   -5.841;   -6.045;  662.490
378.052;   -7.327;   -6.835;  764.884
378.646;   -7.882;   -9.375;  741.167
379.240;   -9.681;   -6.185;  721.176
379.835;   -7.844;   -6.135;  636.978
380.429;   -8.782;   -8.365;  562.557
381.023;  -10.092;   -7.935;  779.205
381.617;  -11.994;   -8.325;  680.106
382.212;   -9.042;   -7.405;  685.303
382.806;   -8.112;   -4.155;  760.690
383.400;  -12.306;   -8.945;  672.281
383.994;  -13.380;   -8.365;  664.870
384.588;   -9.092;   -7.824;  697.701
385.182;   -7.337;   -7.984;  726.624
385.776;   -9.701;  -10.404;  706.875
386.370;  -13.026;   -7.335;  681.968
386.964;  -11.092;   -7.485;  684.155
387.558;   -9.507;   -8.174;  598.360
388.152;  -12.836;  -10.415;  681.959
388.745;  -10.706;   -9.595;  814.707
389.339;   -9.056;   -6.454;  747.642
389.933;   -7.957;   -5.804;  695.370
390.527;   -9.110;   -6.854;  859.029
391.120;  -16.931;   -7.665;  595.318
391.714;  -12.561;   -7.245;  711.633
392.308;   -8.023;   -4.514;  780.253
392.901;  -13.298;   -7.935;  642.460
393.495;  -15.499;   -8.585;  595.414
394.089;  -12.847;   -5.245;  760.452
394.682;  -13.267;   -6.305;  697.188
395.275;  -13.745;   -9.335;  719.927
395.869;  -15.823;   -7.375;  667.314
396.462;  -13.799;   -7.055;  616.609
397.056;   -8.582;   -5.434;  776.621
397.649;  -13.615;   -9.525;  731.575
398.242;  -12.289;   -7.574;  712.645
398.836;  -10.674;   -5.134;  766.408
399.429;  -10.746;   -6.544;  631.041
400.022;  -15.647;   -9.215;  665.902
400.615;  -12.739;   -8.105;  805.609
401.208;  -10.040;   -7.614;  691.451
401.802;  -12.456;   -8.085;  699.329
402.395;  -14.461;   -9.575;  683.502
402.988;  -15.228;   -9.285;  696.627
403.581;  -11.726;   -7.514;  646.878
404.174;   -8.960;   -6.404;  686.568
404.767;  -12.774;   -8.775;  638.583
405.360;  -14.679;   -7.415;  621.445
405.953;   -9.310;   -5.624;  759.034
406.545;   -8.634;   -6.474;  725.342
407.138;  -13.633;   -8.445;  618.350
407.731;  -11.809;  -10.044;  613.303
408.324;   -8.064;   -8.484;  660.554
408.917;   -8.133;   -7.624;  681.864
409.509;  -10.529;   -8.304;  740.396
410.102;  -12.843;   -8.495;  643.948
410.695;   -6.743;   -7.824;  665.758
411.287;   -7.379;   -7.754;  599.821
411.880;   -9.375;   -9.294;  585.421
412.472;  -12.036;   -8.814;  613.092
413.065;   -8.595;   -6.674;  629.408
413.657;   -6.024;   -9.664;  576.678
414.250;   -6.215;  -10.264;  646.681
414.842;   -8.454;   -8.664;  676.353
415.434;   -5.629;   -8.584;  570.463
416.027;   -1.675;   -9.423;  652.196
416.619;   -4.481;  -10.764;  713.400
417.211;   -5.072;   -7.404;  599.352
417.804;   -0.532;   -7.383;  628.499
418.396;   -4.436;   -8.334;  607.643
418.988;   -2.007;   -9.633;  659.238
419.580;   -6.181;  -10.554;  568.276
420.172;   -3.373;   -8.683;  536.196
420.764;    1.017;   -9.713;  672.482
421.356;   -0.478;  -11.303;  636.898
421.948;   -1.463;   -8.453;  677.661
422.540;    3.601;   -5.793;  680.027
423.132;    3.229;   -7.162;  600.641
423.724;   -0.596;   -7.933;  561.267
424.316;    1.787;   -9.083;  621.345
424.908;    5.243;   -8.392;  591.517
425.500;    6.965;   -8.062;  647.978
426.092;    6.497;   -9.692;  648.268
426.683;    4.890;   -8.223;  684.836
427.275;    8.478;   -8.602;  641.471
427.867;   10.326;   -8.382;  668.948
428.458;   11.150;  -10.472;  732.344
429.050;    8.702;   -9.112;  680.749
429.642;   11.140;   -7.752;  743.124
430.233;   12.112;   -8.832;  569.356
430.825;   13.034;   -8.292;  724.809
431.416;    9.645;   -7.522;  698.241
432.008;   14.240;   -9.262;  651.723
432.599;   14.767;   -6.441;  656.073
433.190;   11.662;   -9.222;  637.670
433.782;   10.609;  -11.832;  590.395
434.373;   18.856;   -7.121;  884.765
434.964;   17.106;   -9.141;  602.920
435.556;   14.909;   -9.332;  634.537
436.147;   17.570;   -8.892;  758.490
436.738;   17.392;   -8.151;  701.099
437.329;   23.432;   -8.281;  721.723
437.920;   15.677;   -9.062;  666.688
438.511;   15.552;  -11.182;  564.526
439.103;   22.825;   -7.461;  623.998
439.694;   25.165;   -8.541;  681.583
440.285;   25.997;   -7.351;  764.432
440.876;   24.151;   -8.201;  845.738
441.466;   22.740;  -10.381;  575.162
442.057;   28.844;   -7.620;  665.814
442.648;   27.372;   -8.461;  746.255
443.239;   25.140;   -8.991;  620.477
443.830;   30.823;   -7.910;  704.958
444.421;   32.802;   -7.340;  655.474
445.011;   28.190;   -8.981;  693.619
445.602;   28.497;   -9.341;  743.126
446.193;   30.727;  -11.390;  488.117
446.783;   35.803;  -11.240;  640.397
447.374;   30.251;   -8.471;  692.759
447.964;   30.613;   -8.471;  713.770
448.555;   39.754;   -6.590;  822.742
449.145;   36.864;   -8.200;  662.853
449.736;   36.658;  -11.040;  803.179
450.326;   36.518;   -9.640;  713.626
450.917;   41.756;   -9.480;  675.324
451.507;   41.498;   -8.020;  600.661
452.097;   41.963;  -10.210;  746.267
452.688;   42.842;   -7.810;  742.160
453.278;   42.840;   -9.360;  566.840
453.868;   48.003;   -8.669;  793.550
454.458;   44.684;  -10.950;  651.141
455.048;   44.969;  -10.200;  711.783
455.639;   46.546;   -9.369;  567.096
456.229;   50.696;   -7.739;  710.694
456.819;   52.255;   -8.939;  751.158
457.409;   52.377;   -7.169;  773.993
457.999;   55.786;   -7.779;  737.505
458.589;   55.967;   -7.039;  686.606
459.179;   55.113;   -9.019;  717.658
459.769;   52.894;   -8.909;  627.099
460.358;   58.458;   -8.659;  797.262
460.948;   58.164;   -8.209;  689.503
461.538;   59.800;   -9.879;  660.677
462.128;   58.126;   -9.379;  664.934
462.717;   64.752;   -9.158;  710.326
463.307;   68.224;   -8.638;  705.846
463.897;   63.247;   -8.869;  656.942
464.486;   63.134;   -7.409;  837.128
465.076;   67.595;   -9.618;  733.776
465.666;   71.309;   -7.578;  652.900
466.255;   68.928;   -9.369;  785.651
466.845;   67.354;  -10.049;  666.749
467.434;   71.145;   -8.168;  725.873
468.023;   72.283;   -9.188;  658.357
468.613;   70.038;   -9.849;  713.946
469.202;   73.541;  -12.958;  646.507
469.791;   78.616;   -9.488;  737.811
470.381;   80.911;   -6.468;  742.813
470.970;   79.296;  -10.248;  711.099
471.559;   79.423;  -11.428;  733.291
472.148;   82.837;   -9.738;  675.737
472.738;   86.126;   -7.877;  765.466
473.327;   85.587;  -11.868;  637.529
473.916;   84.377;   -8.578;  737.446
474.505;   89.615;  -11.137;  751.703
475.094;   92.939;   -9.407;  806.570
475.683;   91.520;   -9.977;  797.699
476.272;   91.994;  -10.807;  730.632
476.861;   94.810;  -11.017;  706.754
477.449;  102.521;  -10.316;  728.487
478.038;   96.668;  -10.187;  692.513
478.627;   97.658;  -12.458;  714.852
479.216;  105.262;  -10.127;  769.441
479.805;  107.574;   -6.256;  783.375
480.393;  106.863;   -8.737; 1008.945
480.982;  105.954;   -9.087;  874.501
481.571;  112.363;   -7.806;  858.333
482.159;  113.737;  -10.596;  705.386
482.748;  112.564;  -11.507;  821.385
483.336;  117.228;   -8.366;  858.209
483.925;  117.692;   -7.497;  774.373
484.513;  125.110;   -8.326;  758.962
485.102;  121.413;  -10.277;  810.965
485.690;  130.031;   -8.256; 1011.050
486.278;  132.441;   -7.146;  979.329
486.867;  133.317;   -7.986;  809.662
487.455;  135.140;   -9.926;  898.229
488.043;  135.837;  -10.026;  748.361
488.631;  146.086;   -7.226; 1005.079
489.220;  150.163;   -8.696;  908.626
489.808;  149.541;  -12.276;  741.415
490.396;  157.818;   -9.386;  914.645
490.984;  162.907;   -8.506;  830.161
491.572;  174.503;   -8.226;  940.315
492.160;  179.914;   -9.836;  919.081
492.748;  191.250;  -10.316;  884.341
493.336;  211.642;   -7.146; 1019.693
493.924;  237.387;   -7.965;  958.077
494.512;  267.919;  -10.316; 1066.638
495.100;  305.336;  -10.186; 1103.280
495.687;  366.721;   -7.805; 1206.373
496.275;  434.416;   -9.686; 1150.796
496.863;  523.408;  -11.566; 1281.171
497.451;  613.217;  -11.406; 1386.805
498.038;  725.200;   -8.235; 1556.729
498.626;  860.981;   -7.485; 1741.407
499.214; 1039.551;   -8.646; 2016.609
499.801; 1309.987;   -9.936; 2220.633
500.389; 1538.728;   -8.056; 2312.494
500.976; 1705.263;   -6.166; 2744.849
501.564; 1912.312;   -9.126; 3148.565
502.151; 2227.305;  -12.456; 3515.999
502.738; 2646.492;  -10.056; 3971.274
503.326; 3100.328;  -10.605; 4403.796
503.913; 3522.278;  -10.576; 5161.749
504.500; 4033.502;   -9.056; 5986.420
505.088; 4583.137;  -10.136; 6381.201
505.675; 5318.983;   -9.075; 6925.547
506.262; 5799.801;  -11.346; 7619.060
506.849; 6732.593;   -9.376; 8733.969
507.436; 7606.412;   -7.365; 9790.121
508.023; 7629.584;   -8.686; 9985.472
508.610; 7833.962;   -8.846;10434.618
509.197; 8671.361;   -9.077;11198.435
509.784;10271.061;  -10.246;12391.194
510.371;11611.456;   -9.825;13603.713
510.958;12723.269;  -10.896;14426.586
511.545;13444.979;   -9.006;15243.775
512.132;13275.476;   -8.765;15945.876
512.719;13949.765;   -8.286;16340.369
513.305;16183.194;   -9.256;18011.766
513.892;18474.547;  -11.106;19754.971
514.479;21736.395;   -8.576;20967.805
515.066;24842.766;   -9.046;22299.793
515.652;25661.760;  -10.676;22908.660
516.239;26307.869;  -10.166;23798.875
516.825;25690.762;  -11.266;25567.275
517.412;24998.770;   -7.446;28154.959
517.998;24577.557;  -10.916;28344.111
518.585;23989.422;   -9.166;27134.219
519.171;23241.594;  -10.135;27268.576
519.758;24408.939;   -8.806;28964.129
520.344;27707.408;   -6.716;30664.494
520.930;30623.889;  -10.166;32550.605
521.516;30821.137;   -9.615;35422.895
522.103;33520.199;   -8.656;38280.004
522.689;34535.602;   -9.646;37835.117
523.275;33643.023;  -10.786;37288.613
523.861;36179.914;   -9.266;37281.395
524.447;37133.859;   -8.285;37846.949
525.033;36616.301;   -9.426;38321.949
525.619;36823.445;   -9.836;38579.285
526.205;39408.055;   -8.136;40622.875
526.791;40082.160;   -9.986;42258.836
527.377;39974.707;   -8.236;42966.902
527.963;38984.406;  -12.117;42018.949
528.549;37310.098;   -8.376;42476.828
529.135;38271.109;   -8.696;41854.852
529.721;40885.105;   -9.686;41237.711
530.306;43418.895;   -8.616;41259.445
530.892;46266.773;   -9.396;41506.047
531.478;47289.848;   -9.926;43559.613
532.063;47605.859;  -10.236;47695.563
532.649;48762.832;   -8.257;50808.324
533.235;49957.926;  -11.476;51787.500
533.820;49921.676;   -8.156;52145.035
534.406;51059.250;  -12.257;51133.488
534.991;47844.531;   -8.686;49996.805
535.576;44890.402;   -9.426;48882.852
536.162;44623.059;   -8.436;46942.285
536.747;45161.703;  -10.957;45711.746
537.333;44490.516;  -13.147;48510.180
537.918;46597.918;   -9.027;50439.891
538.503;49041.449;   -8.256;50863.711
539.088;50402.688;  -10.576;50906.922
539.673;51311.223;  -10.907;52621.965
540.259;52784.703;   -9.126;52368.094
540.844;52236.109;   -9.026;50879.109
541.429;52699.070;   -9.597;52077.777
542.014;55626.285;  -11.447;52716.695
542.599;56947.828;   -9.236;52363.281
543.184;55993.586;  -12.267;53187.137
543.769;56649.129;  -10.367;54697.605
544.354;56622.645;  -10.887;53913.914
544.938;50164.316;  -11.687;49680.164
545.523;45348.254;   -8.286;47386.277
546.108;46134.590;   -9.317;49151.949
546.693;47204.582;  -10.187;51384.637
547.278;45121.367;   -9.926;51853.254
547.862;44331.926;   -9.196;51173.750
548.447;43975.918;   -9.657;51691.395
549.031;45934.270;   -9.127;52456.703
549.616;48545.695;  -10.836;52714.516
550.201;49679.785;   -8.507;52414.598
550.785;50780.961;  -10.537;52355.059
551.370;54248.750;  -11.727;54589.453
551.954;53513.516;   -9.457;58267.348
552.538;51571.535;   -8.147;59062.176
553.123;50896.570;   -9.397;58115.285
553.707;52066.836;   -9.558;56556.285
554.291;51450.746;   -9.417;56201.668
554.876;53579.930;   -7.627;55335.762
555.460;51762.684;  -10.457;54155.703
556.044;46976.070;  -10.078;53721.484
556.628;46156.582;   -9.407;53731.016
557.212;44983.113;   -7.957;54312.531
557.796;44485.895;  -11.327;53797.773
558.380;48807.156;  -10.868;56145.984
558.964;48822.668;   -9.637;57277.930
559.548;47215.551;   -8.807;56459.641
560.132;49537.172;  -10.187;54434.543
560.716;49943.094;   -9.868;54800.617
561.300;51475.855;  -10.217;57606.945
561.884;51733.574;   -4.947;58972.445
562.467;49093.676;   -9.588;57327.570
563.051;44602.367;  -11.138;54962.434
563.635;44702.621;   -9.358;52594.473
564.219;45212.699;   -9.797;50610.410
564.802;44158.148;   -9.918;49551.180
565.386;42977.543;  -10.838;48370.953
565.969;42161.859;   -8.037;48178.871
566.553;40996.953;   -5.667;49957.305
567.136;41260.484;   -8.258;50369.594
567.720;41604.242;  -11.278;49492.004
568.303;39547.480;   -9.028;50616.352
568.887;38238.688;   -7.508;50727.148
569.470;37184.137;  -11.068;51698.379
570.053;39229.941;  -10.028;52122.078
570.637;39394.211;  -11.077;52536.438
571.220;40913.000;   -8.747;51186.098
571.803;43287.074;   -8.868;51032.762
572.386;44526.770;  -10.608;49609.887
572.969;43830.625;  -10.548;48285.926
573.552;41116.051;   -7.898;47624.285
574.135;40555.246;   -9.918;45498.641
574.718;36038.734;  -10.328;41970.434
575.301;33155.313;   -9.548;41447.137
575.884;30271.887;   -8.768;40923.836
576.467;35777.387;   -9.858;45267.723
577.050;36575.523;  -11.018;48175.543
577.633;38104.648;  -10.048;47729.328
578.216;37084.934;  -10.268;47579.793
578.799;34902.512;  -11.808;47820.996
579.381;33915.848;   -7.338;48115.551
579.964;35766.672;   -9.728;47333.766
580.547;36423.477;   -8.928;46668.969
581.129;36449.527;   -9.149;44466.141
581.712;37990.367;  -11.359;44164.922
582.294;37700.781;  -10.738;46477.855
582.877;35671.836;   -8.788;48244.254
583.459;34644.094;   -9.859;47437.895
584.042;35862.660;   -9.649;46943.219
584.624;36259.398;  -10.529;46792.227
585.206;34695.199;  -10.298;46557.250
585.789;32943.563;  -11.029;45793.773
586.371;33144.422;   -9.359;43836.391
586.953;33789.578;   -8.799;42972.492
587.536;33585.457;   -8.928;42487.211
588.118;32948.219;   -9.180;42086.414
588.700;31470.313;  -10.519;43389.930
589.282;30481.072;   -8.098;43646.039
589.864;30482.348;   -8.139;43438.109
590.446;32155.041;  -10.509;43151.926
591.028;34955.723;  -11.119;42781.867
591.610;35880.723;  -10.019;42839.098
592.192;34182.184;   -8.838;42820.402
592.774;31759.590;  -11.549;40724.277
593.356;29298.832;  -11.609;39874.789
593.937;29779.945;  -10.019;39980.648
594.519;32424.127;   -7.839;42069.633
595.101;33724.184;  -10.779;42976.031
595.683;34899.879;  -10.049;44084.441
596.264;35034.363;   -9.969;43478.797
596.846;33615.199;   -9.699;43803.672
597.427;32755.805;  -10.970;42986.934
598.009;33824.637;  -13.090;42832.219
598.591;33935.934;   -9.509;42580.086
599.172;32196.346;   -9.019;43061.805
599.753;29852.912;  -13.310;41691.469
600.335;30253.279;  -11.010;40692.520
600.916;31023.170;  -10.309;39982.422
601.498;31249.900;   -8.209;40318.617
602.079;31351.770;  -11.440;40670.609
602.660;32773.863;   -8.690;41450.898
603.241;34176.559;  -12.759;41137.738
603.823;32259.521;  -10.409;38868.797
604.404;32104.324;  -11.790;38182.785
604.985;30780.402;  -10.280;38078.047
605.566;31649.486;   -8.059;38056.633
606.147;32097.738;   -8.960;37020.418
606.728;31809.492;  -10.710;37883.359
607.309;30895.121;  -12.760;38748.273
607.890;28647.621;   -9.959;38850.230
608.471;27180.828;   -9.780;37457.918
609.051;28975.480;   -8.940;36066.457
609.632;31793.189;  -12.070;35991.074
610.213;33728.477;   -9.610;37402.641
610.794;33797.797;   -8.750;38383.363
611.374;32740.857;  -11.100;40562.387
611.955;33057.258;  -12.200;38533.727
612.536;32713.260;  -10.410;36951.789
613.116;32648.293;  -10.010;37197.891
613.697;31668.729;  -10.480;38411.125
614.277;30202.740;  -12.751;38673.938
614.858;30203.164;  -11.600;37075.863
615.438;29701.420;   -8.190;35092.906
616.019;28238.539;   -8.941;33666.301
616.599;29313.766;  -13.540;34189.023
617.179;29927.367;  -10.890;36952.047
617.760;30631.592;   -7.610;39582.574
618.340;29978.520;  -14.441;38943.977
618.920;29351.627;   -9.180;37594.156
619.500;29601.584;  -11.881;37866.938
620.080;31725.875;   -9.870;37869.043
620.660;31574.346;  -13.211;36868.617
621.241;30412.223;  -11.921;36352.309
621.821;29206.793;  -10.271;35459.520
622.401;28959.174;   -8.200;35207.414
622.980;30046.496;  -11.141;35980.422
623.560;31570.201;  -14.321;37351.328
624.140;31204.230;   -9.360;34388.582
624.720;27500.855;   -7.481;32368.764
625.300;24367.008;  -12.730;32638.629
625.880;29309.201;  -11.441;34599.035
626.459;32892.594;  -10.971;36831.738
627.039;34538.703;   -9.011;38299.098
627.619;34357.160;   -8.521;38289.574
628.198;35157.297;   -9.861;37220.695
628.778;34900.730;   -8.841;37632.563
629.357;33752.883;   -9.891;38003.012
629.937;31474.209;  -11.871;38402.039
630.516;30469.574;  -10.641;37868.801
631.096;32923.984;  -11.391;35760.410
631.675;34437.910;   -6.622;35225.219
632.254;32165.371;  -13.002;35130.289
632.834;30557.500;  -11.622;35794.570
633.413;32180.203;   -8.321;35788.922
633.992;30308.895;   -7.732;34532.863
634.571;29939.184;  -10.992;33590.113
635.151;31259.787;  -10.422;34943.863
635.730;31643.828;  -11.511;35352.523
636.309;30805.420;   -7.901;35366.605
636.888;30057.930;  -11.452;36165.637
637.467;29883.912;  -10.672;37515.902
638.046;29940.813;   -9.301;39288.695
638.625;30925.375;  -11.452;38279.699
639.204;32312.287;  -12.262;37741.598
639.782;31848.867;  -11.892;38364.551
640.361;30657.938;  -11.411;36740.621
640.940;27459.346;  -11.501;34950.082
641.519;27889.314;  -10.921;34137.398
642.097;31135.027;  -10.101;35654.258
642.676;31574.512;  -10.821;35637.957
643.255;34159.844;   -8.631;36567.074
643.833;36274.348;  -11.411;37809.434
644.412;37331.184;  -12.021;37337.293
644.990;37023.035;  -12.271;37018.531
645.569;35938.504;   -9.741;36518.469
646.147;34592.566;   -9.051;36186.430
646.726;32932.770;  -13.861;36267.688
647.304;33015.578;   -9.461;36647.625
647.882;32033.295;  -13.171;39286.742
648.461;32093.002;  -11.911;39157.703
649.039;32506.146;   -9.541;35412.883
649.617;34160.809;   -8.901;34744.918
650.195;32128.277;   -8.591;35403.098
650.773;30734.049;  -13.031;35053.797
651.352;29419.592;  -12.211;33756.816
651.930;26533.381;  -11.361;31868.773
652.508;23830.121;   -8.601;33121.551
653.086;27421.402;   -9.991;33564.793
653.663;31898.408;  -11.931;34054.668
654.241;33874.160;  -10.821;35693.309
654.819;34366.332;   -9.341;36422.906
655.397;32040.293;  -10.851;38213.484
655.975;30400.723;  -11.461;39507.625
656.553;31257.648;   -8.841;39498.223
657.130;30681.787;  -10.371;40395.480
657.708;29530.527;  -11.071;39242.020
658.286;29426.420;  -11.141;38920.020
658.863;31839.813;  -10.861;40202.898
659.441;37448.313;  -11.181;39677.938
660.018;38706.199;  -10.851;40413.355
660.596;37705.012;  -12.571;39931.414
661.173;38533.055;  -12.141;39604.531
661.750;35257.320;  -11.571;39700.070
662.328;31842.479;  -10.780;39292.809
662.905;30451.227;  -10.750;38235.648
663.482;27483.799;  -11.320;36212.305
664.060;26529.623;  -10.160;35944.945
664.637;32332.508;  -13.120;35170.785
665.214;34858.973;  -11.500;34197.523
665.791;32555.326;  -12.430;34549.520
666.368;30056.605;   -9.840;35118.578
666.945;28973.914;  -11.290;36019.418
667.522;29234.613;  -13.540;36048.438
668.099;30088.834;  -10.250;36243.914
668.676;29230.504;  -11.270;35958.875
669.253;28565.957;   -8.210;37384.730
669.830;27248.158;   -9.710;36779.629
670.407;26803.406;   -9.700;35231.289
670.984;26739.457;   -9.190;35544.270
671.560;25622.000;   -9.560;35466.867
672.137;25322.725;  -11.820;34280.863
672.714;28121.559;  -12.460;34632.863
673.290;32277.783;  -10.940;35135.422
673.867;33399.133;  -10.510;36114.480
674.443;31574.506;  -12.110;36152.859
675.020;31826.926;  -11.760;35327.238
675.596;32539.385;   -9.380;35795.176
676.173;31586.516;  -11.120;35430.355
676.749;30419.021;  -13.390;33549.516
677.326;29203.861;  -12.600;32210.012
677.902;28179.516;  -10.830;32068.871
678.478;27583.225;  -12.400;32583.891
679.054;29024.311;   -8.610;32088.928
679.631;30342.000;  -11.640;30978.848
680.207;31135.523;   -8.140;33160.887
680.783;31018.510;  -12.300;35570.363
681.359;29694.570;  -10.910;36125.184
681.935;28941.977;  -11.040;35240.922
682.511;29286.479;  -11.130;34429.961
683.087;29507.926;  -11.080;34463.680
683.663;31309.900;  -10.530;34648.898
684.239;31630.348;  -12.120;34546.457
684.815;30306.592;   -8.870;35586.375
685.390;28831.998;   -8.940;35821.895
685.966;27794.027;  -12.109;35085.871
686.542;26602.426;  -13.539;34198.230
687.118;26065.049;  -10.379;32847.707
687.693;26906.938;  -10.189;32794.027
688.269;26173.494;  -12.939;33072.367
688.844;25026.031;   -8.679;33141.664
689.420;25935.537;  -10.919;33965.742
689.995;26426.594;   -7.489;34655.523
690.571;25701.162;  -12.199;33576.742
691.146;25933.701;   -8.979;32657.219
691.722;27669.982;   -9.119;32526.979
692.297;27720.639;  -10.519;33014.617
692.872;27654.900;  -10.629;34012.254
693.448;27784.699;  -12.119;34237.434
694.023;27103.529;   -8.219;34142.672
694.598;25297.957;  -13.209;34132.031
695.173;24094.557;  -11.879;34205.250
695.748;24752.863;  -12.039;32882.488
696.323;25700.939;  -11.779;32864.906
696.898;26038.932;  -10.219;33170.004
697.473;27489.479;  -13.639;32432.984
698.048;28451.574;  -11.239;31649.303
698.623;30660.867;  -10.859;30778.141
699.198;32598.172;  -13.379;31140.119
699.773;32796.840;  -13.409;31764.299
700.348;31738.078;  -12.329;31780.816
700.922;31662.541;   -8.749;32046.375
701.497;31646.254;  -12.449;32603.574
702.072;29962.176;   -8.879;34799.871
702.646;28047.848;  -10.719;35793.172
703.221;27471.375;   -8.469;35201.590
703.795;28074.012;  -11.389;34764.527
704.370;26936.389;  -12.499;34307.367
704.944;25771.371;  -11.449;33509.887
705.519;25703.469;  -10.659;31388.584
706.093;25028.441;  -12.909;31340.104
706.668;25366.980;  -13.509;32630.281
707.242;26347.830;  -10.049;32728.779
707.816;26240.453;  -10.629;32947.238
708.390;25311.555;  -11.829;33277.855
708.965;24131.654;  -11.159;33834.336
709.539;24524.605;  -11.069;33709.273
710.113;24090.822;  -10.908;33044.313
710.687;22235.752;   -9.488;31953.992
711.261;22753.996;  -13.068;30505.949
711.835;25471.902;  -12.748;30262.369
712.409;27540.912;  -10.678;31254.447
712.983;26775.189;  -11.658;32754.986
713.557;26140.754;  -13.718;34018.824
714.131;26822.324;  -13.388;34579.625
714.704;29393.473;   -9.818;33890.262
715.278;31442.670;  -11.818;33531.102
715.852;31715.457;  -11.328;33601.660
716.425;32029.576;   -9.118;33515.117
716.999;32008.459;  -10.188;33185.555
717.573;31205.783;   -9.808;33905.996
718.146;30538.309;  -11.478;35199.293
718.720;29310.568;  -10.998;35060.551
719.293;28446.730;   -9.508;34973.230
719.867;29396.566;  -12.138;36394.449
720.440;29041.971;  -11.288;36663.008
721.013;31326.498;  -11.428;35102.426
721.587;32713.328;  -11.698;33985.266
722.160;33990.785;  -11.608;33524.965
722.733;33945.672;  -11.428;32987.043
723.306;30720.203;  -12.518;33066.301
723.880;29318.369;   -7.408;33399.500
724.453;29155.359;  -11.048;33468.297
725.026;27868.508;  -11.678;33816.637
725.599;26413.146;  -10.978;32797.996
726.172;24706.092;   -8.838;33187.434
726.745;24702.223;  -11.438;35136.613
727.318;26294.705;   -9.828;35751.730
727.891;26914.088;  -10.868;35890.430
728.463;26610.494;  -11.348;34822.090
729.036;25398.883;  -11.608;32895.086
729.609;25171.805;  -14.738;31823.225
730.182;25581.844;   -8.448;31445.283
730.754;26405.207;  -11.228;32373.223
731.327;26676.082;  -12.018;33676.820
731.900;28361.662;  -13.748;33417.000
732.472;29307.473;  -10.928;31978.498
733.045;28795.383;   -9.478;30368.777
733.617;27213.514;  -12.967;30574.215
734.190;26673.090;  -11.707;31280.975
734.762;25976.994;  -11.067;31674.412
735.334;24905.252;  -10.587;31247.291
735.907;23844.609;  -11.947;29876.211
736.479;24303.227;  -11.667;29808.488
737.051;25945.479;  -10.187;30233.547
737.623;26589.443;   -6.887;31469.086
738.195;28013.088;  -12.117;31784.225
738.768;30027.131;  -14.077;32120.523
739.340;29336.914;  -12.207;32094.342
739.912;26951.252;   -8.977;31312.680
740.484;25764.838;  -11.017;31946.238
741.056;27718.646;  -13.517;32984.059
741.628;29982.313;  -11.507;33897.715
742.199;30239.383;   -7.597;33213.016
742.771;29816.348;  -12.227;31369.113
743.343;28537.756;  -12.427;31865.473
743.915;26891.150;   -9.827;32388.631
744.487;25825.574;  -10.007;31079.568
745.058;24773.629;  -11.887;30570.107
745.630;23622.602;  -10.787;29970.127
746.201;23160.383;  -10.887;29186.766
746.773;24664.961;   -9.707;28805.723
747.344;25826.740;  -11.137;29591.223
747.916;25314.084;  -11.887;31412.201
748.487;24671.721;   -9.707;32194.898
749.059;24141.328;  -10.027;32533.719
749.630;23397.475;  -11.787;32158.518
750.201;22121.676;  -12.767;30855.395
750.773;20385.299;  -11.497;28622.555
751.344;21321.205;   -9.937;28405.732
751.915;21200.846;  -11.567;28461.551
752.486;19266.977;  -13.267;27842.850
753.057;18285.047;  -10.627;27845.008
753.628;18286.980;  -11.657;27728.107
754.199;20664.502;  -12.097;27381.086
754.770;22187.238;  -11.447;25882.203
755.341;22398.984;  -11.997;25886.184
755.912;20575.693;  -10.207;26050.861
756.483;18831.693;  -10.937;26798.779
757.054;19355.533;  -11.527;27048.238
757.625;19585.139;  -12.886;26294.838
758.195;19126.168;  -11.226;26142.076
758.766;19348.922;  -12.366;26392.234
759.337;18172.059;  -11.946;26334.594
759.907;17896.594;  -13.856;27579.652
760.478;19370.316;   -9.606;28352.770
761.048;20836.117;  -11.606;27325.088
761.619;21304.104;  -11.036;26460.428
762.189;19604.441;  -12.206;26029.826
762.760;18941.365;   -9.666;26430.145
763.330;19920.184;   -9.796;26670.902
763.900;19636.914;  -10.896;26603.021
764.471;19176.662;  -11.726;25542.740
765.041;20025.354;   -9.656;24358.459
765.611;20513.104;  -11.276;23991.297
766.181;19932.459;  -12.116;24470.236
766.751;19685.166;  -12.376;24845.975
767.321;19980.842;  -11.626;24533.633
767.891;19722.223;  -10.426;24916.492
768.461;18028.260;  -13.456;24776.771
769.031;15602.418;  -11.616;24757.988
769.601;14696.092;  -11.356;24181.088
770.171;14667.993;  -11.586;23670.387
770.741;15265.343;  -12.696;22960.045
771.311;16875.959;  -10.226;22917.523
771.880;17462.234;  -11.146;23562.941
772.450;17877.531;  -11.716;24216.500
773.020;17743.740;  -13.226;24140.398
773.589;16667.809;  -12.586;24414.857
774.159;16286.536;  -10.246;23858.717
774.729;15778.687;  -11.586;22942.135
775.298;15585.684;  -15.926;22324.033
775.867;15573.751;  -10.426;21140.313
776.437;15095.181;  -11.416;20838.092
777.006;13289.857;  -12.766;20599.510
777.576;13420.795;  -13.666;20508.809
778.145;14834.693;  -10.066;20732.947
778.714;15012.635;  -10.276;21062.465
779.283;14479.907;  -12.086;20949.664
779.853;14333.531;  -14.016;20508.623
780.422;14166.350;  -12.376;20649.082
780.991;13510.805;   -9.246;21527.520
781.560;13323.613;   -9.775;22632.658
782.129;13649.978;  -12.495;23048.277
782.698;13685.390;  -11.775;23438.555
783.267;13608.992;  -10.065;23267.734
783.836;14391.599;  -12.455;22415.133
784.404;14786.201;  -13.385;20443.152
784.973;14795.035;  -11.045;19699.150
785.542;14418.895;   -9.505;19763.828
786.111;13679.202;   -9.385;20341.408
786.679;13444.382;  -13.475;20207.967
787.248;13427.207;  -11.245;19516.465
787.817;12036.962;  -12.485;18900.363
788.385;10619.491;  -11.165;17879.121
788.954;11060.086;  -11.755;17658.301
789.522;11971.235;   -9.625;17788.879
790.090;12257.556;   -9.665;18118.277
790.659;11592.281;   -9.295;18338.736
791.227;11625.634;  -12.175;18508.615
791.795;12431.591;  -12.145;17898.254
792.364;12319.112;  -11.575;17295.133
792.932;11686.753;  -11.085;16822.051
793.500;11243.203;  -11.345;17040.148
794.068;10903.945;  -12.565;17179.787
794.636;11527.166;  -12.105;16664.246
795.204;12556.124;  -11.995;16524.545
795.772;12495.207;  -12.615;17274.564
796.340;11963.036;  -12.425;17891.002
796.908;11570.052;  -11.455;17648.561
797.476;10792.414;  -12.165;17064.080
798.044; 9762.446;  -15.795;16672.777
798.612; 9307.996;  -10.985;17023.996
799.180; 9889.618;  -12.055;16561.615
799.747;10399.339;  -12.525;15962.773
800.315; 9566.813;  -14.765;15296.992
800.883; 8410.209;  -12.435;14801.771
801.450; 8309.575;  -11.295;14534.430
802.018; 8699.907;  -11.185;14173.248
802.585; 8800.522;  -11.625;14029.547
803.153; 8084.190;  -10.665;13836.846
803.720; 7660.389;  -10.275;13567.324
804.287; 7829.685;  -12.865;13360.622
804.855; 8070.098;  -12.324;13681.981
805.422; 8063.960;  -11.574;13536.560
805.989; 7743.149;  -11.004;13355.958
806.556; 7930.139;  -12.214;13747.896
807.124; 8271.768;  -13.304;13987.376
807.691; 8155.899;  -12.034;14038.674
808.258; 7957.563;  -11.014;14120.152
808.825; 7851.746;  -11.804;13860.111
809.392; 7638.575;  -11.544;13268.790
809.959; 7482.223;  -14.954;12680.389
810.526; 7772.603;  -10.214;12427.308
811.093; 7833.104;  -10.754;12030.105
811.659; 7403.057;  -12.194;11653.664
812.226; 6643.015;   -9.194;11637.183
812.793; 6479.704;   -9.644;11611.521
813.360; 7161.495;  -11.544;11885.181
813.926; 8101.405;  -12.814;12770.539
814.493; 8123.380;  -11.524;12677.638
815.060; 7900.398;  -12.254;11974.336
815.626; 7681.281;  -12.114;11594.715
816.193; 7177.346;  -11.994;11579.474
816.759; 6678.278;  -11.464;11666.972
817.325; 6253.581;  -10.444;11325.530
817.892; 5982.021;  -11.124;11105.369
818.458; 6018.585;  -11.864;10843.928
819.024; 6529.930;  -10.634;10714.406
819.591; 6702.583;  -10.554;10469.165
820.157; 6748.891;  -13.334;10235.523
820.723; 6766.906;  -13.044;10847.563
821.289; 6665.712;   -9.664;11040.980
821.855; 6784.160;  -10.994;10357.100
822.421; 7039.989;  -11.784; 9978.918
822.987; 7197.323;  -12.554; 9754.177
823.553; 7206.148;  -12.554;10065.755
824.119; 6831.918;   -8.544;10036.294
824.685; 6052.265;  -12.144;10029.192
825.251; 5699.612;  -12.754;10199.230
825.816; 5375.515;  -11.354; 9820.189
826.382; 4989.146;  -11.004; 9297.248
826.948; 4960.265;  -11.004; 9381.347
827.513; 5130.143;  -12.474; 9450.726
828.079; 5219.533;  -13.084; 9472.444
828.645; 5359.510;  -10.813; 9292.643
829.210; 5231.809;  -11.593; 9065.341
829.776; 5282.899;  -12.633; 9132.620
830.341; 5550.891;  -10.473; 9092.878
830.906; 5409.977;   -8.763; 9078.557
831.472; 4739.100;  -13.453; 8534.535
832.037; 3857.048;  -12.173; 8677.874
832.602; 3598.888;  -14.093; 8628.692
833.167; 3959.302;  -13.593; 8879.031
833.733; 4514.458;  -10.793; 9189.790
834.298; 4853.664;  -14.783; 9052.608
834.863; 4493.583;  -11.023; 8895.087
835.428; 4188.369;  -11.113; 8824.266
835.993; 4517.399;   -9.983; 8845.385
836.558; 4757.060;  -13.003; 8888.563
837.123; 4647.468;  -10.733; 8966.582
837.688; 4304.327;   -9.683; 8617.860
838.253; 4100.173;  -12.253; 8590.699
838.817; 4273.678;  -11.643; 8443.797
839.382; 4450.803;  -11.953; 8799.356
839.947; 4410.435;  -11.443; 8810.595
840.511; 4292.929;  -10.843; 8796.394
841.076; 4310.438;  -13.533; 8347.231
841.641; 4408.292;  -11.743; 8224.330
842.205; 4242.731;  -10.013; 8223.349
842.770; 4108.773;  -11.023; 8622.107
843.334; 4129.183;  -14.273; 8410.386
843.898; 4313.253;  -11.323; 8337.465
844.463; 4677.002;  -10.263; 8506.283
845.027; 4841.827;  -10.353; 8280.962
845.591; 4773.319;  -12.163; 8231.141
846.156; 4584.537;  -12.263; 7969.179
846.720; 4582.278;  -11.553; 7768.278
847.284; 4479.848;  -12.393; 7630.957
847.848; 3863.930;  -12.623; 7472.395
848.412; 3320.092;  -11.863; 7437.394
848.976; 3227.662;  -10.203; 7674.592
849.540; 3326.757;  -10.603; 7836.011
850.104; 3462.944;  -12.423; 7913.669
850.668; 3534.219;  -14.613; 7694.508
851.232; 3472.926;  -12.873; 7756.887
851.796; 3505.410;  -14.192; 7926.545
852.359; 3646.456;  -13.652; 7827.844
852.923; 3616.610;  -11.402; 7641.163
853.487; 3489.866;  -12.022; 7342.501
854.050; 3363.170;  -15.202; 7042.820
854.614; 3369.580;  -14.592; 7151.338
855.177; 3340.482;  -12.572; 7105.077
855.741; 3359.477;   -9.932; 6989.675
856.304; 3504.695;  -12.192; 6596.634
856.868; 3537.097;  -13.462; 6356.272
857.431; 3497.263;  -11.542; 6468.571
857.995; 3520.970;  -12.062; 6373.210
858.558; 3287.294;  -11.142; 6324.448
859.121; 2999.977;  -11.742; 6408.327
859.684; 2849.272;  -10.332; 6347.886
860.247; 2843.659;  -11.962; 6321.264
860.810; 2975.357;  -12.332; 6301.903
861.374; 3001.696;  -10.292; 6607.881
861.937; 2922.176;  -12.062; 6408.200
862.500; 2994.388;  -11.702; 6572.639
863.062; 3160.566;  -13.852; 6387.297
863.625; 3237.430;  -12.972; 6190.836
864.188; 3135.449;  -10.292; 5807.254
864.751; 3007.642;  -12.382; 5682.413
865.314; 2826.821;  -13.232; 5547.492
865.876; 2618.486;  -12.772; 5500.150
866.439; 2455.073;  -11.952; 5415.909
867.002; 2441.890;   -9.332; 5501.567
867.564; 2664.566;  -11.712; 5413.946
868.127; 2838.404;  -12.012; 5160.325
868.689; 2613.908;  -11.882; 5133.183
869.252; 2300.149;  -11.572; 5252.382
869.814; 2177.004;  -10.692; 5297.141
870.377; 2255.803;  -12.392; 5390.919
870.939; 2368.921;  -10.582; 5599.898
871.501; 2385.317;  -12.782; 5248.336
872.063; 2333.878;  -15.612; 4854.235
872.626; 2317.716;  -13.922; 4817.074
873.188; 2210.546;  -13.832; 4987.732
873.750; 2085.279;  -10.962; 4868.651
874.312; 2134.897;  -11.022; 4779.330
874.874; 2177.954;  -13.152; 4866.348
875.436; 2147.552;  -13.401; 4718.887
875.998; 2091.579;   -8.891; 4660.005
876.560; 2021.761;  -12.591; 4462.964
877.122; 1944.551;  -14.531; 4145.042
877.683; 1860.393;  -10.781; 4056.481
878.245; 1788.950;  -14.281; 3950.740
878.807; 1778.333;  -10.311; 4058.958
879.369; 1721.940;  -13.201; 3954.677
879.930; 1680.684;  -12.061; 3941.495
880.492; 1691.119;   -9.181; 4067.014
881.053; 1714.562;  -12.051; 3859.633
881.615; 1683.872;  -11.501; 3776.071
882.176; 1590.390;  -12.221; 3734.750
882.738; 1461.094;   -8.931; 3678.489
883.299; 1350.179;  -13.571; 3405.407
883.860; 1354.312;  -12.331; 3351.106
884.422; 1306.836;  -10.201; 3394.044
884.983; 1171.524;  -12.521; 3166.443
885.544; 1066.640;  -12.291; 3189.802
886.105; 1038.841;  -12.991; 3160.360
886.666; 1042.274;  -12.901; 3093.059
887.227; 1021.178;  -12.061; 2941.957
887.788;  977.730;  -11.641; 2974.836
888.349;  931.394;  -14.691; 2721.214
888.910;  882.572;   -9.681; 2696.493
889.471;  862.247;   -9.971; 2560.172
890.032;  847.287;  -13.151; 2558.190
890.593;  819.275;  -12.051; 2567.669
891.153;  788.143;  -12.841; 2460.307
891.714;  767.923;  -13.561; 2372.046
892.275;  751.043;  -12.401; 2309.505
892.835;  719.484;  -13.191; 2382.543
893.396;  677.151;  -12.551; 2295.502
893.956;  663.692;  -11.981; 2162.420
894.517;  667.108;  -12.221; 2125.439
895.077;  637.362;  -12.021; 2086.978
895.638;  568.848;  -10.891; 2126.316
896.198;  508.278;  -13.171; 1838.275
896.758;  468.875;  -11.891; 1892.813
897.319;  430.445;  -12.491; 1792.232
897.879;  410.920;  -12.401; 1762.751
898.439;  386.214;  -13.431; 1661.149
898.999;  368.270;  -11.340; 1781.468
899.559;  360.756;  -13.930; 1703.347
900.119;  345.036;  -13.730; 1537.525
900.679;  329.920;   -9.210; 1638.384
901.239;  313.501;  -10.860; 1527.902
901.799;  294.925;  -11.450; 1456.441
902.359;  274.531;  -13.800; 1357.140
902.919;  266.908;  -12.130; 1331.118
903.479;  263.986;  -12.650; 1317.257
904.038;  254.195;  -16.110; 1262.595
904.598;  237.180;  -13.690; 1152.034
905.158;  224.302;  -10.290; 1240.893
905.717;  216.664;  -10.670; 1233.691
906.277;  214.046;  -14.040; 1217.330
906.836;  213.000;  -13.510; 1222.408
907.396;  208.612;  -11.530; 1193.047
907.955;  199.554;  -13.190; 1182.526
908.515;  186.993;  -12.950; 1099.364
909.074;  178.723;  -12.390; 1092.863
909.633;  174.872;  -10.340; 1069.121
910.192;  172.586;  -11.170; 1196.460
910.752;  169.625;  -14.200; 1029.960
911.311;  165.275;  -13.810; 1009.780
911.870;  164.108;  -12.750;  971.460
912.429;  162.222;  -12.380; 1094.080
912.988;  159.582;  -11.930; 1081.060
913.547;  155.301;  -10.990;  940.380
914.106;  153.179;  -11.200;  999.420
914.665;  150.428;  -13.150;  984.020
915.224;  147.166;  -13.310; 1035.760
915.782;  145.220;  -13.340;  922.560
916.341;  146.210;  -10.710; 1049.840
916.900;  143.366;  -12.980;  925.260
917.458;  141.660;  -13.060;  884.220
918.017;  139.541;  -10.900;  942.600
918.576;  139.268;  -11.630;  904.440
919.134;  138.404;  -12.860;  837.980
919.693;  138.526;  -15.160;  893.060
920.251;  138.390;  -13.470;  876.500
920.809;  137.663;  -13.700;  839.580
921.368;  137.949;  -13.420;  885.360
921.926;  138.138;  -14.710;  842.940
922.484;  138.297;  -12.560;  903.360
923.042;  140.025;  -11.930;  880.340
923.601;  140.321;  -10.270;  998.680
924.159;  137.339;  -12.960;  935.560
924.717;  135.038;  -13.040;  841.080
925.275;  137.450;  -12.560;  903.240
925.833;  137.974;  -13.040;  779.320
926.391;  140.676;  -13.360;  938.380
926.949;  139.199;  -13.940;  857.680
927.506;  141.284;   -9.400;  903.500
928.064;  140.504;  -10.940;  877.580
928.622;  139.685;  -13.180;  880.100
929.180;  139.475;  -12.730;  814.180
929.737;  140.583;  -12.840;  808.540
930.295;  143.770;  -11.810;  928.480
930.853;  148.669;  -13.650;  849.100
931.410;  152.165;  -13.580;  821.120
931.968;  154.268;  -12.020;  940.660
932.525;  153.919;  -13.320;  909.380
933.082;  152.734;  -13.800;  811.440
933.640;  156.548;  -11.380;  925.900
934.197;  159.141;  -11.480;  886.360
934.754;  161.953;  -13.220;  897.780
935.312;  160.493;  -14.950;  863.340
935.869;  157.012;  -10.940; 1012.980
936.426;  153.689;  -12.100;  872.800
936.983;  153.908;  -12.930;  889.020
937.540;  154.428;  -14.250;  838.280
938.097;  158.872;  -12.600;  940.120
938.654;  165.835;  -11.260;  898.860
939.211;  169.498;  -13.020;  952.480
939.768;  170.361;  -15.760;  915.420
940.324;  174.131;  -13.920;  904.200
940.881;  171.893;  -11.620;  878.500
941.438;  170.256;   -9.870; 1021.200
941.995;  165.228;  -13.920;  992.560
942.551;  162.190;  -12.830;  875.620
943.108;  164.027;  -11.980;  937.920
943.664;  168.001;  -13.740;  869.340
944.221;  174.695;  -12.670; 1088.140
944.777;  173.863;  -13.250;  869.680
945.334;  171.318;  -13.000;  884.840
945.890;  169.737;  -13.020;  946.480
946.446;  168.059;  -13.880;  947.020
947.003;  168.970;  -12.660;  964.940
947.559;  170.076;   -8.730; 1063.040
948.115;  168.812;  -11.960; 1026.540
948.671;  164.177;  -12.360;  967.300
949.227;  158.802;  -12.700;  859.560
949.783;  156.819;  -13.450;  858.900
950.339;  155.238;  -10.620;  991.000
950.895;  152.294;  -14.770; 1023.840
951.451;  149.213;  -13.650;  925.280
952.007;  150.996;  -11.180;  998.540
952.563;  150.537;  -11.680;  937.780
953.118;  149.598;  -13.280;  904.940
953.674;  150.516;  -12.510;  935.780
954.230;  150.504;  -12.220;  949.640
954.785;  147.380;  -12.190;  936.640
955.341;  142.940;  -12.270;  998.160
955.897;  140.956;  -14.900;  834.660
956.452;  143.178;  -12.520;  953.840
957.008;  142.773;   -9.410; 1083.640
957.563;  139.288;  -11.280; 1009.540
958.118;  135.231;  -13.470;  877.700
958.674;  136.815;  -12.190;  946.780
959.229;  137.239;  -12.760; 1013.980
959.784;  141.358;  -15.710;  832.400
960.339;  145.646;  -12.540; 1001.280
960.894;  146.378;  -11.680;  963.760
961.449;  141.921;  -11.410;  859.960
962.004;  140.412;  -10.430; 1212.840
962.559;  133.488;  -14.040;  860.140
963.114;  129.569;  -14.270;  742.480
963.669;  130.593;  -11.320;  915.500
964.224;  129.379;  -14.620;  874.340
964.779;  127.816;  -14.150;  828.420
965.334;  128.708;  -10.850; 1017.860
965.888;  128.437;  -14.530;  875.360
966.443;  129.482;  -13.520;  972.380
966.998;  126.595;  -13.370;  819.460
967.552;  124.713;   -9.960;  908.380
968.107;  120.799;  -12.360;  868.300
968.661;  121.741;  -12.270;  922.440
969.216;  119.374;  -12.140;  856.280
969.770;  119.629;  -11.860;  917.200
970.324;  119.888;  -12.170;  923.140
970.879;  119.195;  -14.160;  947.180
971.433;  116.518;  -12.940;  952.720
971.987;  113.390;  -10.180;  895.340
972.541;  113.496;  -12.130;  917.100
973.095;  112.718;  -14.980; 1009.460
973.649;  111.186;  -14.480;  809.480
974.203;  113.251;  -13.530;  829.040
974.757;  115.341;  -12.060;  855.220
975.311;  112.599;  -13.240;  872.600
975.865;  111.406;  -12.550;  881.820
976.419;  110.154;  -13.180;  857.400
976.973;  109.132;  -14.100;  849.620
977.526;  107.940;  -13.330;  949.920
978.080;  103.387;  -15.390;  796.780
978.634;  102.821;  -11.670;  921.320
979.187;  100.732;  -10.640;  905.400
979.741;  100.347;  -13.330; 1018.380
980.294;   98.130;  -14.480;  789.160
980.848;   97.397;  -13.420;  717.220
981.401;   96.894;  -12.360;  816.540
981.955;   92.871;  -12.480;  844.300
982.508;   88.142;  -14.000;  746.340
983.061;   88.950;  -10.440;  915.260
983.615;   85.910;  -14.340;  798.800
984.168;   82.913;  -14.950;  770.080
984.721;   82.744;  -13.270;  880.760
985.274;   81.093;  -12.240;  867.500
985.827;   78.983;  -12.720;  834.220
986.380;   75.136;  -14.920;  721.340
986.933;   74.862;  -12.860;  864.800
987.486;   74.336;  -10.440;  861.920
988.039;   73.684;  -11.820;  863.100
988.591;   72.126;  -13.760;  893.260
989.144;   69.650;  -14.080;  737.260
989.697;   69.565;  -13.440;  758.740
990.250;   71.324;  -12.050;  858.100
990.802;   69.440;  -14.550;  755.860
991.355;   70.171;  -10.770;  974.880
991.907;   68.473;  -11.710;  864.320
992.460;   66.774;  -12.650;  753.760
993.012;   65.138;  -13.860;  749.540
993.565;   62.992;  -14.310;  711.360
994.117;   63.572;   -9.920;  950.780
994.669;   59.566;  -13.420;  701.320
995.221;   58.227;  -14.200;  791.920
995.774;   57.906;  -13.400;  787.580
996.326;   56.872;  -11.850;  740.220
996.878;   58.041;  -12.230;  838.420
997.430;   54.928;  -14.260;  699.860
997.982;   53.989;  -11.430;  750.140
998.534;   54.623;  -11.590;  739.060
999.086;   53.918;  -11.960;  738.220
999.638;   52.380;  -13.640;  661.380
1000.190;   51.621;  -13.660;  699.320
1000.741;   51.711;   -9.980;  742.700
1001.293;   51.983;  -11.860;  686.020
1001.845;   49.730;  -14.280;  676.640
1002.396;   50.045;  -12.270;  743.400
1002.948;   49.977;  -13.670;  737.400
1003.500;   49.529;  -12.010;  723.780
1004.051;   49.750;  -11.890;  907.580
1004.603;   47.893;  -11.220;  791.820
1005.154;   45.150;  -13.210;  608.980
1005.705;   44.490;  -11.850;  723.960
1006.257;   43.469;  -13.670;  707.220
1006.808;   41.939;  -12.060;  685.460
1007.359;   42.318;  -10.250;  763.240
1007.910;   40.543;  -13.440;  646.640
1008.461;   40.531;  -13.170;  732.940
1009.013;   38.787;  -14.590;  588.340
1009.564;   41.105;  -12.100;  793.520
1010.115;   38.594;  -14.000;  597.040
1010.665;   37.735;  -15.020;  602.160
1011.216;   38.457;  -12.560;  667.920
1011.767;   38.546;  -11.330;  697.920
1012.318;   39.199;  -11.450;  736.980
1012.869;   37.452;  -11.000;  679.000
1013.419;   36.274;  -11.760;  603.120
1013.970;   37.572;  -11.800;  666.640
1014.521;   36.753;  -14.750;  620.620
1015.071;   36.235;  -14.430;  670.380
1015.622;   35.468;  -14.170;  635.460
1016.172;   35.440;  -11.700;  596.820
1016.723;   35.163;  -13.230;  614.380
1017.273;   34.112;  -16.120;  604.160
1017.823;   34.815;  -13.360;  650.340
1018.374;   34.097;  -13.710;  611.760
1018.924;   34.420;  -11.050;  716.880
1019.474;   34.215;  -14.120;  718.880
1020.024;   32.841;  -12.990;  657.580
1020.574;   34.299;  -12.010;  726.160
1021.124;   34.674;  -12.080;  673.580
1021.674;   31.401;  -15.860;  559.120
1022.224;   34.286;  -11.710;  708.940
1022.774;   33.051;  -13.030;  668.820
1023.324;   33.981;  -11.000;  753.520
1023.874;   34.461;  -13.270;  875.760
1024.423;   31.765;  -14.570;  613.700
1024.973;   31.590;  -12.620;  610.760
1025.523;   31.893;  -12.630;  620.960
1026.072;   30.930;  -14.110;  606.420
1026.622;   29.822;  -15.390;  675.740
1027.172;   31.510;   -9.090;  715.660
1027.721;   30.999;  -12.250;  601.220
1028.270;   30.098;  -15.590;  663.400
1028.820;   29.677;  -13.840;  638.080
1029.369;   29.977;  -13.170;  612.700
1029.918;   30.418;  -14.080;  649.840
1030.468;   29.013;  -13.860;  564.780
1031.017;   29.923;  -12.970;  634.800
1031.566;   28.793;  -12.320;  608.900
1032.115;   29.867;  -13.140;  694.500
1032.664;   27.896;  -14.560;  596.480
1033.213;   28.712;  -11.620;  735.420
1033.762;   28.631;  -13.190;  635.620
1034.311;   28.664;  -13.460;  677.220
1034.860;   28.264;  -15.770;  691.000
1035.408;   28.233;  -13.100;  722.720
1035.957;   28.738;  -12.880;  719.540
1036.506;   26.253;  -13.640;  530.800
1037.055;   29.100;  -12.420;  844.320
1037.603;   27.523;  -13.740;  664.000
1038.152;   25.720;  -13.840;  534.760
1038.700;   26.267;  -10.770;  585.740
1039.249;   26.064;  -13.520;  681.220
1039.797;   26.048;  -13.060;  633.360
1040.345;   26.437;  -11.760;  705.420
1040.894;   26.146;  -10.790;  625.300
1041.442;   25.513;  -15.420;  632.200
1041.990;   24.405;  -14.550;  559.160
1042.538;   24.665;  -15.620;  536.180
1043.087;   24.931;  -14.940;  570.860
1043.635;   26.278;  -12.100;  670.500
1044.183;   23.909;  -13.200;  586.400
1044.731;   24.396;  -11.630;  576.000
1045.279;   24.194;  -14.200;  674.920
1045.827;   26.369;  -12.510;  892.400
1046.374;   23.345;  -14.960;  515.420
1046.922;   23.153;  -11.850;  590.580
1047.470;   25.055;  -13.770;  691.300
1048.018;   24.119;  -15.380;  647.960
1048.565;   24.420;  -14.010;  708.600
1049.113;   22.644;  -14.620;  557.000
1049.660;   22.928;  -14.940;  629.660
1050.208;   23.394;  -14.540;  675.640
1050.755;   22.072;  -13.710;  606.580
1051.303;   23.448;  -11.880;  686.820
1051.850;   23.025;  -12.160;  635.120
1052.397;   20.241;  -15.110;  473.960
1052.945;   21.481;  -14.770;  617.760
1053.492;   23.734;  -12.320;  741.840
1054.039;   23.755;  -13.290;  720.180
1054.586;   20.866;  -15.210;  557.240
1055.133;   21.811;  -12.920;  693.140
1055.680;   21.762;  -12.610;  646.620
1056.227;   20.627;  -12.620;  542.780
1056.774;   22.630;  -13.010;  794.980
1057.321;   20.253;  -16.180;  523.260
1057.868;   21.087;  -11.230;  651.320
1058.415;   21.560;  -10.890;  651.980
1058.961;   21.056;  -12.530;  678.940
1059.508;   20.135;  -14.120;  643.820
1060.055;   19.759;  -13.340;  581.780
1060.601;   20.654;  -12.920;  624.300
1061.148;   19.298;  -14.430;  616.820
1061.694;   19.572;  -14.140;  592.580
1062.241;   20.127;  -12.550;  596.320
1062.787;   20.553;  -13.370;  663.140
1063.334;   21.717;  -12.260;  808.560
1063.880;   19.002;  -10.800;  668.360
1064.426;   20.250;   -9.920;  706.820
1064.972;   19.246;  -12.970;  601.340
1065.518;   17.924;  -14.440;  566.640
1066.065;   18.427;  -12.680;  624.460
1066.611;   17.902;  -13.520;  598.800
1067.157;   19.488;  -11.100;  641.860
1067.703;   17.846;  -14.100;  668.480
1068.249;   18.198;  -13.750;  605.220
1068.794;   18.810;  -11.070;  626.880
1069.340;   17.960;  -13.210;  578.960
1069.886;   17.565;  -14.850;  590.700
1070.432;   16.751;  -14.580;  541.720
1070.977;   17.308;  -12.930;  601.080
1071.523;   17.675;  -11.970;  573.060
1072.068;   17.720;  -13.730;  582.000
1072.614;   16.637;  -14.550;  527.760
1073.160;   17.594;  -13.690;  687.040
1073.705;   16.574;  -14.780;  572.520
1074.250;   16.560;  -15.430;  559.900
1074.796;   16.796;  -11.620;  655.160
1075.341;   17.380;  -11.580;  664.100
1075.886;   17.262;  -13.190;  594.240
1076.431;   16.276;  -13.630;  649.880
1076.976;   15.930;  -11.670;  639.220
1077.521;   14.547;  -11.600;  583.080
1078.067;   15.294;  -13.920;  579.400
1078.612;   16.005;  -12.910;  661.620
1079.156;   14.849;  -15.340;  601.540
1079.701;   15.240;  -12.560;  693.260
1080.246;   16.643;  -12.490;  696.300
1080.791;   16.137;  -14.550;  625.020
1081.336;   15.067;  -15.210;  659.320
1081.880;   14.788;  -11.280;  649.680
1082.425;   14.920;  -12.830;  573.480
1082.970;   16.241;  -11.680;  717.040
1083.514;   14.327;  -15.500;  597.000
1084.059;   13.352;  -11.770;  586.720
1084.603;   13.808;  -13.480;  565.840
1085.147;   14.414;  -13.940;  645.220
1085.692;   14.769;  -13.170;  716.800
1086.236;   12.666;  -15.740;  503.140
1086.780;   15.361;  -10.750;  751.440
1087.325;   13.641;  -14.900;  654.620
1087.869;   13.725;  -15.160;  610.700
1088.413;   15.055;  -11.030;  705.040
1088.957;   12.943;  -15.210;  543.400
1089.501;   14.108;  -12.310;  766.640
1090.045;   13.911;  -12.790;  726.480
1090.589;   11.462;  -14.040;  569.920
1091.133;   13.737;  -12.800;  673.340
1091.676;   12.997;  -13.600;  591.940
1092.220;   12.091;  -12.960;  600.920
1092.764;   13.233;  -10.830;  706.960
1093.307;   12.712;  -12.390;  673.780
1093.851;   11.138;  -15.850;  556.540
1094.395;   12.868;  -12.980;  683.140
1094.938;   11.953;  -13.670;  632.520
1095.482;   12.516;  -12.740;  559.800
1096.025;   13.073;  -13.340;  710.880
1096.568;   12.772;  -10.500;  779.280
1097.112;    9.910;  -13.500;  508.180
1097.655;   12.888;  -13.060;  603.000
1098.198;    9.427;  -13.240;  600.180
1098.741;   10.606;  -15.490;  612.860
1099.285;   11.631;  -13.410;  657.300
1099.828;    9.656;  -15.640;  439.400
1100.371;   11.135;  -13.980;  608.160
1100.914;   10.711;  -13.990;  682.660
1101.457;   11.026;  -15.030;  679.900
1101.999;   10.069;  -12.480;  584.680
1102.542;   11.082;  -12.410;  641.440
1103.085;   10.030;  -14.730;  658.500
1103.628;   11.029;  -12.190;  762.060
1104.170;   10.246;  -12.360;  588.280
1104.713;   10.675;  -13.350;  646.700
1105.256;    9.034;  -14.930;  557.440
1105.798;    7.968;  -15.150;  499.980
1106.341;   11.318;  -13.230;  728.900
1106.883;    8.918;  -14.680;  521.340
1107.425;    9.509;  -14.810;  668.180
1107.968;    8.982;  -12.940;  612.380
1108.510;   10.500;  -10.550;  684.960
1109.052;    8.413;  -15.640;  612.620
1109.594;    7.994;  -14.440;  554.440
1110.136;    8.988;  -11.380;  643.220
1110.679;    8.441;  -13.090;  633.080
1111.221;    8.430;  -14.230;  604.460
1111.763;    7.632;  -14.260;  559.220
1112.304;    7.410;  -14.510;  547.140
1112.846;    9.369;  -14.700;  666.240
1113.388;   11.591;  -12.270;  942.180
1113.930;    8.189;  -13.340;  694.200
1114.472;    7.612;  -12.560;  606.540
1115.013;    7.641;  -14.280;  551.280
1115.555;    6.913;  -14.010;  587.100
1116.097;    6.665;  -14.730;  579.480
1116.638;    8.128;  -12.160;  684.600
1117.180;    8.168;  -14.320;  667.740
1117.721;    6.821;  -15.730;  568.580
1118.262;    7.332;  -13.480;  677.960
1118.804;    7.487;  -11.530;  637.340
1119.345;    7.114;  -13.540;  578.400
1119.886;    7.917;  -14.470;  704.040
1120.427;    5.825;  -13.030;  589.020
1120.969;    5.769;  -13.150;  597.920
1121.510;    6.599;  -13.940;  563.060
1122.051;    7.069;  -12.310;  723.580
1122.592;    6.231;  -13.870;  655.420
1123.133;    4.971;  -12.890;  547.940
1123.673;    7.451;  -13.300;  706.480
1124.214;    5.972;  -14.000;  612.460
1124.755;    6.352;  -13.210;  639.460
1125.296;    6.072;  -13.450;  627.320
1125.836;    7.390;  -12.610;  691.500
1126.377;    5.268;  -15.840;  599.660
1126.918;    6.105;  -11.830;  614.980
1127.458;    5.335;  -11.830;  622.220
1127.999;    6.296;  -11.490;  656.980
1128.539;    6.250;  -12.900;  694.240
1129.079;    4.970;  -14.910;  632.720
1129.620;    3.927;  -12.920;  558.100
1130.160;    4.531;  -14.640;  539.480
1130.700;    5.676;  -13.270;  640.840
1131.240;    5.640;  -14.110;  643.700
1131.781;    4.576;  -13.130;  619.680
1132.321;    5.595;  -15.220;  599.120
1132.861;    3.428;  -15.670;  564.200
1133.401;    3.487;  -13.970;  593.940
1133.941;    4.603;  -13.740;  626.280
1134.481;    4.745;  -13.200;  597.580
1135.020;    3.585;  -14.830;  609.160
1135.560;    4.173;  -14.590;  674.940
1136.100;    3.038;  -13.730;  501.160
1136.640;    3.250;  -15.240;  510.480
1137.179;    2.938;  -14.710;  537.960
1137.719;    3.353;  -14.090;  605.400
1138.258;    3.739;  -12.470;  587.360
1138.798;    4.642;  -12.580;  663.780
1139.337;    2.754;  -16.480;  482.840
1139.877;    4.057;  -13.970;  642.360
1140.416;    6.024;   -9.870;  878.060
1140.955;    3.068;  -14.860;  535.380
1141.494;    3.912;  -14.530;  669.280
1142.034;    2.796;  -13.940;  583.520
1142.573;    3.461;  -11.160;  646.280
1143.112;    2.650;  -15.050;  553.480
1143.651;    2.998;  -15.390;  536.480
1144.190;    3.412;  -12.990;  691.640
1144.729;    2.909;  -12.220;  607.420
1145.267;    3.694;  -14.020;  584.900
1145.806;    4.019;  -12.740;  637.040
1146.345;    2.064;  -14.810;  635.020
1146.884;    1.993;  -12.920;  622.500
1147.422;    2.133;  -13.930;  533.060
1147.961;    3.590;  -11.830;  708.460
1148.500;    2.508;  -12.710;  669.720
1149.038;    2.848;  -14.420;  632.500
1149.577;    3.500;  -13.920;  698.640
1150.115;    0.346;  -17.050;  452.280
1150.653;    1.833;  -14.890;  607.340
1151.192;    2.160;  -15.270;  552.920
1151.730;    2.333;  -13.160;  652.560
1152.268;    2.167;  -15.430;  589.520
1152.806;    0.521;  -15.880;  571.180
1153.344;    0.272;  -13.240;  577.640
1153.882;    1.809;  -13.010;  600.060
1154.421;    0.338;  -16.180;  470.620
1154.958;    0.405;  -13.880;  595.240
1155.496;    2.043;  -13.590;  645.280
1156.034;    2.048;  -11.910;  721.880
1156.572;    2.260;  -12.010;  667.060
1157.110;   -0.245;  -16.250;  473.940
1157.647;    2.330;  -15.230;  676.960
1158.185;    0.602;  -13.770;  564.320
1158.723;   -0.468;  -15.300;  509.200
1159.260;    1.075;  -13.130;  701.700
1159.798;    1.391;  -11.300;  658.160
1160.335;    1.324;  -13.210;  631.820

