
Integration time [ms]:   3.276
Averaging Nr. [scans]: 1000
Smoothing Nr. [pixels]: 0
Data measured with spectrometer [name]: 7414430SP
Wave   ;Sample   ;Dark     ;Reference
[nm]   ;[counts] ;[counts] ;[counts] 

288.544;  149.457;    7.793;  793.890
289.143;  154.179;    7.462;  681.602
289.742;  154.484;    8.602;  828.814
290.341;  139.194;    1.321;  789.841
290.940;  129.047;   -0.709;  730.702
291.538;  129.433;    0.881;  881.108
292.137;  129.758;    0.122;  792.581
292.736;  134.504;   -1.929;  975.101
293.335;  130.587;   -8.229;  735.086
293.934;  131.018;   -5.279;  781.677
294.532;  129.081;   -1.369; 1031.958
295.131;  115.286;   -7.641;  834.394
295.730;  115.873;   -8.420;  809.588
296.328;  114.835;   -5.611;  783.442
296.927;  115.558;   -5.781;  779.652
297.525;  116.035;   -6.361;  781.236
298.124;  106.676;  -11.382;  654.009
298.722;  111.294;   -7.641;  761.933
299.321;  109.296;   -6.811;  708.597
299.919;  106.518;   -6.991;  751.918
300.518;  103.393;  -10.362;  689.338
301.116;  105.594;   -9.581;  691.381
301.715;  104.866;   -4.891;  730.222
302.313;  104.556;   -8.801;  704.943
302.911;   98.946;   -8.522;  733.830
303.509;  104.926;   -6.171;  925.627
304.108;  102.824;   -7.311;  760.383
304.706;  101.884;   -8.321;  801.664
305.304;   96.009;  -10.222;  796.707
305.902;  101.731;   -6.021;  784.484
306.500;   97.437;   -4.971;  728.200
307.098;   95.708;   -7.061;  746.560
307.696;   94.021;   -8.801;  780.432
308.294;   95.252;   -6.411;  731.359
308.892;   96.435;   -2.901;  759.769
309.490;   92.803;   -5.041;  712.161
310.088;   90.347;   -5.002;  788.444
310.686;   95.401;   -2.041;  821.749
311.284;   90.806;   -2.351;  766.040
311.882;   88.191;   -4.422;  731.225
312.480;   85.071;   -4.192;  697.167
313.078;   87.174;   -1.172;  808.331
313.675;   88.149;   -2.601;  691.600
314.273;   83.325;   -1.312;  797.837
314.871;   81.371;   -3.942;  589.829
315.468;   81.131;   -2.802;  652.090
316.066;   82.538;   -0.701;  694.427
316.664;   75.420;   -4.362;  656.351
317.261;   79.611;   -2.872;  910.128
317.859;   75.639;   -2.022;  768.735
318.456;   76.870;   -0.531;  830.096
319.054;   71.751;   -3.912;  787.828
319.651;   70.098;   -4.752;  759.928
320.249;   70.584;   -2.602;  810.188
320.846;   67.554;   -0.821;  714.286
321.443;   65.057;   -4.642;  832.135
322.041;   62.157;   -5.002;  812.315
322.638;   60.696;   -3.982;  701.456
323.235;   61.847;   -3.411;  665.683
323.833;   59.055;   -7.361;  740.354
324.430;   53.814;   -8.611;  615.900
325.027;   54.436;   -4.061;  876.855
325.624;   55.273;   -4.031;  644.532
326.221;   51.681;   -7.481;  689.717
326.818;   51.962;   -5.281;  818.332
327.415;   55.134;   -7.460;  748.828
328.012;   54.715;   -5.510;  690.585
328.609;   52.961;   -7.880;  731.389
329.206;   51.116;   -8.331;  778.621
329.803;   51.185;   -5.121;  737.841
330.400;   54.542;   -4.510;  704.260
330.997;   54.353;   -6.441;  817.147
331.594;   53.641;   -8.831;  788.185
332.191;   59.175;   -7.621;  728.722
332.787;   61.932;   -4.591;  844.463
333.384;   59.982;   -7.412;  763.093
333.981;   58.651;   -8.293;  815.687
334.578;   61.409;   -7.052;  708.378
335.174;   64.404;   -3.102;  731.469
335.771;   64.204;   -5.943;  836.456
336.367;   60.514;   -7.393;  710.631
336.964;   65.050;   -4.063;  793.266
337.561;   62.780;   -3.813;  731.112
338.157;   58.407;   -4.654;  911.916
338.754;   56.017;   -7.934;  796.589
339.350;   54.707;   -4.414;  722.493
339.946;   56.302;   -4.664;  773.135
340.543;   47.753;   -6.375;  846.136
341.139;   42.363;   -9.815;  720.836
341.735;   41.141;   -4.526;  772.593
342.332;   39.122;   -4.895;  691.472
342.928;   39.569;   -4.295;  795.394
343.524;   33.166;   -5.476;  761.684
344.120;   30.643;   -5.856;  738.562
344.716;   33.346;   -2.155;  723.717
345.313;   30.398;   -6.275;  795.342
345.909;   26.198;   -8.815;  627.336
346.505;   28.226;   -5.305;  740.247
347.101;   28.627;   -2.674;  827.864
347.697;   29.092;   -4.344;  785.398
348.293;   23.648;   -9.975;  627.244
348.889;   24.238;   -5.774;  745.914
349.485;   24.018;   -5.004;  688.205
350.081;   24.270;   -4.704;  772.592
350.676;   18.820;   -6.635;  691.606
351.272;   24.784;   -4.504;  809.530
351.868;   22.630;   -3.914;  780.497
352.464;   20.365;   -9.044;  723.932
353.059;   16.719;   -8.314;  646.017
353.655;   20.590;   -7.024;  777.063
354.251;   21.098;   -5.343;  759.845
354.846;   16.265;   -8.604;  740.646
355.442;   13.983;   -6.945;  753.071
356.038;   16.404;   -7.564;  751.708
356.633;   16.408;   -5.814;  728.594
357.229;   14.055;   -7.364;  724.757
357.824;   11.552;   -8.024;  703.600
358.420;   11.713;   -9.384;  679.726
359.015;   12.210;   -5.104;  695.357
359.610;   13.220;   -6.854;  763.920
360.206;    6.964;  -10.185;  603.240
360.801;    9.971;   -7.054;  646.503
361.396;   12.360;   -5.034;  725.975
361.992;    7.625;   -8.284;  668.220
362.587;    4.477;   -8.625;  670.160
363.182;    7.085;   -7.674;  689.631
363.777;    7.344;   -5.164;  738.242
364.372;    6.800;   -8.604;  737.314
364.967;    3.284;   -9.055;  680.744
365.563;    8.267;   -6.114;  815.567
366.158;    5.382;   -5.814;  685.161
366.753;    4.387;   -7.854;  649.263
367.348;    3.813;   -7.804;  746.056
367.942;    3.380;   -7.954;  697.298
368.537;    3.115;   -4.984;  754.245
369.132;    3.087;   -8.564;  703.428
369.727;   -0.691;   -8.855;  638.079
370.322;    0.869;   -6.245;  580.186
370.917;   -0.298;   -6.425;  710.646
371.511;    3.115;   -6.294;  861.834
372.106;   -1.023;   -7.685;  776.964
372.701;   -3.760;   -7.335;  585.988
373.296;    2.352;   -4.564;  863.135
373.890;   -2.575;  -10.235;  647.840
374.485;   -5.375;   -7.885;  691.199
375.079;   -0.784;   -7.324;  738.685
375.674;    0.696;   -3.494;  812.970
376.268;   -4.147;   -8.525;  691.759
376.863;   -9.853;  -10.086;  580.327
377.457;   -3.336;   -7.025;  662.490
378.052;   -5.436;   -3.585;  764.884
378.646;   -6.413;   -7.595;  741.167
379.240;   -6.995;   -8.335;  721.176
379.835;   -5.227;   -5.785;  636.978
380.429;   -7.421;   -4.335;  562.557
381.023;   -7.632;   -6.805;  779.205
381.617;  -10.217;   -9.195;  680.106
382.212;   -6.667;   -6.905;  685.303
382.806;   -5.173;   -3.745;  760.690
383.400;   -9.983;   -7.745;  672.281
383.994;  -10.341;   -9.765;  664.870
384.588;   -7.035;   -6.564;  697.701
385.182;   -5.560;   -5.344;  726.624
385.776;   -7.450;   -8.514;  706.875
386.370;  -11.440;   -9.555;  681.968
386.964;   -8.915;   -8.715;  684.155
387.558;   -7.197;   -6.174;  598.360
388.152;  -11.561;   -8.725;  681.959
388.745;   -9.651;   -7.965;  814.707
389.339;   -6.036;   -5.924;  747.642
389.933;   -6.278;   -5.524;  695.370
390.527;   -8.085;   -7.114;  859.029
391.120;  -13.667;  -10.725;  595.318
391.714;  -10.229;   -8.035;  711.633
392.308;   -7.182;   -3.574;  780.253
392.901;  -11.896;   -7.245;  642.460
393.495;  -13.760;   -9.285;  595.414
394.089;  -10.097;   -5.895;  760.452
394.682;  -11.037;   -4.295;  697.188
395.275;  -11.679;   -9.875;  719.927
395.869;  -13.323;   -8.485;  667.314
396.462;  -10.854;   -7.455;  616.609
397.056;   -8.689;   -5.424;  776.621
397.649;  -12.710;   -6.605;  731.575
398.242;   -9.917;   -8.224;  712.645
398.836;   -8.519;   -7.474;  766.408
399.429;   -9.369;   -7.094;  631.041
400.022;  -13.982;   -9.475;  665.902
400.615;  -11.093;   -7.145;  805.609
401.208;   -8.907;   -7.174;  691.451
401.802;  -11.048;   -5.515;  699.329
402.395;  -12.513;   -9.875;  683.502
402.988;  -13.791;   -8.845;  696.627
403.581;  -10.359;   -8.874;  646.878
404.174;   -7.754;   -5.324;  686.568
404.767;  -11.433;   -9.575;  638.583
405.360;  -13.445;  -10.965;  621.445
405.953;   -7.502;   -8.764;  759.034
406.545;   -6.934;   -7.514;  725.342
407.138;  -11.657;  -10.025;  618.350
407.731;  -10.067;  -10.034;  613.303
408.324;   -6.767;   -9.374;  660.554
408.917;   -7.681;   -6.534;  681.864
409.509;   -9.148;   -8.004;  740.396
410.102;  -11.107;   -9.875;  643.948
410.695;   -5.053;   -8.604;  665.758
411.287;   -5.666;   -6.794;  599.821
411.880;   -7.041;   -9.334;  585.421
412.472;  -10.070;  -10.254;  613.092
413.065;   -7.784;   -6.714;  629.408
413.657;   -5.606;   -7.234;  576.678
414.250;   -4.855;  -10.544;  646.681
414.842;   -7.002;   -9.744;  676.353
415.434;   -4.850;   -6.994;  570.463
416.027;   -0.797;   -5.893;  652.196
416.619;   -2.852;   -7.264;  713.400
417.211;   -3.663;  -10.374;  599.352
417.804;   -0.089;   -7.993;  628.499
418.396;   -3.256;   -7.234;  607.643
418.988;   -1.024;   -9.443;  659.238
419.580;   -5.075;  -10.724;  568.276
420.172;   -1.920;  -10.323;  536.196
420.764;    1.958;   -8.793;  672.482
421.356;    0.733;  -11.143;  636.898
421.948;    0.270;   -8.293;  677.661
422.540;    5.533;   -7.893;  680.027
423.132;    4.363;   -7.082;  600.641
423.724;    0.585;   -8.653;  561.267
424.316;    2.239;  -10.213;  621.345
424.908;    6.230;   -9.762;  591.517
425.500;    6.832;   -5.572;  647.978
426.092;    6.936;   -8.422;  648.268
426.683;    5.819;   -9.283;  684.836
427.275;    9.307;   -7.852;  641.471
427.867;   10.774;   -5.272;  668.948
428.458;   11.371;   -7.682;  732.344
429.050;    9.925;  -10.612;  680.749
429.642;   12.026;   -9.882;  743.124
430.233;   12.483;   -6.962;  569.356
430.825;   12.932;   -6.842;  724.809
431.416;   10.775;   -9.672;  698.241
432.008;   15.529;   -6.552;  651.723
432.599;   15.809;   -6.891;  656.073
433.190;   12.602;  -10.912;  637.670
433.782;   12.014;  -11.172;  590.395
434.373;   20.113;   -6.061;  884.765
434.964;   17.943;   -8.251;  602.920
435.556;   16.154;   -9.722;  634.537
436.147;   18.295;   -9.082;  758.490
436.738;   19.015;   -8.041;  701.099
437.329;   24.237;   -7.341;  721.723
437.920;   16.344;   -8.162;  666.688
438.511;   16.539;  -11.802;  564.526
439.103;   23.957;  -10.191;  623.998
439.694;   25.766;   -7.601;  681.583
440.285;   26.171;   -8.541;  764.432
440.876;   23.586;   -9.751;  845.738
441.466;   23.737;   -9.401;  575.162
442.057;   29.301;   -7.760;  665.814
442.648;   28.198;   -9.971;  746.255
443.239;   26.223;  -11.001;  620.477
443.830;   31.254;   -7.990;  704.958
444.421;   33.146;   -7.910;  655.474
445.011;   29.504;   -8.131;  693.619
445.602;   29.157;   -7.111;  743.126
446.193;   30.957;  -10.920;  488.117
446.783;   35.671;   -6.500;  640.397
447.374;   31.021;   -8.671;  692.759
447.964;   31.949;  -10.781;  713.770
448.555;   40.664;   -9.650;  822.742
449.145;   37.287;   -8.660;  662.853
449.736;   37.792;   -8.990;  803.179
450.326;   36.835;   -9.500;  713.626
450.917;   43.031;   -8.680;  675.324
451.507;   41.709;   -7.520;  600.661
452.097;   42.122;   -8.590;  746.267
452.688;   42.521;  -11.340;  742.160
453.278;   43.581;  -10.100;  566.840
453.868;   47.378;   -6.019;  793.550
454.458;   45.191;   -9.440;  651.141
455.048;   45.362;  -10.560;  711.783
455.639;   47.656;  -11.799;  567.096
456.229;   51.775;   -6.899;  710.694
456.819;   53.007;   -7.389;  751.158
457.409;   53.010;  -11.119;  773.993
457.999;   56.052;   -9.289;  737.505
458.589;   55.949;   -6.139;  686.606
459.179;   55.168;   -8.729;  717.658
459.769;   53.534;   -9.789;  627.099
460.358;   59.104;  -10.259;  797.262
460.948;   59.769;   -7.299;  689.503
461.538;   61.164;  -10.289;  660.677
462.128;   57.652;  -11.269;  664.934
462.717;   65.583;   -9.368;  710.326
463.307;   68.406;   -7.908;  705.846
463.897;   63.747;   -9.599;  656.942
464.486;   63.853;   -9.769;  837.128
465.076;   67.762;   -8.048;  733.776
465.666;   71.349;   -9.358;  652.900
466.255;   69.484;   -7.919;  785.651
466.845;   67.990;  -11.689;  666.749
467.434;   71.864;   -7.818;  725.873
468.023;   73.528;   -7.678;  658.357
468.613;   70.015;  -10.939;  713.946
469.202;   74.414;  -10.118;  646.507
469.791;   79.324;   -9.108;  737.811
470.381;   81.119;   -6.058;  742.813
470.970;   81.088;  -10.428;  711.099
471.559;   80.396;  -10.268;  733.291
472.148;   84.168;   -8.448;  675.737
472.738;   85.897;   -6.917;  765.466
473.327;   85.878;  -11.978;  637.529
473.916;   85.223;  -11.888;  737.446
474.505;   89.591;   -9.437;  751.703
475.094;   92.317;   -6.747;  806.570
475.683;   92.732;   -9.367;  797.699
476.272;   93.400;  -12.637;  730.632
476.861;   95.987;  -10.027;  706.754
477.449;  102.764;   -8.716;  728.487
478.038;   97.055;   -9.577;  692.513
478.627;   98.483;   -9.718;  714.852
479.216;  105.276;   -8.947;  769.441
479.805;  108.256;   -6.256;  783.375
480.393;  107.682;   -7.937; 1008.945
480.982;  106.556;   -7.717;  874.501
481.571;  112.914;   -9.266;  858.333
482.159;  114.666;   -7.636;  705.386
482.748;  113.442;   -9.667;  821.385
483.336;  117.856;  -10.376;  858.209
483.925;  119.835;   -7.147;  774.373
484.513;  126.698;   -7.996;  758.962
485.102;  122.888;  -10.027;  810.965
485.690;  131.777;  -10.446; 1011.050
486.278;  134.965;   -8.446;  979.329
486.867;  135.229;   -6.356;  809.662
487.455;  135.880;   -9.136;  898.229
488.043;  137.539;  -10.646;  748.361
488.631;  146.907;   -7.456; 1005.079
489.220;  151.940;   -6.636;  908.626
489.808;  151.404;  -11.036;  741.415
490.396;  159.636;  -10.246;  914.645
490.984;  166.043;   -8.556;  830.161
491.572;  175.833;   -5.886;  940.315
492.160;  182.105;   -9.486;  919.081
492.748;  195.226;  -10.976;  884.341
493.336;  219.548;   -8.776; 1019.693
493.924;  247.070;   -5.465;  958.077
494.512;  275.665;   -9.986; 1066.638
495.100;  315.647;  -10.636; 1103.280
495.687;  374.067;  -10.885; 1206.373
496.275;  441.198;   -8.126; 1150.796
496.863;  517.791;  -10.586; 1281.171
497.451;  627.214;  -11.926; 1386.805
498.038;  764.985;  -10.885; 1556.729
498.626;  880.733;   -6.315; 1741.407
499.214; 1044.463;   -7.326; 2016.609
499.801; 1249.768;  -11.906; 2220.633
500.389; 1521.137;  -10.466; 2312.494
500.976; 1851.594;   -5.236; 2744.849
501.564; 2323.293;   -8.936; 3148.565
502.151; 2718.066;  -13.176; 3515.999
502.738; 3201.831;  -10.646; 3971.274
503.326; 3632.946;   -9.525; 4403.796
503.913; 4056.824;  -10.856; 5161.749
504.500; 4457.112;  -11.586; 5986.420
505.088; 4923.868;  -10.336; 6381.201
505.675; 5493.305;   -6.355; 6925.547
506.262; 6265.770;   -9.046; 7619.060
506.849; 7038.237;  -10.416; 8733.969
507.436; 7541.653;  -10.305; 9790.121
508.023; 8160.508;   -5.496; 9985.472
508.610; 8451.760;   -7.856;10434.618
509.197; 9140.627;  -10.097;11198.435
509.784;10610.426;  -10.886;12391.194
510.371;11765.444;   -9.315;13603.713
510.958;12579.700;   -9.936;14426.586
511.545;13414.911;   -9.326;15243.775
512.132;14292.013;  -10.075;15945.876
512.719;14835.138;   -7.796;16340.369
513.305;15792.136;  -10.606;18011.766
513.892;16571.629;  -11.486;19754.971
514.479;18022.510;   -9.126;20967.805
515.066;19732.830;   -6.026;22299.793
515.652;21193.781;   -8.466;22908.660
516.239;22455.787;  -10.886;23798.875
516.825;23442.004;  -11.496;25567.275
517.412;24400.494;   -5.796;28154.959
517.998;25046.855;  -10.506;28344.111
518.585;25213.393;  -10.076;27134.219
519.171;25793.170;   -8.315;27268.576
519.758;27242.787;   -8.596;28964.129
520.344;29278.709;   -8.466;30664.494
520.930;29298.521;  -11.006;32550.605
521.516;30463.133;  -10.495;35422.895
522.103;32826.555;   -5.526;38280.004
522.689;33323.742;   -8.746;37835.117
523.275;32941.785;  -11.376;37288.613
523.861;34566.621;  -11.156;37281.395
524.447;36116.090;   -8.135;37846.949
525.033;35889.273;   -7.896;38321.949
525.619;36087.270;  -12.476;38579.285
526.205;37703.711;   -9.516;40622.875
526.791;40067.926;   -6.926;42258.836
527.377;40345.109;   -8.346;42966.902
527.963;41849.582;   -8.717;42018.949
528.549;40336.629;  -11.016;42476.828
529.135;38884.855;   -8.536;41854.852
529.721;38001.313;   -9.666;41237.711
530.306;37158.012;  -10.066;41259.445
530.892;36947.512;  -11.356;41506.047
531.478;38482.207;   -6.596;43559.613
532.063;41668.930;   -8.836;47695.563
532.649;42410.902;  -10.047;50808.324
533.235;43096.766;   -9.746;51787.500
533.820;43437.500;   -6.566;52145.035
534.406;45020.652;  -10.817;51133.488
534.991;44790.934;   -9.416;49996.805
535.576;43246.402;   -9.036;48882.852
536.162;43853.414;   -6.156;46942.285
536.747;44716.918;  -11.607;45711.746
537.333;48222.082;  -11.787;48510.180
537.918;51594.074;  -12.437;50439.891
538.503;50444.102;   -7.196;50863.711
539.088;46619.359;  -10.556;50906.922
539.673;46296.430;   -8.767;52621.965
540.259;46624.738;  -10.026;52368.094
540.844;44103.477;   -7.416;50879.109
541.429;45373.684;   -9.467;52077.777
542.014;48161.695;   -9.527;52716.695
542.599;47466.453;   -9.946;52363.281
543.184;45062.273;   -7.927;53187.137
543.769;46532.934;   -9.297;54697.605
544.354;46160.195;  -10.127;53913.914
544.938;44961.117;   -9.267;49680.164
545.523;46979.504;   -6.506;47386.277
546.108;49895.434;   -9.787;49151.949
546.693;51821.984;  -11.587;51384.637
547.278;51574.031;  -10.986;51853.254
547.862;48614.813;   -8.206;51173.750
548.447;44032.574;  -10.067;51691.395
549.031;43581.512;   -9.637;52456.703
549.616;48633.336;   -9.926;52714.516
550.201;48051.102;   -6.347;52414.598
550.785;49183.277;   -7.917;52355.059
551.370;48275.488;  -10.867;54589.453
551.954;47756.805;   -9.047;58267.348
552.538;48723.078;   -7.827;59062.176
553.123;47080.570;  -10.287;58115.285
553.707;44627.758;  -12.178;56556.285
554.291;46154.168;   -8.717;56201.668
554.876;48768.227;   -7.457;55335.762
555.460;48907.699;  -10.387;54155.703
556.044;49828.082;   -9.618;53721.484
556.628;48559.816;  -11.567;53731.016
557.212;47512.191;   -8.097;54312.531
557.796;45841.898;  -11.077;53797.773
558.380;45879.066;  -11.108;56145.984
558.964;46322.586;   -9.057;57277.930
559.548;47794.949;   -6.977;56459.641
560.132;46113.988;  -11.457;54434.543
560.716;44432.359;  -11.378;54800.617
561.300;45409.102;   -9.577;57606.945
561.884;46686.168;   -7.127;58972.445
562.467;44888.336;   -7.118;57327.570
563.051;44272.168;  -13.358;54962.434
563.635;45488.621;  -10.178;52594.473
564.219;45684.422;   -7.837;50610.410
564.802;46532.184;  -11.398;49551.180
565.386;46379.762;  -12.788;48370.953
565.969;45583.699;   -9.077;48178.871
566.553;44670.508;   -6.207;49957.305
567.136;45485.668;   -8.568;50369.594
567.720;41942.871;  -11.868;49492.004
568.303;39812.914;   -8.268;50616.352
568.887;39826.230;   -8.698;50727.148
569.470;40125.926;   -6.808;51698.379
570.053;38652.895;  -13.188;52122.078
570.637;37048.543;  -12.037;52536.438
571.220;37106.273;   -8.577;51186.098
571.803;37889.973;   -8.498;51032.762
572.386;39858.496;  -10.498;49609.887
572.969;42369.883;   -9.388;48285.926
573.552;40637.020;   -8.338;47624.285
574.135;39230.422;   -8.518;45498.641
574.718;36891.395;  -13.628;41970.434
575.301;35848.363;  -10.893;41447.137
575.884;34805.332;   -8.158;40923.836
576.467;36012.285;  -10.328;45267.723
577.050;37782.871;  -13.058;48175.543
577.633;39162.875;   -9.458;47729.328
578.216;38331.996;   -8.928;47579.793
578.799;37393.242;   -9.358;47820.996
579.381;36224.531;  -11.388;48115.551
579.964;34174.609;  -11.718;47333.766
580.547;35988.055;   -8.588;46668.969
581.129;37258.281;   -8.859;44466.141
581.712;38220.891;  -10.729;44164.922
582.294;38838.453;  -11.118;46477.855
582.877;38526.074;   -5.218;48244.254
583.459;36049.082;   -8.679;47437.895
584.042;34046.109;  -10.709;46943.219
584.624;34509.422;  -11.669;46792.227
585.206;34120.523;   -8.218;46557.250
585.789;34015.184;  -10.569;45793.773
586.371;36938.863;  -11.859;43836.391
586.953;37691.922;  -10.719;42972.492
587.536;39023.223;   -7.198;42487.211
588.118;39277.020;   -8.720;42086.414
588.700;35286.781;  -10.439;43389.930
589.282;34255.762;   -9.198;43646.039
589.864;35216.348;   -9.199;43438.109
590.446;36345.852;  -11.319;43151.926
591.028;36428.457;  -11.159;42781.867
591.610;35289.953;  -11.779;42839.098
592.192;32430.646;   -7.668;42820.402
592.774;30775.580;  -11.949;40724.277
593.356;29443.449;  -12.129;39874.789
593.937;28269.949;  -10.669;39980.648
594.519;30389.660;   -6.509;42069.633
595.101;32645.340;  -10.849;42976.031
595.683;32858.031;  -11.679;44084.441
596.264;33943.605;   -9.049;43478.797
596.846;33452.867;   -8.849;43803.672
597.427;33369.813;   -9.570;42986.934
598.009;35054.480;  -12.620;42832.219
598.591;35425.758;  -10.039;42580.086
599.172;34673.539;  -10.369;43061.805
599.753;34901.234;   -9.140;41691.469
600.335;36502.773;  -11.430;40692.520
600.916;34598.555;   -9.939;39982.422
601.498;31867.584;   -8.479;40318.617
602.079;30312.762;  -10.920;40670.609
602.660;30104.408;  -11.480;41450.898
603.241;31820.670;  -11.699;41137.738
603.823;30566.764;   -9.579;38868.797
604.404;29752.668;  -10.620;38182.785
604.985;31455.873;  -10.450;38078.047
605.566;31476.484;   -9.129;38056.633
606.147;31676.787;   -7.510;37020.418
606.728;33175.449;  -10.660;37883.359
607.309;31675.658;  -11.740;38748.273
607.890;31155.809;   -9.759;38850.230
608.471;30613.607;   -8.250;37457.918
609.051;29768.373;   -9.240;36066.457
609.632;28716.963;  -12.120;35991.074
610.213;29496.574;   -9.110;37402.641
610.794;30262.232;   -8.030;38383.363
611.374;29814.475;   -8.110;40562.387
611.955;30329.418;  -13.560;38533.727
612.536;31640.764;  -11.400;36951.789
613.116;31454.203;   -8.070;37197.891
613.697;31894.939;  -10.830;38411.125
614.277;30241.926;  -11.641;38673.938
614.858;31053.293;  -13.310;37075.863
615.438;30183.080;   -7.460;35092.906
616.019;27588.127;   -7.601;33666.301
616.599;28203.611;  -12.020;34189.023
617.179;30178.699;  -11.780;36952.047
617.760;31232.369;   -8.570;39582.574
618.340;32214.061;  -11.471;38943.977
618.920;33485.512;  -11.170;37594.156
619.500;33215.121;  -11.071;37866.938
620.080;32062.309;   -7.750;37869.043
620.660;33189.340;  -12.711;36868.617
621.241;34615.754;  -10.211;36352.309
621.821;34999.574;  -10.961;35459.520
622.401;34008.000;   -7.720;35207.414
622.980;33272.102;   -8.981;35980.422
623.560;31754.686;   -9.331;37351.328
624.140;30440.973;   -9.850;34388.582
624.720;25330.844;   -7.451;32368.764
625.300;21850.016;   -9.070;32638.629
625.880;25245.680;  -12.601;34599.035
626.459;29139.854;  -11.751;36831.738
627.039;32203.139;   -9.281;38299.098
627.619;32130.709;   -8.801;38289.574
628.198;30683.025;  -12.071;37220.695
628.778;29838.275;   -9.461;37632.563
629.357;30419.574;   -8.491;38003.012
629.937;30428.975;   -9.721;38402.039
630.516;30042.947;   -9.951;37868.801
631.096;29890.902;  -11.731;35760.410
631.675;32163.863;   -8.572;35225.219
632.254;37227.656;  -11.282;35130.289
632.834;36679.527;  -13.322;35794.570
633.413;34885.176;  -10.301;35788.922
633.992;32216.848;   -8.582;34532.863
634.571;32976.281;   -8.352;33590.113
635.151;36120.039;  -11.912;34943.863
635.730;34492.848;  -10.511;35352.523
636.309;30746.820;   -7.731;35366.605
636.888;28121.389;   -9.952;36165.637
637.467;28780.602;  -11.672;37515.902
638.046;30479.326;   -8.901;39288.695
638.625;33676.332;   -7.912;38279.699
639.204;33481.934;  -10.022;37741.598
639.782;31950.385;  -12.252;38364.551
640.361;28383.014;  -10.041;36740.621
640.940;25501.904;  -11.161;34950.082
641.519;26206.090;   -9.701;34137.398
642.097;29026.855;  -11.271;35654.258
642.676;31802.721;   -8.651;35637.957
643.255;32630.793;   -8.711;36567.074
643.833;31855.557;   -9.581;37809.434
644.412;31787.436;  -13.711;37337.293
644.990;30714.268;  -11.811;37018.531
645.569;30536.545;   -9.411;36518.469
646.147;29556.428;  -10.291;36186.430
646.726;29528.965;  -12.401;36267.688
647.304;30913.000;  -10.411;36647.625
647.882;32576.449;   -9.651;39286.742
648.461;34148.871;   -9.631;39157.703
649.039;32532.568;  -11.881;35412.883
649.617;31842.736;   -9.661;34744.918
650.195;31406.363;   -9.301;35403.098
650.773;29976.305;  -10.511;35053.797
651.352;27341.535;  -11.521;33756.816
651.930;24997.869;  -12.211;31868.773
652.508;23722.227;   -9.171;33121.551
653.086;27784.830;   -9.371;33564.793
653.663;30655.262;  -13.161;34054.668
654.241;29239.045;  -13.031;35693.309
654.819;30803.598;   -9.371;36422.906
655.397;30967.006;  -10.511;38213.484
655.975;30535.025;  -10.371;39507.625
656.553;30452.928;  -10.051;39498.223
657.130;28872.033;  -10.061;40395.480
657.708;27888.219;   -9.561;39242.020
658.286;27869.174;  -11.511;38920.020
658.863;29337.633;  -10.261;40202.898
659.441;32502.963;   -7.531;39677.938
660.018;32077.076;   -9.501;40413.355
660.596;30904.176;  -13.301;39931.414
661.173;32731.943;  -11.211;39604.531
661.750;32663.613;   -9.951;39700.070
662.328;31226.428;   -9.390;39292.809
662.905;30432.254;  -11.330;38235.648
663.482;26449.490;   -9.050;36212.305
664.060;24664.414;   -8.240;35944.945
664.637;27456.957;  -10.050;35170.785
665.214;29269.969;  -11.760;34197.523
665.791;31016.035;  -10.530;34549.520
666.368;29868.771;   -9.690;35118.578
666.945;30248.576;   -9.320;36019.418
667.522;31835.438;  -11.860;36048.438
668.099;31543.398;  -10.770;36243.914
668.676;30252.449;   -6.260;35958.875
669.253;28964.182;   -7.000;37384.730
669.830;29647.008;  -10.190;36779.629
670.407;29415.039;   -9.550;35231.289
670.984;29069.758;   -9.260;35544.270
671.560;29596.281;   -9.280;35466.867
672.137;29004.072;  -11.810;34280.863
672.714;29856.281;  -11.490;34632.863
673.290;30442.127;   -7.740;35135.422
673.867;30628.604;  -10.660;36114.480
674.443;30666.451;  -12.230;36152.859
675.020;28886.457;  -10.450;35327.238
675.596;29770.141;   -9.260;35795.176
676.173;30172.141;  -10.780;35430.355
676.749;29993.805;  -13.690;33549.516
677.326;30014.008;  -11.980;32210.012
677.902;29950.871;   -8.630;32068.871
678.478;29283.953;  -10.730;32583.891
679.054;28637.055;  -10.520;32088.928
679.631;28905.906;  -11.920;30978.848
680.207;30521.336;   -7.490;33160.887
680.783;32115.604;   -9.860;35570.363
681.359;31214.996;  -13.380;36125.184
681.935;30652.807;  -12.480;35240.922
682.511;29939.264;   -7.900;34429.961
683.087;30051.682;   -7.710;34463.680
683.663;29518.416;  -11.480;34648.898
684.239;28314.080;  -14.090;34546.457
684.815;27933.816;   -7.560;35586.375
685.390;28188.965;   -9.910;35821.895
685.966;28677.801;  -11.159;35085.871
686.542;31018.725;  -11.169;34198.230
687.118;33318.836;   -5.959;32847.707
687.693;33750.469;  -10.329;32794.027
688.269;33385.320;  -12.059;33072.367
688.844;31496.928;  -10.909;33141.664
689.420;29251.057;   -8.019;33965.742
689.995;27059.344;   -8.399;34655.523
690.571;25709.703;  -10.949;33576.742
691.146;26121.908;   -9.619;32657.219
691.722;25704.135;   -8.999;32526.979
692.297;25357.738;  -11.589;33014.617
692.872;27090.150;  -11.739;34012.254
693.448;26791.713;  -11.059;34237.434
694.023;26009.146;  -10.139;34142.672
694.598;27900.230;   -9.029;34132.031
695.173;28289.119;  -13.319;34205.250
695.748;27490.094;  -10.169;32882.488
696.323;27705.984;   -8.339;32864.906
696.898;27963.227;   -8.169;33170.004
697.473;27864.639;  -12.309;32432.984
698.048;27372.703;  -10.989;31649.303
698.623;27204.600;   -9.329;30778.141
699.198;29028.041;   -9.849;31140.119
699.773;30062.934;  -12.329;31764.299
700.348;28354.578;  -10.389;31780.816
700.922;28375.945;   -9.269;32046.375
701.497;29362.443;   -9.329;32603.574
702.072;29701.322;  -10.789;34799.871
702.646;28269.727;  -10.839;35793.172
703.221;25961.711;   -9.099;35201.590
703.795;28057.205;  -10.939;34764.527
704.370;28590.332;  -12.859;34307.367
704.944;29010.830;  -11.559;33509.887
705.519;29796.311;   -7.939;31388.584
706.093;31182.809;  -10.499;31340.104
706.668;31630.982;  -11.289;32630.281
707.242;30500.480;  -11.509;32728.779
707.816;28871.633;   -9.639;32947.238
708.390;27327.748;  -11.429;33277.855
708.965;27690.209;  -11.869;33834.336
709.539;27550.475;  -11.689;33709.273
710.113;28055.396;  -10.478;33044.313
710.687;27775.293;  -10.228;31953.992
711.261;26200.945;  -13.698;30505.949
711.835;25944.322;  -13.378;30262.369
712.409;26590.635;   -9.698;31254.447
712.983;28584.920;  -11.898;32754.986
713.557;29610.762;  -15.138;34018.824
714.131;29221.387;  -14.098;34579.625
714.704;28236.871;   -9.958;33890.262
715.278;25985.504;  -10.028;33531.102
715.852;24875.006;  -11.148;33601.660
716.425;25634.217;   -9.068;33515.117
716.999;26384.787;  -10.038;33185.555
717.573;27340.201;   -9.798;33905.996
718.146;28413.572;  -12.378;35199.293
718.720;28570.119;  -11.918;35060.551
719.293;28012.820;   -8.088;34973.230
719.867;30810.607;  -10.888;36394.449
720.440;30667.090;  -11.938;36663.008
721.013;29090.945;  -12.818;35102.426
721.587;27616.559;  -10.298;33985.266
722.160;26546.564;  -10.048;33524.965
722.733;25441.459;  -12.108;32987.043
723.306;25591.582;  -10.818;33066.301
723.880;28091.258;   -8.908;33399.500
724.453;30405.549;   -9.878;33468.297
725.026;29573.311;  -11.188;33816.637
725.599;26683.922;  -11.678;32797.996
726.172;26718.910;   -9.618;33187.434
726.745;27668.477;   -8.258;35136.613
727.318;28945.012;  -12.978;35751.730
727.891;29640.982;  -12.148;35890.430
728.463;29400.361;   -8.968;34822.090
729.036;28360.418;  -10.188;32895.086
729.609;28815.709;  -11.788;31823.225
730.182;25819.996;  -11.788;31445.283
730.754;23389.689;  -10.268;32373.223
731.327;23442.094;   -9.998;33676.820
731.900;23619.963;  -12.228;33417.000
732.472;24825.717;  -13.848;31978.498
733.045;26808.840;   -8.698;30368.777
733.617;26885.096;  -10.607;30574.215
734.190;26584.326;  -11.507;31280.975
734.762;23877.252;  -13.647;31674.412
735.334;22065.219;   -9.767;31247.291
735.907;22641.021;   -9.897;29876.211
736.479;22863.826;  -11.637;29808.488
737.051;22604.020;   -9.567;30233.547
737.623;23531.844;   -8.187;31469.086
738.195;24124.133;  -11.187;31784.225
738.768;25852.725;  -12.337;32120.523
739.340;26303.584;  -12.227;32094.342
739.912;25262.912;  -11.057;31312.680
740.484;23779.791;  -10.207;31946.238
741.056;22556.107;  -10.047;32984.059
741.628;24269.822;  -13.627;33897.715
742.199;26455.043;   -7.177;33213.016
742.771;24763.840;  -10.797;31369.113
743.343;22399.113;  -11.997;31865.473
743.915;21413.590;  -12.867;32388.631
744.487;21533.875;   -7.617;31079.568
745.058;21815.869;   -9.557;30570.107
745.630;22232.787;   -9.877;29970.127
746.201;23109.457;  -14.177;29186.766
746.773;23724.055;   -9.237;28805.723
747.344;23575.930;   -9.847;29591.223
747.916;22094.830;  -11.657;31412.201
748.487;22215.162;  -10.587;32194.898
749.059;23341.160;   -8.707;32533.719
749.630;23882.830;  -10.537;32158.518
750.201;22855.766;  -11.687;30855.395
750.773;21148.402;  -11.647;28622.555
751.344;21084.543;   -7.147;28405.732
751.915;22390.918;   -9.757;28461.551
752.486;22526.830;  -12.427;27842.850
753.057;20261.471;  -12.227;27845.008
753.628;18934.398;  -10.417;27728.107
754.199;19963.504;  -11.767;27381.086
754.770;20987.146;  -11.187;25882.203
755.341;20968.973;  -10.507;25886.184
755.912;21104.061;   -9.387;26050.861
756.483;20719.910;  -10.647;26798.779
757.054;19041.771;  -11.837;27048.238
757.625;17774.223;  -12.716;26294.838
758.195;17414.264;   -9.666;26142.076
758.766;17071.029;   -8.656;26392.234
759.337;17789.164;  -12.856;26334.594
759.907;19374.256;  -13.366;27579.652
760.478;20326.855;   -8.576;28352.770
761.048;19840.307;  -10.526;27325.088
761.619;19034.129;  -11.116;26460.428
762.189;19033.799;  -12.136;26029.826
762.760;19966.219;   -9.456;26430.145
763.330;21086.275;   -7.136;26670.902
763.900;20639.861;  -11.786;26603.021
764.471;18166.740;  -11.546;25542.740
765.041;16903.266;   -8.096;24358.459
765.611;16955.158;   -8.876;23991.297
766.181;17311.092;  -12.196;24470.236
766.751;18206.471;  -11.636;24845.975
767.321;18009.400;  -10.156;24533.633
767.891;16202.902;  -11.766;24916.492
768.461;15669.360;  -14.936;24776.771
769.031;16129.380;  -12.356;24757.988
769.601;17669.811;   -7.526;24181.088
770.171;17574.213;  -10.766;23670.387
770.741;16778.135;  -13.176;22960.045
771.311;16851.090;  -10.616;22917.523
771.880;17260.207;   -9.576;23562.941
772.450;16952.691;  -10.336;24216.500
773.020;16877.908;  -13.516;24140.398
773.589;16127.949;  -13.466;24414.857
774.159;15406.089;   -8.686;23858.717
774.729;15066.301;   -9.476;22942.135
775.298;14715.517;  -13.666;22324.033
775.867;14382.521;  -11.716;21140.313
776.437;14479.176;   -9.906;20838.092
777.006;14311.459;  -12.166;20599.510
777.576;14181.717;  -12.356;20508.809
778.145;14231.807;  -11.646;20732.947
778.714;14135.786;   -8.226;21062.465
779.283;13448.200;   -9.556;20949.664
779.853;12917.375;  -14.116;20508.623
780.422;13396.180;  -11.506;20649.082
780.991;12947.815;   -9.556;21527.520
781.560;11772.735;   -9.095;22632.658
782.129;11620.670;  -12.135;23048.277
782.698;11682.064;  -10.865;23438.555
783.267;11306.591;   -9.335;23267.734
783.836;11233.541;  -11.045;22415.133
784.404;12216.880;  -13.865;20443.152
784.973;12841.630;  -13.095;19699.150
785.542;12740.007;  -11.575;19763.828
786.111;12511.373;   -9.705;20341.408
786.679;12041.953;  -12.105;20207.967
787.248;11811.324;  -12.455;19516.465
787.817;11656.556;  -11.535;18900.363
788.385;11270.340;   -9.765;17879.121
788.954;10694.157;  -14.005;17658.301
789.522;10173.974;  -11.955;17788.879
790.090;10709.842;  -10.135;18118.277
790.659;11139.039;  -10.975;18338.736
791.227;10657.510;  -13.375;18508.615
791.795;11073.814;  -12.375;17898.254
792.364;11488.915;  -10.725;17295.133
792.932;11839.577;   -9.715;16822.051
793.500;11958.928;  -12.675;17040.148
794.068;12094.328;  -13.495;17179.787
794.636;12218.211;  -10.885;16664.246
795.204;11598.702;  -11.045;16524.545
795.772;11643.835;  -13.175;17274.564
796.340;11226.622;  -12.445;17891.002
796.908;11040.580;   -9.735;17648.561
797.476;10935.205;   -9.815;17064.080
798.044;10510.227;  -13.985;16672.777
798.612; 9717.496;  -13.115;17023.996
799.180; 9347.862;  -10.185;16561.615
799.747; 9288.048;   -9.055;15962.773
800.315; 9016.212;  -12.385;15296.992
800.883; 8716.788;  -15.035;14801.771
801.450; 8756.413;  -10.365;14534.430
802.018; 8820.596;   -9.855;14173.248
802.585; 8930.448;  -11.905;14029.547
803.153; 8941.744;  -11.585;13836.846
803.720; 8756.155;   -9.095;13567.324
804.287; 8335.515;   -9.135;13360.622
804.855; 7927.650;  -11.604;13681.981
805.422; 7795.530;  -11.794;13536.560
805.989; 7820.489;  -10.734;13355.958
806.556; 7970.330;  -10.444;13747.896
807.124; 8175.273;  -12.764;13987.376
807.691; 8140.571;  -12.964;14038.674
808.258; 7980.231;  -11.134;14120.152
808.825; 7718.440;   -9.854;13860.111
809.392; 7784.622;  -10.504;13268.790
809.959; 7289.882;  -13.054;12680.389
810.526; 6844.936;   -8.294;12427.308
811.093; 6892.310;   -8.394;12030.105
811.659; 7528.476;  -12.304;11653.664
812.226; 8053.706;  -13.944;11637.183
812.793; 7784.718;  -10.484;11611.521
813.360; 7185.933;  -10.144;11885.181
813.926; 6886.511;  -11.684;12770.539
814.493; 6668.771;  -13.644;12677.638
815.060; 6280.274;   -9.724;11974.336
815.626; 6273.452;   -9.854;11594.715
816.193; 6669.854;  -13.254;11579.474
816.759; 6691.091;  -13.204;11666.972
817.325; 6738.291;   -9.434;11325.530
817.892; 7087.401;  -10.134;11105.369
818.458; 7519.512;  -13.474;10843.928
819.024; 7186.982;  -11.854;10714.406
819.591; 6888.396;  -10.244;10469.165
820.157; 6669.294;  -10.704;10235.523
820.723; 6152.715;  -12.324;10847.563
821.289; 5832.471;   -9.444;11040.980
821.855; 5758.579;   -8.374;10357.100
822.421; 5777.250;  -10.234; 9978.918
822.987; 5814.751;  -13.294; 9754.177
823.553; 5500.508;  -10.884;10065.755
824.119; 5307.442;   -8.884;10036.294
824.685; 5411.526;   -6.784;10029.192
825.251; 5513.132;  -12.004;10199.230
825.816; 5475.140;  -11.474; 9820.189
826.382; 5234.195;   -9.174; 9297.248
826.948; 5414.565;   -9.214; 9381.347
827.513; 5812.323;  -10.774; 9450.726
828.079; 5654.672;  -11.924; 9472.444
828.645; 5064.519;  -10.543; 9292.643
829.210; 4943.782;  -10.533; 9065.341
829.776; 4938.747;  -10.753; 9132.620
830.341; 4839.843;  -10.173; 9092.878
830.906; 5030.638;  -10.743; 9078.557
831.472; 5385.356;  -11.113; 8534.535
832.037; 5150.832;  -10.603; 8677.874
832.602; 4608.631;  -13.323; 8628.692
833.167; 4352.086;  -10.823; 8879.031
833.733; 4292.004;  -10.113; 9189.790
834.298; 4429.788;  -13.583; 9052.608
834.863; 4510.427;  -12.703; 8895.087
835.428; 4482.733;  -10.523; 8824.266
835.993; 4321.396;   -6.963; 8845.385
836.558; 4142.540;  -10.763; 8888.563
837.123; 4260.252;   -9.903; 8966.582
837.688; 4490.161;   -9.913; 8617.860
838.253; 4744.251;  -10.283; 8590.699
838.817; 4958.197;  -12.963; 8443.797
839.382; 4873.364;  -14.243; 8799.356
839.947; 4557.391;  -10.733; 8810.595
840.511; 4266.992;   -9.383; 8796.394
841.076; 3893.073;  -12.563; 8347.231
841.641; 3925.492;  -12.953; 8224.330
842.205; 4020.502;   -7.043; 8223.349
842.770; 4110.341;   -8.163; 8622.107
843.334; 4258.195;  -12.503; 8410.386
843.898; 4176.394;  -11.693; 8337.465
844.463; 4181.128;  -10.203; 8506.283
845.027; 3961.872;   -9.533; 8280.962
845.591; 3781.432;  -13.443; 8231.141
846.156; 3780.987;  -13.143; 7969.179
846.720; 3679.014;   -9.433; 7768.278
847.284; 3564.588;  -11.033; 7630.957
847.848; 3439.026;  -10.403; 7472.395
848.412; 3354.445;  -11.553; 7437.394
848.976; 3403.037;   -8.393; 7674.592
849.540; 3321.984;   -8.713; 7836.011
850.104; 3419.070;  -12.463; 7913.669
850.668; 3765.932;  -12.973; 7694.508
851.232; 3864.772;  -10.793; 7756.887
851.796; 3704.754;  -10.662; 7926.545
852.359; 3419.849;  -13.082; 7827.844
852.923; 3248.422;  -12.192; 7641.163
853.487; 3064.488;  -11.912; 7342.501
854.050; 3025.900;  -10.892; 7042.820
854.614; 3167.875;  -13.992; 7151.338
855.177; 3298.553;  -11.732; 7105.077
855.741; 3321.759;   -8.962; 6989.675
856.304; 3198.765;   -9.442; 6596.634
856.868; 3145.048;  -14.192; 6356.272
857.431; 3223.639;  -12.702; 6468.571
857.995; 3318.707;   -9.942; 6373.210
858.558; 3319.536;   -9.112; 6324.448
859.121; 3055.330;  -12.932; 6408.327
859.684; 2932.785;  -13.442; 6347.886
860.247; 3045.508;  -10.632; 6321.264
860.810; 3056.409;  -11.272; 6301.903
861.374; 2811.894;   -9.832; 6607.881
861.937; 2559.471;  -11.762; 6408.200
862.500; 2548.075;   -9.722; 6572.639
863.062; 2716.328;  -10.512; 6387.297
863.625; 2886.679;  -11.232; 6190.836
864.188; 3039.834;  -14.112; 5807.254
864.751; 3098.261;  -11.302; 5682.413
865.314; 2992.239;  -10.112; 5547.492
865.876; 2781.278;  -12.182; 5500.150
866.439; 2758.100;  -10.722; 5415.909
867.002; 2709.590;   -9.252; 5501.567
867.564; 2520.559;   -9.572; 5413.946
868.127; 2314.005;  -13.142; 5160.325
868.689; 2219.465;  -12.902; 5133.183
869.252; 2130.827;   -9.732; 5252.382
869.814; 2038.531;   -9.432; 5297.141
870.377; 2038.685;  -11.552; 5390.919
870.939; 2099.308;   -9.052; 5599.898
871.501; 2162.171;  -10.982; 5248.336
872.063; 2166.497;  -12.292; 4854.235
872.626; 2126.386;  -14.912; 4817.074
873.188; 2150.993;  -13.112; 4987.732
873.750; 2120.204;  -13.442; 4868.651
874.312; 2017.461;   -9.402; 4779.330
874.874; 1932.050;  -11.062; 4866.348
875.436; 1848.449;  -13.931; 4718.887
875.998; 1842.390;   -9.561; 4660.005
876.560; 1865.211;  -11.321; 4462.964
877.122; 1810.053;  -12.221; 4145.042
877.683; 1724.018;  -12.191; 4056.481
878.245; 1656.172;  -12.101; 3950.740
878.807; 1694.481;   -8.971; 4058.958
879.369; 1720.923;  -12.071; 3954.677
879.930; 1626.187;  -14.621; 3941.495
880.492; 1564.171;  -10.311; 4067.014
881.053; 1533.687;  -10.901; 3859.633
881.615; 1438.086;  -14.411; 3776.071
882.176; 1342.422;  -13.761; 3734.750
882.738; 1291.592;   -9.181; 3678.489
883.299; 1263.541;  -11.791; 3405.407
883.860; 1263.988;  -13.121; 3351.106
884.422; 1264.634;  -11.211; 3394.044
884.983; 1225.112;  -10.091; 3166.443
885.544; 1151.881;   -8.461; 3189.802
886.105; 1073.421;  -12.361; 3160.360
886.666; 1008.727;  -14.141; 3093.059
887.227;  952.376;  -11.361; 2941.957
887.788;  893.239;  -11.401; 2974.836
888.349;  831.965;  -13.791; 2721.214
888.910;  829.268;  -13.191; 2696.493
889.471;  838.346;   -9.881; 2560.172
890.032;  822.434;   -9.881; 2558.190
890.593;  799.770;  -10.371; 2567.669
891.153;  773.638;  -13.301; 2460.307
891.714;  725.455;  -11.431; 2372.046
892.275;  688.152;  -11.291; 2309.505
892.835;  651.374;  -11.471; 2382.543
893.396;  604.704;  -11.541; 2295.502
893.956;  550.218;  -11.181; 2162.420
894.517;  512.747;  -11.741; 2125.439
895.077;  504.855;  -11.671; 2086.978
895.638;  505.418;  -11.311; 2126.316
896.198;  477.723;   -9.831; 1838.275
896.758;  434.764;   -8.421; 1892.813
897.319;  405.584;  -12.351; 1792.232
897.879;  390.336;  -13.511; 1762.751
898.439;  365.895;  -12.001; 1661.149
898.999;  341.880;  -10.180; 1781.468
899.559;  334.220;  -12.030; 1703.347
900.119;  330.264;  -15.710; 1537.525
900.679;  325.773;   -8.900; 1638.384
901.239;  311.211;   -8.340; 1527.902
901.799;  300.713;  -13.910; 1456.441
902.359;  295.262;  -13.460; 1357.140
902.919;  288.643;  -11.490; 1331.118
903.479;  276.952;  -12.110; 1317.257
904.038;  255.784;  -11.720; 1262.595
904.598;  240.695;  -13.610; 1152.034
905.158;  236.742;  -11.040; 1240.893
905.717;  230.466;  -10.900; 1233.691
906.277;  220.483;  -15.080; 1217.330
906.836;  209.481;  -13.380; 1222.408
907.396;  202.382;  -10.780; 1193.047
907.955;  195.209;   -8.500; 1182.526
908.515;  189.211;  -12.760; 1099.364
909.074;  182.808;  -11.900; 1092.863
909.633;  178.059;   -8.950; 1069.121
910.192;  173.707;   -8.770; 1196.460
910.752;  168.535;  -12.390; 1029.960
911.311;  165.178;  -13.680; 1009.780
911.870;  162.338;  -12.370;  971.460
912.429;  163.011;  -10.900; 1094.080
912.988;  161.085;  -11.690; 1081.060
913.547;  156.663;  -13.240;  940.380
914.106;  153.215;  -11.990;  999.420
914.665;  149.047;   -9.990;  984.020
915.224;  148.674;  -12.880; 1035.760
915.782;  147.897;  -12.350;  922.560
916.341;  148.982;   -9.110; 1049.840
916.900;  144.494;   -9.270;  925.260
917.458;  142.374;  -13.240;  884.220
918.017;  141.398;  -13.550;  942.600
918.576;  141.704;  -12.320;  904.440
919.134;  139.803;  -11.490;  837.980
919.693;  137.494;  -13.670;  893.060
920.251;  135.160;  -15.470;  876.500
920.809;  134.836;  -11.290;  839.580
921.368;  134.720;  -10.210;  885.360
921.926;  133.654;  -12.140;  842.940
922.484;  131.860;  -13.080;  903.360
923.042;  132.992;  -11.720;  880.340
923.601;  134.460;   -7.480;  998.680
924.159;  132.875;  -11.570;  935.560
924.717;  129.232;  -13.840;  841.080
925.275;  130.935;  -10.640;  903.240
925.833;  129.589;  -11.540;  779.320
926.391;  130.506;  -12.960;  938.380
926.949;  128.812;  -14.130;  857.680
927.506;  129.457;  -11.750;  903.500
928.064;  129.408;  -10.250;  877.580
928.622;  128.385;  -13.030;  880.100
929.180;  128.130;  -13.400;  814.180
929.737;  129.349;  -10.700;  808.540
930.295;  133.012;  -10.070;  928.480
930.853;  134.682;  -11.960;  849.100
931.410;  134.165;  -13.120;  821.120
931.968;  134.252;  -10.770;  940.660
932.525;  134.348;  -10.680;  909.380
933.082;  134.657;  -13.130;  811.440
933.640;  135.022;  -13.210;  925.900
934.197;  133.908;  -11.060;  886.360
934.754;  133.892;   -9.580;  897.780
935.312;  135.870;  -14.000;  863.340
935.869;  140.556;  -10.710; 1012.980
936.426;  141.361;   -9.860;  872.800
936.983;  142.952;   -9.710;  889.020
937.540;  142.225;  -13.990;  838.280
938.097;  140.370;  -14.040;  940.120
938.654;  141.778;  -10.310;  898.860
939.211;  143.843;  -10.560;  952.480
939.768;  147.168;  -13.900;  915.420
940.324;  149.202;  -14.760;  904.200
940.881;  151.439;  -10.370;  878.500
941.438;  152.147;   -8.260; 1021.200
941.995;  147.819;  -12.540;  992.560
942.551;  145.219;  -14.670;  875.620
943.108;  146.692;  -10.450;  937.920
943.664;  149.156;  -10.750;  869.340
944.221;  151.574;  -11.550; 1088.140
944.777;  148.810;  -14.770;  869.680
945.334;  148.934;  -12.820;  884.840
945.890;  150.874;  -10.130;  946.480
946.446;  150.756;  -13.470;  947.020
947.003;  152.213;  -12.120;  964.940
947.559;  155.646;   -9.980; 1063.040
948.115;  154.202;   -9.080; 1026.540
948.671;  152.075;  -10.830;  967.300
949.227;  150.356;  -12.440;  859.560
949.783;  147.589;  -12.910;  858.900
950.339;  149.497;  -10.270;  991.000
950.895;  149.052;  -13.630; 1023.840
951.451;  148.768;  -15.100;  925.280
952.007;  149.146;  -11.330;  998.540
952.563;  150.246;  -10.580;  937.780
953.118;  148.410;  -13.440;  904.940
953.674;  147.699;  -12.710;  935.780
954.230;  148.241;  -10.350;  949.640
954.785;  145.312;   -9.190;  936.640
955.341;  142.617;  -11.200;  998.160
955.897;  140.827;  -16.560;  834.660
956.452;  143.107;  -12.570;  953.840
957.008;  141.904;   -7.970; 1083.640
957.563;  138.330;  -11.940; 1009.540
958.118;  133.978;  -13.450;  877.700
958.674;  135.046;  -12.030;  946.780
959.229;  135.245;   -9.410; 1013.980
959.784;  133.388;  -12.000;  832.400
960.339;  132.754;  -14.780; 1001.280
960.894;  129.632;   -9.860;  963.760
961.449;  126.524;   -9.970;  859.960
962.004;  126.455;  -10.900; 1212.840
962.559;  120.618;  -13.150;  860.140
963.114;  118.840;  -13.740;  742.480
963.669;  118.211;   -9.820;  915.500
964.224;  116.647;  -13.890;  874.340
964.779;  115.134;  -12.600;  828.420
965.334;  116.382;  -10.950; 1017.860
965.888;  116.231;  -11.170;  875.360
966.443;  118.821;  -12.540;  972.380
966.998;  118.022;  -15.780;  819.460
967.552;  117.420;   -9.760;  908.380
968.107;  113.624;   -9.060;  868.300
968.661;  114.119;  -11.950;  922.440
969.216;  114.903;  -12.800;  856.280
969.770;  115.251;  -11.210;  917.200
970.324;  114.647;  -11.610;  923.140
970.879;  110.696;  -11.370;  947.180
971.433;  107.567;  -12.540;  952.720
971.987;  103.510;  -11.320;  895.340
972.541;  100.362;  -10.720;  917.100
973.095;  100.011;   -9.680; 1009.460
973.649;   99.206;  -11.440;  809.480
974.203;   98.415;  -11.210;  829.040
974.757;   98.442;  -10.240;  855.220
975.311;   97.508;  -13.720;  872.600
975.865;   96.996;  -13.770;  881.820
976.419;   95.485;  -11.690;  857.400
976.973;   96.126;   -9.510;  849.620
977.526;   97.399;  -12.620;  949.920
978.080;   96.072;  -12.010;  796.780
978.634;   98.637;  -10.170;  921.320
979.187;   94.636;   -9.020;  905.400
979.741;   93.037;   -9.820; 1018.380
980.294;   87.621;  -14.870;  789.160
980.848;   86.357;  -12.380;  717.220
981.401;   88.709;  -10.350;  816.540
981.955;   90.501;  -13.720;  844.300
982.508;   89.210;  -11.490;  746.340
983.061;   89.699;  -10.000;  915.260
983.615;   84.928;  -11.480;  798.800
984.168;   82.179;  -13.220;  770.080
984.721;   81.412;  -13.960;  880.760
985.274;   81.340;  -10.870;  867.500
985.827;   79.488;   -9.790;  834.220
986.380;   77.259;  -13.120;  721.340
986.933;   76.665;  -12.450;  864.800
987.486;   76.152;  -10.210;  861.920
988.039;   75.439;   -8.430;  863.100
988.591;   73.175;  -10.520;  893.260
989.144;   69.912;  -14.860;  737.260
989.697;   70.187;  -13.080;  758.740
990.250;   70.561;  -10.150;  858.100
990.802;   68.811;  -13.430;  755.860
991.355;   69.247;  -12.750;  974.880
991.907;   67.066;  -12.040;  864.320
992.460;   64.886;  -11.330;  753.760
993.012;   65.451;  -13.610;  749.540
993.565;   64.096;  -13.460;  711.360
994.117;   65.602;   -9.360;  950.780
994.669;   62.363;  -11.300;  701.320
995.221;   59.874;  -13.540;  791.920
995.774;   58.051;  -13.430;  787.580
996.326;   57.417;  -12.520;  740.220
996.878;   57.363;  -10.950;  838.420
997.430;   54.540;  -14.300;  699.860
997.982;   53.341;  -13.760;  750.140
998.534;   53.661;  -11.530;  739.060
999.086;   52.275;  -10.310;  738.220
999.638;   49.914;  -12.530;  661.380
1000.190;   50.242;  -11.840;  699.320
1000.741;   50.442;  -10.260;  742.700
1001.293;   49.994;   -8.860;  686.020
1001.845;   47.984;  -13.700;  676.640
1002.396;   48.592;  -12.100;  743.400
1002.948;   48.213;  -12.760;  737.400
1003.500;   46.586;  -10.380;  723.780
1004.051;   47.188;  -11.900;  907.580
1004.603;   45.077;  -12.250;  791.820
1005.154;   41.696;  -13.210;  608.980
1005.705;   41.287;  -10.950;  723.960
1006.257;   39.720;  -13.880;  707.220
1006.808;   39.178;  -12.840;  685.460
1007.359;   40.010;  -10.570;  763.240
1007.910;   38.981;   -9.620;  646.640
1008.461;   38.044;  -13.630;  732.940
1009.013;   36.869;  -17.200;  588.340
1009.564;   38.039;  -10.200;  793.520
1010.115;   36.444;  -12.570;  597.040
1010.665;   35.458;  -15.150;  602.160
1011.216;   35.407;  -14.480;  667.920
1011.767;   35.629;  -11.340;  697.920
1012.318;   35.817;   -9.780;  736.980
1012.869;   34.589;  -12.380;  679.000
1013.419;   33.784;  -15.560;  603.120
1013.970;   34.744;  -11.010;  666.640
1014.521;   33.540;  -11.610;  620.620
1015.071;   33.691;  -13.450;  670.380
1015.622;   32.826;  -13.870;  635.460
1016.172;   33.018;  -11.610;  596.820
1016.723;   32.666;  -12.120;  614.380
1017.273;   31.906;  -13.620;  604.160
1017.823;   32.743;  -14.140;  650.340
1018.374;   31.591;  -12.800;  611.760
1018.924;   32.134;  -12.340;  716.880
1019.474;   32.241;  -11.410;  718.880
1020.024;   30.197;  -14.770;  657.580
1020.574;   31.754;   -9.780;  726.160
1021.124;   31.511;   -8.560;  673.580
1021.674;   30.100;  -15.190;  559.120
1022.224;   31.256;  -13.530;  708.940
1022.774;   30.931;  -13.280;  668.820
1023.324;   31.122;  -10.690;  753.520
1023.874;   32.143;  -10.240;  875.760
1024.423;   29.469;  -12.540;  613.700
1024.973;   29.156;  -10.010;  610.760
1025.523;   28.923;  -10.550;  620.960
1026.072;   28.251;  -13.560;  606.420
1026.622;   27.919;  -15.120;  675.740
1027.172;   29.859;  -11.260;  715.660
1027.721;   28.438;  -11.410;  601.220
1028.270;   27.682;  -13.530;  663.400
1028.820;   28.373;  -13.680;  638.080
1029.369;   28.300;  -13.520;  612.700
1029.918;   28.197;  -10.980;  649.840
1030.468;   26.827;  -13.530;  564.780
1031.017;   27.440;  -13.170;  634.800
1031.566;   26.494;  -12.200;  608.900
1032.115;   27.620;   -9.960;  694.500
1032.664;   25.092;  -13.210;  596.480
1033.213;   27.298;  -12.500;  735.420
1033.762;   26.727;  -11.910;  635.620
1034.311;   26.704;   -9.640;  677.220
1034.860;   26.350;  -13.310;  691.000
1035.408;   26.128;  -11.830;  722.720
1035.957;   26.545;  -12.000;  719.540
1036.506;   25.052;  -11.690;  530.800
1037.055;   27.012;  -10.990;  844.320
1037.603;   24.722;  -15.120;  664.000
1038.152;   24.118;  -12.450;  534.760
1038.700;   24.629;  -10.560;  585.740
1039.249;   24.200;  -11.080;  681.220
1039.797;   24.417;  -12.540;  633.360
1040.345;   25.179;  -11.920;  705.420
1040.894;   24.316;  -11.410;  625.300
1041.442;   23.370;  -14.320;  632.200
1041.990;   23.389;  -16.240;  559.160
1042.538;   22.672;  -11.680;  536.180
1043.087;   22.680;  -10.760;  570.860
1043.635;   23.387;  -11.850;  670.500
1044.183;   22.703;  -15.480;  586.400
1044.731;   22.620;  -11.770;  576.000
1045.279;   22.226;  -13.090;  674.920
1045.827;   23.243;  -12.440;  892.400
1046.374;   21.544;  -13.840;  515.420
1046.922;   21.586;  -13.220;  590.580
1047.470;   22.823;  -10.230;  691.300
1048.018;   21.855;  -14.590;  647.960
1048.565;   22.146;  -12.050;  708.600
1049.113;   21.298;  -11.650;  557.000
1049.660;   21.155;  -10.510;  629.660
1050.208;   20.782;  -13.310;  675.640
1050.755;   20.443;  -15.900;  606.580
1051.303;   21.338;  -11.430;  686.820
1051.850;   21.179;   -8.480;  635.120
1052.397;   19.056;  -15.010;  473.960
1052.945;   19.596;  -13.960;  617.760
1053.492;   21.357;  -13.150;  741.840
1054.039;   21.218;   -9.630;  720.180
1054.586;   18.740;  -13.680;  557.240
1055.133;   20.940;  -14.570;  693.140
1055.680;   19.982;  -13.820;  646.620
1056.227;   19.009;  -11.730;  542.780
1056.774;   20.362;  -12.480;  794.980
1057.321;   18.387;  -13.930;  523.260
1057.868;   19.674;  -11.690;  651.320
1058.415;   18.838;   -9.520;  651.980
1058.961;   19.230;  -13.160;  678.940
1059.508;   18.764;  -12.920;  643.820
1060.055;   18.607;  -11.920;  581.780
1060.601;   18.410;  -11.500;  624.300
1061.148;   18.333;  -14.330;  616.820
1061.694;   17.850;  -16.870;  592.580
1062.241;   18.600;  -10.330;  596.320
1062.787;   18.137;  -10.620;  663.140
1063.334;   19.313;  -10.110;  808.560
1063.880;   18.005;  -13.400;  668.360
1064.426;   18.439;  -10.680;  706.820
1064.972;   17.396;   -9.920;  601.340
1065.518;   16.188;  -10.980;  566.640
1066.065;   17.452;  -14.890;  624.460
1066.611;   17.288;  -12.870;  598.800
1067.157;   17.703;  -12.950;  641.860
1067.703;   16.546;  -13.540;  668.480
1068.249;   16.525;  -13.540;  605.220
1068.794;   17.822;  -12.600;  626.880
1069.340;   15.971;  -10.620;  578.960
1069.886;   16.093;  -12.830;  590.700
1070.432;   14.770;  -14.870;  541.720
1070.977;   15.267;  -11.980;  601.080
1071.523;   16.100;   -8.200;  573.060
1072.068;   16.083;  -12.330;  582.000
1072.614;   15.036;  -16.370;  527.760
1073.160;   16.455;  -11.100;  687.040
1073.705;   15.175;  -10.480;  572.520
1074.250;   14.074;  -14.520;  559.900
1074.796;   15.898;  -11.460;  655.160
1075.341;   15.465;  -11.950;  664.100
1075.886;   15.275;  -11.460;  594.240
1076.431;   13.998;  -13.770;  649.880
1076.976;   14.133;  -12.680;  639.220
1077.521;   13.827;  -13.170;  583.080
1078.067;   13.083;  -10.860;  579.400
1078.612;   13.834;  -13.920;  661.620
1079.156;   13.635;  -13.880;  601.540
1079.701;   14.714;  -13.120;  693.260
1080.246;   14.759;   -9.940;  696.300
1080.791;   13.777;  -14.740;  625.020
1081.336;   13.883;  -13.750;  659.320
1081.880;   13.620;  -13.400;  649.680
1082.425;   12.712;  -12.220;  573.480
1082.970;   14.166;  -11.610;  717.040
1083.514;   12.347;  -13.580;  597.000
1084.059;   13.015;  -12.810;  586.720
1084.603;   13.111;  -12.320;  565.840
1085.147;   12.603;  -13.190;  645.220
1085.692;   13.870;  -12.480;  716.800
1086.236;   11.680;  -13.020;  503.140
1086.780;   14.189;   -9.190;  751.440
1087.325;   12.862;  -12.480;  654.620
1087.869;   12.149;  -12.450;  610.700
1088.413;   12.814;  -12.240;  705.040
1088.957;   11.328;   -9.020;  543.400
1089.501;   12.920;  -10.320;  766.640
1090.045;   12.387;  -12.720;  726.480
1090.589;   11.061;  -13.690;  569.920
1091.133;   11.530;  -10.020;  673.340
1091.676;   11.033;  -12.330;  591.940
1092.220;   11.099;  -14.970;  600.920
1092.764;   12.514;  -12.430;  706.960
1093.307;   11.461;   -9.800;  673.780
1093.851;    9.769;  -14.970;  556.540
1094.395;   10.499;  -15.310;  683.140
1094.938;   10.461;  -10.370;  632.520
1095.482;   10.397;  -11.050;  559.800
1096.025;   10.909;  -11.840;  710.880
1096.568;   11.155;  -12.840;  779.280
1097.112;    9.378;  -14.700;  508.180
1097.655;   10.715;   -8.720;  603.000
1098.198;    9.065;  -13.610;  600.180
1098.741;    9.512;  -13.350;  612.860
1099.285;   11.204;  -11.230;  657.300
1099.828;    8.713;  -11.840;  439.400
1100.371;    9.001;  -10.840;  608.160
1100.914;    9.300;  -14.190;  682.660
1101.457;   10.053;  -11.240;  679.900
1101.999;    8.897;  -11.270;  584.680
1102.542;    9.043;  -11.480;  641.440
1103.085;    8.312;  -11.750;  658.500
1103.628;   10.140;  -11.400;  762.060
1104.170;    8.952;  -10.490;  588.280
1104.713;    8.748;  -10.600;  646.700
1105.256;    7.512;  -14.360;  557.440
1105.798;    7.480;  -13.210;  499.980
1106.341;    9.361;  -10.270;  728.900
1106.883;    7.124;  -12.200;  521.340
1107.425;    8.372;  -13.110;  668.180
1107.968;    7.826;  -12.840;  612.380
1108.510;    8.746;   -6.480;  684.960
1109.052;    6.291;  -13.940;  612.620
1109.594;    6.968;  -13.690;  554.440
1110.136;    8.574;  -11.880;  643.220
1110.679;    7.672;   -9.500;  633.080
1111.221;    8.083;  -14.160;  604.460
1111.763;    7.270;  -13.980;  559.220
1112.304;    7.183;  -13.880;  547.140
1112.846;    7.636;  -12.210;  666.240
1113.388;    9.564;  -11.390;  942.180
1113.930;    6.976;  -14.540;  694.200
1114.472;    6.669;  -12.640;  606.540
1115.013;    5.989;  -11.620;  551.280
1115.555;    5.981;  -13.640;  587.100
1116.097;    5.029;  -15.380;  579.480
1116.638;    6.744;  -12.640;  684.600
1117.180;    7.256;   -9.850;  667.740
1117.721;    6.008;  -13.690;  568.580
1118.262;    6.837;  -12.680;  677.960
1118.804;    6.682;  -12.530;  637.340
1119.345;    5.986;  -11.690;  578.400
1119.886;    6.015;  -13.380;  704.040
1120.427;    5.424;  -14.070;  589.020
1120.969;    4.681;  -13.500;  597.920
1121.510;    4.942;  -11.480;  563.060
1122.051;    5.852;  -12.830;  723.580
1122.592;    4.363;  -14.290;  655.420
1123.133;    4.495;  -12.400;  547.940
1123.673;    6.244;  -10.130;  706.480
1124.214;    5.037;  -12.930;  612.460
1124.755;    5.333;  -14.380;  639.460
1125.296;    5.718;  -14.000;  627.320
1125.836;    5.559;  -10.070;  691.500
1126.377;    4.355;  -12.640;  599.660
1126.918;    5.049;  -12.960;  614.980
1127.458;    4.123;  -13.350;  622.220
1127.999;    5.224;  -10.750;  656.980
1128.539;    5.069;  -12.350;  694.240
1129.079;    4.151;  -14.860;  632.720
1129.620;    4.177;  -13.840;  558.100
1130.160;    3.595;  -12.330;  539.480
1130.700;    4.432;  -14.530;  640.840
1131.240;    4.326;  -12.530;  643.700
1131.781;    4.286;  -14.450;  619.680
1132.321;    4.110;   -9.790;  599.120
1132.861;    2.823;  -14.860;  564.200
1133.401;    2.589;  -14.290;  593.940
1133.941;    4.102;  -11.750;  626.280
1134.481;    2.742;   -9.920;  597.580
1135.020;    2.629;  -12.290;  609.160
1135.560;    3.198;  -11.650;  674.940
1136.100;    2.318;  -16.270;  501.160
1136.640;    2.530;  -10.890;  510.480
1137.179;    2.492;  -14.180;  537.960
1137.719;    2.744;  -16.250;  605.400
1138.258;    3.186;  -14.230;  587.360
1138.798;    3.767;   -9.090;  663.780
1139.337;    1.326;  -15.130;  482.840
1139.877;    2.257;  -13.680;  642.360
1140.416;    4.378;  -11.320;  878.060
1140.955;    1.696;  -10.860;  535.380
1141.494;    2.159;  -12.920;  669.280
1142.034;    2.030;  -13.930;  583.520
1142.573;    2.779;  -11.440;  646.280
1143.112;    2.385;  -12.000;  553.480
1143.651;    1.691;  -13.670;  536.480
1144.190;    2.352;  -12.730;  691.640
1144.729;    2.235;  -14.560;  607.420
1145.267;    2.357;  -11.830;  584.900
1145.806;    2.194;  -12.230;  637.040
1146.345;    0.901;  -14.130;  635.020
1146.884;    1.780;  -11.590;  622.500
1147.422;    1.278;  -12.550;  533.060
1147.961;    2.850;  -11.180;  708.460
1148.500;    1.761;  -11.510;  669.720
1149.038;    2.838;  -11.640;  632.500
1149.577;    2.174;  -10.130;  698.640
1150.115;   -0.400;  -13.970;  452.280
1150.653;    0.869;  -14.520;  607.340
1151.192;    2.028;  -12.810;  552.920
1151.730;    1.883;   -9.100;  652.560
1152.268;   -0.089;  -12.220;  589.520
1152.806;    0.904;  -14.140;  571.180
1153.344;   -0.130;  -12.350;  577.640
1153.882;    0.848;   -8.980;  600.060
1154.421;   -1.001;  -15.190;  470.620
1154.958;   -0.310;  -15.210;  595.240
1155.496;    1.315;  -12.850;  645.280
1156.034;    0.837;   -9.940;  721.880
1156.572;    1.902;  -13.570;  667.060
1157.110;   -0.684;  -14.590;  473.940
1157.647;    0.564;  -13.030;  676.960
1158.185;   -0.070;  -12.140;  564.320
1158.723;   -1.419;  -14.390;  509.200
1159.260;    0.516;  -14.090;  701.700
1159.798;   -0.033;  -11.920;  658.160
1160.335;    0.267;  -11.110;  631.820

