
Integration time [ms]:   3.276
Averaging Nr. [scans]: 1000
Smoothing Nr. [pixels]: 0
Data measured with spectrometer [name]: 7414430SP
Wave   ;Sample   ;Dark     ;Reference
[nm]   ;[counts] ;[counts] ;[counts] 

288.544;  151.049;    7.793;  793.890
289.143;  154.781;    7.462;  681.602
289.742;  155.912;    8.602;  828.814
290.341;  141.548;    1.321;  789.841
290.940;  129.797;   -0.709;  730.702
291.538;  130.130;    0.881;  881.108
292.137;  131.036;    0.122;  792.581
292.736;  135.385;   -1.929;  975.101
293.335;  132.390;   -8.229;  735.086
293.934;  131.503;   -5.279;  781.677
294.532;  130.656;   -1.369; 1031.958
295.131;  116.295;   -7.641;  834.394
295.730;  116.989;   -8.420;  809.588
296.328;  115.610;   -5.611;  783.442
296.927;  116.110;   -5.781;  779.652
297.525;  117.264;   -6.361;  781.236
298.124;  107.257;  -11.382;  654.009
298.722;  110.941;   -7.641;  761.933
299.321;  109.470;   -6.811;  708.597
299.919;  108.871;   -6.991;  751.918
300.518;  104.519;  -10.362;  689.338
301.116;  105.608;   -9.581;  691.381
301.715;  106.428;   -4.891;  730.222
302.313;  105.735;   -8.801;  704.943
302.911;  100.285;   -8.522;  733.830
303.509;  105.667;   -6.171;  925.627
304.108;  103.421;   -7.311;  760.383
304.706;  102.022;   -8.321;  801.664
305.304;   96.709;  -10.222;  796.707
305.902;  101.847;   -6.021;  784.484
306.500;   98.536;   -4.971;  728.200
307.098;   96.313;   -7.061;  746.560
307.696;   93.872;   -8.801;  780.432
308.294;   94.997;   -6.411;  731.359
308.892;   97.269;   -2.901;  759.769
309.490;   93.395;   -5.041;  712.161
310.088;   90.850;   -5.002;  788.444
310.686;   95.266;   -2.041;  821.749
311.284;   91.924;   -2.351;  766.040
311.882;   89.789;   -4.422;  731.225
312.480;   85.264;   -4.192;  697.167
313.078;   87.183;   -1.172;  808.331
313.675;   88.549;   -2.601;  691.600
314.273;   83.240;   -1.312;  797.837
314.871;   82.160;   -3.942;  589.829
315.468;   80.217;   -2.802;  652.090
316.066;   83.764;   -0.701;  694.427
316.664;   76.751;   -4.362;  656.351
317.261;   79.752;   -2.872;  910.128
317.859;   75.795;   -2.022;  768.735
318.456;   76.594;   -0.531;  830.096
319.054;   72.933;   -3.912;  787.828
319.651;   71.039;   -4.752;  759.928
320.249;   69.583;   -2.602;  810.188
320.846;   67.723;   -0.821;  714.286
321.443;   65.291;   -4.642;  832.135
322.041;   61.716;   -5.002;  812.315
322.638;   59.508;   -3.982;  701.456
323.235;   61.256;   -3.411;  665.683
323.833;   59.127;   -7.361;  740.354
324.430;   54.184;   -8.611;  615.900
325.027;   54.469;   -4.061;  876.855
325.624;   54.898;   -4.031;  644.532
326.221;   52.065;   -7.481;  689.717
326.818;   50.400;   -5.281;  818.332
327.415;   53.432;   -7.460;  748.828
328.012;   54.181;   -5.510;  690.585
328.609;   52.901;   -7.880;  731.389
329.206;   50.588;   -8.331;  778.621
329.803;   50.342;   -5.121;  737.841
330.400;   53.708;   -4.510;  704.260
330.997;   55.015;   -6.441;  817.147
331.594;   52.839;   -8.831;  788.185
332.191;   58.980;   -7.621;  728.722
332.787;   61.239;   -4.591;  844.463
333.384;   60.221;   -7.412;  763.093
333.981;   58.791;   -8.293;  815.687
334.578;   61.881;   -7.052;  708.378
335.174;   63.887;   -3.102;  731.469
335.771;   63.568;   -5.943;  836.456
336.367;   59.884;   -7.393;  710.631
336.964;   63.199;   -4.063;  793.266
337.561;   61.934;   -3.813;  731.112
338.157;   57.951;   -4.654;  911.916
338.754;   55.772;   -7.934;  796.589
339.350;   52.584;   -4.414;  722.493
339.946;   55.991;   -4.664;  773.135
340.543;   47.562;   -6.375;  846.136
341.139;   42.041;   -9.815;  720.836
341.735;   40.125;   -4.526;  772.593
342.332;   39.318;   -4.895;  691.472
342.928;   39.667;   -4.295;  795.394
343.524;   32.778;   -5.476;  761.684
344.120;   29.111;   -5.856;  738.562
344.716;   33.481;   -2.155;  723.717
345.313;   30.801;   -6.275;  795.342
345.909;   25.061;   -8.815;  627.336
346.505;   26.736;   -5.305;  740.247
347.101;   27.475;   -2.674;  827.864
347.697;   28.654;   -4.344;  785.398
348.293;   22.470;   -9.975;  627.244
348.889;   22.699;   -5.774;  745.914
349.485;   23.540;   -5.004;  688.205
350.081;   23.305;   -4.704;  772.592
350.676;   18.072;   -6.635;  691.606
351.272;   22.149;   -4.504;  809.530
351.868;   22.374;   -3.914;  780.497
352.464;   19.712;   -9.044;  723.932
353.059;   15.464;   -8.314;  646.017
353.655;   18.585;   -7.024;  777.063
354.251;   20.553;   -5.343;  759.845
354.846;   15.172;   -8.604;  740.646
355.442;   12.338;   -6.945;  753.071
356.038;   15.065;   -7.564;  751.708
356.633;   15.121;   -5.814;  728.594
357.229;   13.480;   -7.364;  724.757
357.824;   10.809;   -8.024;  703.600
358.420;    9.672;   -9.384;  679.726
359.015;   10.377;   -5.104;  695.357
359.610;   11.966;   -6.854;  763.920
360.206;    5.256;  -10.185;  603.240
360.801;    8.276;   -7.054;  646.503
361.396;   10.760;   -5.034;  725.975
361.992;    6.261;   -8.284;  668.220
362.587;    3.038;   -8.625;  670.160
363.182;    5.590;   -7.674;  689.631
363.777;    6.171;   -5.164;  738.242
364.372;    5.547;   -8.604;  737.314
364.967;    2.022;   -9.055;  680.744
365.563;    5.742;   -6.114;  815.567
366.158;    3.605;   -5.814;  685.161
366.753;    3.462;   -7.854;  649.263
367.348;    1.959;   -7.804;  746.056
367.942;    2.256;   -7.954;  697.298
368.537;    0.961;   -4.984;  754.245
369.132;    1.883;   -8.564;  703.428
369.727;   -2.258;   -8.855;  638.079
370.322;   -1.229;   -6.245;  580.186
370.917;   -1.643;   -6.425;  710.646
371.511;    1.612;   -6.294;  861.834
372.106;   -2.377;   -7.685;  776.964
372.701;   -5.945;   -7.335;  585.988
373.296;    0.672;   -4.564;  863.135
373.890;   -4.682;  -10.235;  647.840
374.485;   -7.261;   -7.885;  691.199
375.079;   -3.460;   -7.324;  738.685
375.674;   -1.239;   -3.494;  812.970
376.268;   -5.315;   -8.525;  691.759
376.863;  -11.680;  -10.086;  580.327
377.457;   -5.541;   -7.025;  662.490
378.052;   -7.010;   -3.585;  764.884
378.646;   -7.909;   -7.595;  741.167
379.240;   -9.090;   -8.335;  721.176
379.835;   -7.476;   -5.785;  636.978
380.429;   -8.702;   -4.335;  562.557
381.023;   -9.551;   -6.805;  779.205
381.617;  -12.357;   -9.195;  680.106
382.212;   -9.298;   -6.905;  685.303
382.806;   -6.762;   -3.745;  760.690
383.400;  -11.503;   -7.745;  672.281
383.994;  -12.929;   -9.765;  664.870
384.588;   -9.470;   -6.564;  697.701
385.182;   -7.132;   -5.344;  726.624
385.776;   -8.769;   -8.514;  706.875
386.370;  -12.763;   -9.555;  681.968
386.964;  -11.298;   -8.715;  684.155
387.558;   -9.553;   -6.174;  598.360
388.152;  -13.540;   -8.725;  681.959
388.745;  -11.446;   -7.965;  814.707
389.339;   -9.912;   -5.924;  747.642
389.933;   -8.264;   -5.524;  695.370
390.527;   -9.253;   -7.114;  859.029
391.120;  -16.622;  -10.725;  595.318
391.714;  -13.219;   -8.035;  711.633
392.308;  -10.122;   -3.574;  780.253
392.901;  -12.986;   -7.245;  642.460
393.495;  -15.444;   -9.285;  595.414
394.089;  -13.255;   -5.895;  760.452
394.682;  -13.756;   -4.295;  697.188
395.275;  -14.345;   -9.875;  719.927
395.869;  -15.063;   -8.485;  667.314
396.462;  -14.387;   -7.455;  616.609
397.056;  -10.566;   -5.424;  776.621
397.649;  -14.243;   -6.605;  731.575
398.242;  -12.497;   -8.224;  712.645
398.836;  -11.796;   -7.474;  766.408
399.429;  -12.599;   -7.094;  631.041
400.022;  -15.676;   -9.475;  665.902
400.615;  -13.894;   -7.145;  805.609
401.208;  -11.726;   -7.174;  691.451
401.802;  -14.095;   -5.515;  699.329
402.395;  -14.128;   -9.875;  683.502
402.988;  -16.500;   -8.845;  696.627
403.581;  -13.130;   -8.874;  646.878
404.174;  -10.614;   -5.324;  686.568
404.767;  -13.457;   -9.575;  638.583
405.360;  -16.028;  -10.965;  621.445
405.953;  -10.510;   -8.764;  759.034
406.545;  -10.044;   -7.514;  725.342
407.138;  -14.492;  -10.025;  618.350
407.731;  -13.739;  -10.034;  613.303
408.324;   -9.441;   -9.374;  660.554
408.917;   -9.707;   -6.534;  681.864
409.509;  -11.359;   -8.004;  740.396
410.102;  -14.394;   -9.875;  643.948
410.695;   -8.131;   -8.604;  665.758
411.287;   -8.464;   -6.794;  599.821
411.880;   -9.431;   -9.334;  585.421
412.472;  -13.366;  -10.254;  613.092
413.065;  -10.429;   -6.714;  629.408
413.657;   -8.203;   -7.234;  576.678
414.250;   -8.549;  -10.544;  646.681
414.842;   -9.930;   -9.744;  676.353
415.434;   -7.830;   -6.994;  570.463
416.027;   -3.451;   -5.893;  652.196
416.619;   -4.387;   -7.264;  713.400
417.211;   -6.252;  -10.374;  599.352
417.804;   -3.656;   -7.993;  628.499
418.396;   -6.204;   -7.234;  607.643
418.988;   -4.110;   -9.443;  659.238
419.580;   -7.442;  -10.724;  568.276
420.172;   -5.654;  -10.323;  536.196
420.764;   -1.192;   -8.793;  672.482
421.356;   -2.661;  -11.143;  636.898
421.948;   -3.256;   -8.293;  677.661
422.540;    1.116;   -7.893;  680.027
423.132;    1.017;   -7.082;  600.641
423.724;   -1.772;   -8.653;  561.267
424.316;   -1.042;  -10.213;  621.345
424.908;    3.030;   -9.762;  591.517
425.500;    4.453;   -5.572;  647.978
426.092;    5.115;   -8.422;  648.268
426.683;    3.361;   -9.283;  684.836
427.275;    5.597;   -7.852;  641.471
427.867;    7.740;   -5.272;  668.948
428.458;    8.577;   -7.682;  732.344
429.050;    6.246;  -10.612;  680.749
429.642;    8.972;   -9.882;  743.124
430.233;    9.175;   -6.962;  569.356
430.825;   11.105;   -6.842;  724.809
431.416;    7.663;   -9.672;  698.241
432.008;   11.068;   -6.552;  651.723
432.599;   12.246;   -6.891;  656.073
433.190;    9.644;  -10.912;  637.670
433.782;    8.324;  -11.172;  590.395
434.373;   15.737;   -6.061;  884.765
434.964;   14.425;   -8.251;  602.920
435.556;   12.321;   -9.722;  634.537
436.147;   15.012;   -9.082;  758.490
436.738;   15.567;   -8.041;  701.099
437.329;   20.429;   -7.341;  721.723
437.920;   13.656;   -8.162;  666.688
438.511;   12.537;  -11.802;  564.526
439.103;   19.631;  -10.191;  623.998
439.694;   22.163;   -7.601;  681.583
440.285;   22.785;   -8.541;  764.432
440.876;   20.024;   -9.751;  845.738
441.466;   19.890;   -9.401;  575.162
442.057;   25.233;   -7.760;  665.814
442.648;   25.268;   -9.971;  746.255
443.239;   22.333;  -11.001;  620.477
443.830;   27.229;   -7.990;  704.958
444.421;   28.879;   -7.910;  655.474
445.011;   25.882;   -8.131;  693.619
445.602;   25.255;   -7.111;  743.126
446.193;   26.963;  -10.920;  488.117
446.783;   31.239;   -6.500;  640.397
447.374;   27.620;   -8.671;  692.759
447.964;   27.137;  -10.781;  713.770
448.555;   35.497;   -9.650;  822.742
449.145;   32.674;   -8.660;  662.853
449.736;   34.483;   -8.990;  803.179
450.326;   33.872;   -9.500;  713.626
450.917;   37.857;   -8.680;  675.324
451.507;   37.831;   -7.520;  600.661
452.097;   39.430;   -8.590;  746.267
452.688;   38.318;  -11.340;  742.160
453.278;   38.745;  -10.100;  566.840
453.868;   43.236;   -6.019;  793.550
454.458;   41.494;   -9.440;  651.141
455.048;   41.529;  -10.560;  711.783
455.639;   43.063;  -11.799;  567.096
456.229;   46.304;   -6.899;  710.694
456.819;   48.924;   -7.389;  751.158
457.409;   48.571;  -11.119;  773.993
457.999;   51.500;   -9.289;  737.505
458.589;   50.938;   -6.139;  686.606
459.179;   51.248;   -8.729;  717.658
459.769;   49.180;   -9.789;  627.099
460.358;   54.216;  -10.259;  797.262
460.948;   54.187;   -7.299;  689.503
461.538;   56.813;  -10.289;  660.677
462.128;   53.489;  -11.269;  664.934
462.717;   59.996;   -9.368;  710.326
463.307;   63.510;   -7.908;  705.846
463.897;   59.630;   -9.599;  656.942
464.486;   58.780;   -9.769;  837.128
465.076;   62.692;   -8.048;  733.776
465.666;   66.433;   -9.358;  652.900
466.255;   64.155;   -7.919;  785.651
466.845;   62.962;  -11.689;  666.749
467.434;   66.559;   -7.818;  725.873
468.023;   67.705;   -7.678;  658.357
468.613;   64.883;  -10.939;  713.946
469.202;   68.874;  -10.118;  646.507
469.791;   72.838;   -9.108;  737.811
470.381;   75.389;   -6.058;  742.813
470.970;   75.107;  -10.428;  711.099
471.559;   74.999;  -10.268;  733.291
472.148;   77.786;   -8.448;  675.737
472.738;   80.680;   -6.917;  765.466
473.327;   81.119;  -11.978;  637.529
473.916;   79.355;  -11.888;  737.446
474.505;   83.806;   -9.437;  751.703
475.094;   87.726;   -6.747;  806.570
475.683;   87.251;   -9.367;  797.699
476.272;   88.299;  -12.637;  730.632
476.861;   89.727;  -10.027;  706.754
477.449;   97.264;   -8.716;  728.487
478.038;   91.355;   -9.577;  692.513
478.627;   92.053;   -9.718;  714.852
479.216;   98.239;   -8.947;  769.441
479.805;  102.078;   -6.256;  783.375
480.393;  102.048;   -7.937; 1008.945
480.982;  100.307;   -7.717;  874.501
481.571;  106.954;   -9.266;  858.333
482.159;  108.108;   -7.636;  705.386
482.748;  107.786;   -9.667;  821.385
483.336;  111.376;  -10.376;  858.209
483.925;  111.940;   -7.147;  774.373
484.513;  120.007;   -7.996;  758.962
485.102;  115.700;  -10.027;  810.965
485.690;  124.084;  -10.446; 1011.050
486.278;  126.524;   -8.446;  979.329
486.867;  127.964;   -6.356;  809.662
487.455;  129.052;   -9.136;  898.229
488.043;  130.604;  -10.646;  748.361
488.631;  138.804;   -7.456; 1005.079
489.220;  143.311;   -6.636;  908.626
489.808;  143.667;  -11.036;  741.415
490.396;  151.089;  -10.246;  914.645
490.984;  156.535;   -8.556;  830.161
491.572;  167.276;   -5.886;  940.315
492.160;  172.223;   -9.486;  919.081
492.748;  184.333;  -10.976;  884.341
493.336;  207.471;   -8.776; 1019.693
493.924;  233.347;   -5.465;  958.077
494.512;  259.793;   -9.986; 1066.638
495.100;  295.953;  -10.636; 1103.280
495.687;  351.779;  -10.885; 1206.373
496.275;  415.228;   -8.126; 1150.796
496.863;  486.535;  -10.586; 1281.171
497.451;  584.056;  -11.926; 1386.805
498.038;  716.648;  -10.885; 1556.729
498.626;  822.900;   -6.315; 1741.407
499.214;  972.504;   -7.326; 2016.609
499.801; 1169.597;  -11.906; 2220.633
500.389; 1412.271;  -10.466; 2312.494
500.976; 1713.696;   -5.236; 2744.849
501.564; 2147.692;   -8.936; 3148.565
502.151; 2511.846;  -13.176; 3515.999
502.738; 2934.137;  -10.646; 3971.274
503.326; 3322.535;   -9.525; 4403.796
503.913; 3723.620;  -10.856; 5161.749
504.500; 4099.537;  -11.586; 5986.420
505.088; 4459.074;  -10.336; 6381.201
505.675; 5006.407;   -6.355; 6925.547
506.262; 5726.149;   -9.046; 7619.060
506.849; 6459.326;  -10.416; 8733.969
507.436; 6995.913;  -10.305; 9790.121
508.023; 7590.280;   -5.496; 9985.472
508.610; 7797.970;   -7.856;10434.618
509.197; 8389.372;  -10.097;11198.435
509.784; 9762.472;  -10.886;12391.194
510.371;10893.760;   -9.315;13603.713
510.958;11626.484;   -9.936;14426.586
511.545;12323.028;   -9.326;15243.775
512.132;13204.927;  -10.075;15945.876
512.719;13793.822;   -7.796;16340.369
513.305;14868.481;  -10.606;18011.766
513.892;15580.444;  -11.486;19754.971
514.479;16749.107;   -9.126;20967.805
515.066;18163.053;   -6.026;22299.793
515.652;19688.197;   -8.466;22908.660
516.239;20992.523;  -10.886;23798.875
516.825;21932.727;  -11.496;25567.275
517.412;22910.664;   -5.796;28154.959
517.998;23612.867;  -10.506;28344.111
518.585;23544.082;  -10.076;27134.219
519.171;24079.893;   -8.315;27268.576
519.758;25866.004;   -8.596;28964.129
520.344;27856.957;   -8.466;30664.494
520.930;27565.604;  -11.006;32550.605
521.516;28651.820;  -10.495;35422.895
522.103;30622.563;   -5.526;38280.004
522.689;31213.654;   -8.746;37835.117
523.275;30735.990;  -11.376;37288.613
523.861;32105.484;  -11.156;37281.395
524.447;33734.316;   -8.135;37846.949
525.033;33537.539;   -7.896;38321.949
525.619;33730.816;  -12.476;38579.285
526.205;35131.746;   -9.516;40622.875
526.791;37744.434;   -6.926;42258.836
527.377;37530.070;   -8.346;42966.902
527.963;38506.527;   -8.717;42018.949
528.549;37513.875;  -11.016;42476.828
529.135;35991.262;   -8.536;41854.852
529.721;34762.543;   -9.666;41237.711
530.306;33846.328;  -10.066;41259.445
530.892;33071.875;  -11.356;41506.047
531.478;32832.828;   -6.596;43559.613
532.063;34794.477;   -8.836;47695.563
532.649;36133.875;  -10.047;50808.324
533.235;37153.945;   -9.746;51787.500
533.820;36556.484;   -6.566;52145.035
534.406;35411.043;  -10.817;51133.488
534.991;32406.363;   -9.416;49996.805
535.576;29884.787;   -9.036;48882.852
536.162;33002.844;   -6.156;46942.285
536.747;39318.137;  -11.607;45711.746
537.333;46219.355;  -11.787;48510.180
537.918;51364.430;  -12.437;50439.891
538.503;51309.059;   -7.196;50863.711
539.088;47873.297;  -10.556;50906.922
539.673;47663.832;   -8.767;52621.965
540.259;48067.168;  -10.026;52368.094
540.844;45054.719;   -7.416;50879.109
541.429;46545.344;   -9.467;52077.777
542.014;48820.063;   -9.527;52716.695
542.599;47988.645;   -9.946;52363.281
543.184;44952.461;   -7.927;53187.137
543.769;45869.297;   -9.297;54697.605
544.354;45791.859;  -10.127;53913.914
544.938;44424.020;   -9.267;49680.164
545.523;46095.465;   -6.506;47386.277
546.108;48788.477;   -9.787;49151.949
546.693;50916.109;  -11.587;51384.637
547.278;51197.723;  -10.986;51853.254
547.862;47973.926;   -8.206;51173.750
548.447;43393.969;  -10.067;51691.395
549.031;42661.148;   -9.637;52456.703
549.616;47256.633;   -9.926;52714.516
550.201;46871.125;   -6.347;52414.598
550.785;48061.555;   -7.917;52355.059
551.370;47340.883;  -10.867;54589.453
551.954;47007.496;   -9.047;58267.348
552.538;47894.379;   -7.827;59062.176
553.123;46451.867;  -10.287;58115.285
553.707;44325.738;  -12.178;56556.285
554.291;45788.004;   -8.717;56201.668
554.876;48923.715;   -7.457;55335.762
555.460;49046.836;  -10.387;54155.703
556.044;48981.953;   -9.618;53721.484
556.628;46633.020;  -11.567;53731.016
557.212;45388.715;   -8.097;54312.531
557.796;44411.688;  -11.077;53797.773
558.380;44470.000;  -11.108;56145.984
558.964;44429.320;   -9.057;57277.930
559.548;45508.523;   -6.977;56459.641
560.132;43845.637;  -11.457;54434.543
560.716;42308.297;  -11.378;54800.617
561.300;43507.492;   -9.577;57606.945
561.884;44588.906;   -7.127;58972.445
562.467;42472.656;   -7.118;57327.570
563.051;41590.418;  -13.358;54962.434
563.635;43214.992;  -10.178;52594.473
564.219;43803.203;   -7.837;50610.410
564.802;44281.395;  -11.398;49551.180
565.386;43937.508;  -12.788;48370.953
565.969;43461.703;   -9.077;48178.871
566.553;42466.129;   -6.207;49957.305
567.136;43276.965;   -8.568;50369.594
567.720;39906.047;  -11.868;49492.004
568.303;37896.699;   -8.268;50616.352
568.887;38103.355;   -8.698;50727.148
569.470;38768.758;   -6.808;51698.379
570.053;37794.355;  -13.188;52122.078
570.637;35409.805;  -12.037;52536.438
571.220;35010.285;   -8.577;51186.098
571.803;36073.563;   -8.498;51032.762
572.386;38357.977;  -10.498;49609.887
572.969;40692.824;   -9.388;48285.926
573.552;39121.809;   -8.338;47624.285
574.135;37640.582;   -8.518;45498.641
574.718;35093.855;  -13.628;41970.434
575.301;34288.703;  -10.893;41447.137
575.884;33483.551;   -8.158;40923.836
576.467;34702.355;  -10.328;45267.723
577.050;36264.316;  -13.058;48175.543
577.633;37296.277;   -9.458;47729.328
578.216;36550.324;   -8.928;47579.793
578.799;35773.965;   -9.358;47820.996
579.381;34725.793;  -11.388;48115.551
579.964;32760.799;  -11.718;47333.766
580.547;35038.875;   -8.588;46668.969
581.129;35929.641;   -8.859;44466.141
581.712;36509.395;  -10.729;44164.922
582.294;36771.402;  -11.118;46477.855
582.877;36906.281;   -5.218;48244.254
583.459;35075.438;   -8.679;47437.895
584.042;32948.281;  -10.709;46943.219
584.624;32984.586;  -11.669;46792.227
585.206;32704.199;   -8.218;46557.250
585.789;33121.621;  -10.569;45793.773
586.371;35502.723;  -11.859;43836.391
586.953;36076.781;  -10.719;42972.492
587.536;36836.504;   -7.198;42487.211
588.118;37159.445;   -8.720;42086.414
588.700;33417.234;  -10.439;43389.930
589.282;32516.766;   -9.198;43646.039
589.864;33637.336;   -9.199;43438.109
590.446;34855.039;  -11.319;43151.926
591.028;34737.441;  -11.159;42781.867
591.610;33489.234;  -11.779;42839.098
592.192;30791.375;   -7.668;42820.402
592.774;29555.762;  -11.949;40724.277
593.356;28542.494;  -12.129;39874.789
593.937;27472.445;  -10.669;39980.648
594.519;29752.146;   -6.509;42069.633
595.101;31868.723;  -10.849;42976.031
595.683;31841.023;  -11.679;44084.441
596.264;32734.779;   -9.049;43478.797
596.846;32503.395;   -8.849;43803.672
597.427;32264.691;   -9.570;42986.934
598.009;33548.184;  -12.620;42832.219
598.591;33806.191;  -10.039;42580.086
599.172;33307.883;  -10.369;43061.805
599.753;33539.504;   -9.140;41691.469
600.335;34868.301;  -11.430;40692.520
600.916;33135.504;   -9.939;39982.422
601.498;31005.877;   -8.479;40318.617
602.079;29476.375;  -10.920;40670.609
602.660;29246.459;  -11.480;41450.898
603.241;31003.990;  -11.699;41137.738
603.823;29812.834;   -9.579;38868.797
604.404;29079.346;  -10.620;38182.785
604.985;30761.363;  -10.450;38078.047
605.566;30730.664;   -9.129;38056.633
606.147;30706.904;   -7.510;37020.418
606.728;32274.352;  -10.660;37883.359
607.309;30875.340;  -11.740;38748.273
607.890;30704.514;   -9.759;38850.230
608.471;30339.291;   -8.250;37457.918
609.051;29558.146;   -9.240;36066.457
609.632;28203.842;  -12.120;35991.074
610.213;28488.516;   -9.110;37402.641
610.794;29292.826;   -8.030;38383.363
611.374;29260.646;   -8.110;40562.387
611.955;30071.447;  -13.560;38533.727
612.536;31314.330;  -11.400;36951.789
613.116;30983.984;   -8.070;37197.891
613.697;31354.137;  -10.830;38411.125
614.277;29455.061;  -11.641;38673.938
614.858;30210.682;  -13.310;37075.863
615.438;29937.289;   -7.460;35092.906
616.019;27743.648;   -7.601;33666.301
616.599;27885.898;  -12.020;34189.023
617.179;29508.098;  -11.780;36952.047
617.760;30600.941;   -8.570;39582.574
618.340;31276.959;  -11.471;38943.977
618.920;32202.412;  -11.170;37594.156
619.500;32252.602;  -11.071;37866.938
620.080;31424.750;   -7.750;37869.043
620.660;32481.871;  -12.711;36868.617
621.241;34199.063;  -10.211;36352.309
621.821;34675.512;  -10.961;35459.520
622.401;33544.598;   -7.720;35207.414
622.980;32556.713;   -8.981;35980.422
623.560;31088.682;   -9.331;37351.328
624.140;29746.973;   -9.850;34388.582
624.720;24876.703;   -7.451;32368.764
625.300;21477.717;   -9.070;32638.629
625.880;24923.508;  -12.601;34599.035
626.459;29093.420;  -11.751;36831.738
627.039;32023.637;   -9.281;38299.098
627.619;31919.100;   -8.801;38289.574
628.198;30531.688;  -12.071;37220.695
628.778;29476.049;   -9.461;37632.563
629.357;29972.723;   -8.491;38003.012
629.937;30228.447;   -9.721;38402.039
630.516;29787.020;   -9.951;37868.801
631.096;29440.641;  -11.731;35760.410
631.675;31629.945;   -8.572;35225.219
632.254;36783.125;  -11.282;35130.289
632.834;36409.461;  -13.322;35794.570
633.413;34706.707;  -10.301;35788.922
633.992;32033.266;   -8.582;34532.863
634.571;32505.406;   -8.352;33590.113
635.151;35143.031;  -11.912;34943.863
635.730;33868.391;  -10.511;35352.523
636.309;30708.797;   -7.731;35366.605
636.888;28202.436;   -9.952;36165.637
637.467;28714.428;  -11.672;37515.902
638.046;30096.895;   -8.901;39288.695
638.625;32957.652;   -7.912;38279.699
639.204;32763.432;  -10.022;37741.598
639.782;31581.605;  -12.252;38364.551
640.361;27843.693;  -10.041;36740.621
640.940;25116.730;  -11.161;34950.082
641.519;25902.475;   -9.701;34137.398
642.097;28883.432;  -11.271;35654.258
642.676;31627.365;   -8.651;35637.957
643.255;32726.637;   -8.711;36567.074
643.833;31889.262;   -9.581;37809.434
644.412;32042.023;  -13.711;37337.293
644.990;31225.846;  -11.811;37018.531
645.569;31145.342;   -9.411;36518.469
646.147;30464.918;  -10.291;36186.430
646.726;30431.203;  -12.401;36267.688
647.304;31296.984;  -10.411;36647.625
647.882;32633.461;   -9.651;39286.742
648.461;34261.129;   -9.631;39157.703
649.039;32785.355;  -11.881;35412.883
649.617;31792.303;   -9.661;34744.918
650.195;30856.596;   -9.301;35403.098
650.773;29499.344;  -10.511;35053.797
651.352;27374.533;  -11.521;33756.816
651.930;25230.543;  -12.211;31868.773
652.508;23770.322;   -9.171;33121.551
653.086;27582.988;   -9.371;33564.793
653.663;30566.453;  -13.161;34054.668
654.241;29160.086;  -13.031;35693.309
654.819;30429.125;   -9.371;36422.906
655.397;30384.467;  -10.511;38213.484
655.975;30077.057;  -10.371;39507.625
656.553;29640.225;  -10.051;39498.223
657.130;28053.664;  -10.061;40395.480
657.708;27457.209;   -9.561;39242.020
658.286;27642.678;  -11.511;38920.020
658.863;28885.373;  -10.261;40202.898
659.441;32264.711;   -7.531;39677.938
660.018;32314.920;   -9.501;40413.355
660.596;30979.842;  -13.301;39931.414
661.173;32440.318;  -11.211;39604.531
661.750;32740.301;   -9.951;39700.070
662.328;31588.525;   -9.390;39292.809
662.905;30698.424;  -11.330;38235.648
663.482;26520.563;   -9.050;36212.305
664.060;24694.928;   -8.240;35944.945
664.637;27620.861;  -10.050;35170.785
665.214;29022.211;  -11.760;34197.523
665.791;30452.721;  -10.530;34549.520
666.368;29552.506;   -9.690;35118.578
666.945;30097.502;   -9.320;36019.418
667.522;31618.668;  -11.860;36048.438
668.099;31430.451;  -10.770;36243.914
668.676;30117.930;   -6.260;35958.875
669.253;28832.064;   -7.000;37384.730
669.830;29147.869;  -10.190;36779.629
670.407;29126.020;   -9.550;35231.289
670.984;29078.855;   -9.260;35544.270
671.560;29854.221;   -9.280;35466.867
672.137;29104.857;  -11.810;34280.863
672.714;30019.318;  -11.490;34632.863
673.290;31080.793;   -7.740;35135.422
673.867;31143.588;  -10.660;36114.480
674.443;30873.521;  -12.230;36152.859
675.020;28901.723;  -10.450;35327.238
675.596;29848.773;   -9.260;35795.176
676.173;30493.596;  -10.780;35430.355
676.749;30158.105;  -13.690;33549.516
677.326;29992.777;  -11.980;32210.012
677.902;29880.217;   -8.630;32068.871
678.478;29351.578;  -10.730;32583.891
679.054;28521.354;  -10.520;32088.928
679.631;28752.869;  -11.920;30978.848
680.207;30140.182;   -7.490;33160.887
680.783;31656.094;   -9.860;35570.363
681.359;30848.133;  -13.380;36125.184
681.935;30729.223;  -12.480;35240.922
682.511;30619.396;   -7.900;34429.961
683.087;30972.287;   -7.710;34463.680
683.663;30121.367;  -11.480;34648.898
684.239;28611.506;  -14.090;34546.457
684.815;28058.990;   -7.560;35586.375
685.390;28162.793;   -9.910;35821.895
685.966;28541.959;  -11.159;35085.871
686.542;31006.211;  -11.169;34198.230
687.118;33511.688;   -5.959;32847.707
687.693;34097.012;  -10.329;32794.027
688.269;33760.285;  -12.059;33072.367
688.844;31944.686;  -10.909;33141.664
689.420;29887.291;   -8.019;33965.742
689.995;27959.006;   -8.399;34655.523
690.571;26381.332;  -10.949;33576.742
691.146;26429.545;   -9.619;32657.219
691.722;26394.646;   -8.999;32526.979
692.297;26079.182;  -11.589;33014.617
692.872;27514.805;  -11.739;34012.254
693.448;27322.201;  -11.059;34237.434
694.023;26371.188;  -10.139;34142.672
694.598;28253.502;   -9.029;34132.031
695.173;28885.129;  -13.319;34205.250
695.748;27864.529;  -10.169;32882.488
696.323;27736.424;   -8.339;32864.906
696.898;28043.645;   -8.169;33170.004
697.473;28314.734;  -12.309;32432.984
698.048;27754.939;  -10.989;31649.303
698.623;27512.652;   -9.329;30778.141
699.198;29041.305;   -9.849;31140.119
699.773;30327.500;  -12.329;31764.299
700.348;28970.168;  -10.389;31780.816
700.922;28780.100;   -9.269;32046.375
701.497;29842.701;   -9.329;32603.574
702.072;30187.777;  -10.789;34799.871
702.646;28709.842;  -10.839;35793.172
703.221;26523.117;   -9.099;35201.590
703.795;28418.525;  -10.939;34764.527
704.370;28936.561;  -12.859;34307.367
704.944;29208.697;  -11.559;33509.887
705.519;29837.758;   -7.939;31388.584
706.093;31119.070;  -10.499;31340.104
706.668;31462.887;  -11.289;32630.281
707.242;30404.246;  -11.509;32728.779
707.816;29127.820;   -9.639;32947.238
708.390;27478.311;  -11.429;33277.855
708.965;27917.506;  -11.869;33834.336
709.539;28134.654;  -11.689;33709.273
710.113;28330.129;  -10.478;33044.313
710.687;27772.111;  -10.228;31953.992
711.261;26095.953;  -13.698;30505.949
711.835;25838.135;  -13.378;30262.369
712.409;26348.465;   -9.698;31254.447
712.983;28458.873;  -11.898;32754.986
713.557;29757.750;  -15.138;34018.824
714.131;29564.195;  -14.098;34579.625
714.704;28584.311;   -9.958;33890.262
715.278;26078.045;  -10.028;33531.102
715.852;24908.059;  -11.148;33601.660
716.425;26027.395;   -9.068;33515.117
716.999;27111.230;  -10.038;33185.555
717.573;27911.527;   -9.798;33905.996
718.146;28897.217;  -12.378;35199.293
718.720;28907.658;  -11.918;35060.551
719.293;28688.529;   -8.088;34973.230
719.867;31752.275;  -10.888;36394.449
720.440;31613.627;  -11.938;36663.008
721.013;29861.705;  -12.818;35102.426
721.587;28256.777;  -10.298;33985.266
722.160;27057.387;  -10.048;33524.965
722.733;25989.922;  -12.108;32987.043
723.306;26186.072;  -10.818;33066.301
723.880;28438.105;   -8.908;33399.500
724.453;30742.320;   -9.878;33468.297
725.026;30050.748;  -11.188;33816.637
725.599;27209.230;  -11.678;32797.996
726.172;27131.842;   -9.618;33187.434
726.745;28152.514;   -8.258;35136.613
727.318;29481.324;  -12.978;35751.730
727.891;30165.920;  -12.148;35890.430
728.463;29665.422;   -8.968;34822.090
729.036;28275.184;  -10.188;32895.086
729.609;28690.014;  -11.788;31823.225
730.182;25892.162;  -11.788;31445.283
730.754;23589.410;  -10.268;32373.223
731.327;24021.658;   -9.998;33676.820
731.900;24503.646;  -12.228;33417.000
732.472;25295.535;  -13.848;31978.498
733.045;26673.195;   -8.698;30368.777
733.617;26606.014;  -10.607;30574.215
734.190;26756.992;  -11.507;31280.975
734.762;24495.840;  -13.647;31674.412
735.334;22839.266;   -9.767;31247.291
735.907;23407.234;   -9.897;29876.211
736.479;23646.834;  -11.637;29808.488
737.051;23090.539;   -9.567;30233.547
737.623;23594.119;   -8.187;31469.086
738.195;24025.141;  -11.187;31784.225
738.768;26178.559;  -12.337;32120.523
739.340;26958.336;  -12.227;32094.342
739.912;25920.633;  -11.057;31312.680
740.484;24372.857;  -10.207;31946.238
741.056;22712.408;  -10.047;32984.059
741.628;23801.037;  -13.627;33897.715
742.199;25959.137;   -7.177;33213.016
742.771;24849.127;  -10.797;31369.113
743.343;22872.145;  -11.997;31865.473
743.915;22009.520;  -12.867;32388.631
744.487;22036.035;   -7.617;31079.568
745.058;22091.299;   -9.557;30570.107
745.630;22695.248;   -9.877;29970.127
746.201;23914.434;  -14.177;29186.766
746.773;24594.568;   -9.237;28805.723
747.344;24356.574;   -9.847;29591.223
747.916;22596.563;  -11.657;31412.201
748.487;22715.230;  -10.587;32194.898
749.059;24071.680;   -8.707;32533.719
749.630;24794.260;  -10.537;32158.518
750.201;23907.793;  -11.687;30855.395
750.773;22178.955;  -11.647;28622.555
751.344;21898.334;   -7.147;28405.732
751.915;22809.816;   -9.757;28461.551
752.486;22932.816;  -12.427;27842.850
753.057;20932.541;  -12.227;27845.008
753.628;19652.627;  -10.417;27728.107
754.199;20559.549;  -11.767;27381.086
754.770;21697.748;  -11.187;25882.203
755.341;21979.195;  -10.507;25886.184
755.912;22074.242;   -9.387;26050.861
756.483;21476.025;  -10.647;26798.779
757.054;19677.580;  -11.837;27048.238
757.625;18267.943;  -12.716;26294.838
758.195;18081.072;   -9.666;26142.076
758.766;17777.879;   -8.656;26392.234
759.337;18332.439;  -12.856;26334.594
759.907;19848.018;  -13.366;27579.652
760.478;20808.498;   -8.576;28352.770
761.048;20266.816;  -10.526;27325.088
761.619;19325.281;  -11.116;26460.428
762.189;19370.504;  -12.136;26029.826
762.760;20476.072;   -9.456;26430.145
763.330;21715.270;   -7.136;26670.902
763.900;21315.496;  -11.786;26603.021
764.471;18840.328;  -11.546;25542.740
765.041;17427.814;   -8.096;24358.459
765.611;17258.773;   -8.876;23991.297
766.181;17504.748;  -12.196;24470.236
766.751;18658.291;  -11.636;24845.975
767.321;18538.033;  -10.156;24533.633
767.891;16485.896;  -11.766;24916.492
768.461;15833.103;  -14.936;24776.771
769.031;16278.488;  -12.356;24757.988
769.601;17922.170;   -7.526;24181.088
770.171;17956.801;  -10.766;23670.387
770.741;17022.949;  -13.176;22960.045
771.311;17093.100;  -10.616;22917.523
771.880;17691.295;   -9.576;23562.941
772.450;17652.631;  -10.336;24216.500
773.020;17653.250;  -13.516;24140.398
773.589;16787.719;  -13.466;24414.857
774.159;16009.762;   -8.686;23858.717
774.729;15567.479;   -9.476;22942.135
775.298;15182.311;  -13.666;22324.033
775.867;14791.648;  -11.716;21140.313
776.437;14983.019;   -9.906;20838.092
777.006;14744.864;  -12.166;20599.510
777.576;14376.257;  -12.356;20508.809
778.145;14398.266;  -11.646;20732.947
778.714;14518.999;   -8.226;21062.465
779.283;14025.848;   -9.556;20949.664
779.853;13528.831;  -14.116;20508.623
780.422;13948.998;  -11.506;20649.082
780.991;13511.765;   -9.556;21527.520
781.560;12183.648;   -9.095;22632.658
782.129;11917.138;  -12.135;23048.277
782.698;11905.113;  -10.865;23438.555
783.267;11576.854;   -9.335;23267.734
783.836;11535.715;  -11.045;22415.133
784.404;12512.538;  -13.865;20443.152
784.973;13184.674;  -13.095;19699.150
785.542;13290.864;  -11.575;19763.828
786.111;13094.664;   -9.705;20341.408
786.679;12578.353;  -12.105;20207.967
787.248;12279.550;  -12.455;19516.465
787.817;12105.206;  -11.535;18900.363
788.385;11806.333;   -9.765;17879.121
788.954;11276.529;  -14.005;17658.301
789.522;10582.149;  -11.955;17788.879
790.090;10922.555;  -10.135;18118.277
790.659;11495.274;  -10.975;18338.736
791.227;11182.223;  -13.375;18508.615
791.795;11616.519;  -12.375;17898.254
792.364;11939.106;  -10.725;17295.133
792.932;12229.935;   -9.715;16822.051
793.500;12479.089;  -12.675;17040.148
794.068;12693.516;  -13.495;17179.787
794.636;12838.649;  -10.885;16664.246
795.204;12174.672;  -11.045;16524.545
795.772;12159.890;  -13.175;17274.564
796.340;11688.827;  -12.445;17891.002
796.908;11453.942;   -9.735;17648.561
797.476;11327.076;   -9.815;17064.080
798.044;10912.225;  -13.985;16672.777
798.612;10158.387;  -13.115;17023.996
799.180; 9792.087;  -10.185;16561.615
799.747; 9661.073;   -9.055;15962.773
800.315; 9362.129;  -12.385;15296.992
800.883; 9148.832;  -15.035;14801.771
801.450; 9318.388;  -10.365;14534.430
802.018; 9415.364;   -9.855;14173.248
802.585; 9447.403;  -11.905;14029.547
803.153; 9423.635;  -11.585;13836.846
803.720; 9218.354;   -9.095;13567.324
804.287; 8725.110;   -9.135;13360.622
804.855; 8231.126;  -11.604;13681.981
805.422; 8096.911;  -11.794;13536.560
805.989; 8185.619;  -10.734;13355.958
806.556; 8399.826;  -10.444;13747.896
807.124; 8659.543;  -12.764;13987.376
807.691; 8599.229;  -12.964;14038.674
808.258; 8421.581;  -11.134;14120.152
808.825; 8104.653;   -9.854;13860.111
809.392; 8190.863;  -10.504;13268.790
809.959; 7698.091;  -13.054;12680.389
810.526; 7225.167;   -8.294;12427.308
811.093; 7223.855;   -8.394;12030.105
811.659; 7860.788;  -12.304;11653.664
812.226; 8446.609;  -13.944;11637.183
812.793; 8175.589;  -10.484;11611.521
813.360; 7500.762;  -10.144;11885.181
813.926; 7164.751;  -11.684;12770.539
814.493; 6987.359;  -13.644;12677.638
815.060; 6638.724;   -9.724;11974.336
815.626; 6600.673;   -9.854;11594.715
816.193; 6959.802;  -13.254;11579.474
816.759; 6975.784;  -13.204;11666.972
817.325; 7001.919;   -9.434;11325.530
817.892; 7345.987;  -10.134;11105.369
818.458; 7779.778;  -13.474;10843.928
819.024; 7435.720;  -11.854;10714.406
819.591; 7113.979;  -10.244;10469.165
820.157; 6925.245;  -10.704;10235.523
820.723; 6427.557;  -12.324;10847.563
821.289; 6087.373;   -9.444;11040.980
821.855; 5995.407;   -8.374;10357.100
822.421; 5955.462;  -10.234; 9978.918
822.987; 5931.975;  -13.294; 9754.177
823.553; 5568.118;  -10.884;10065.755
824.119; 5365.700;   -8.884;10036.294
824.685; 5499.677;   -6.784;10029.192
825.251; 5639.874;  -12.004;10199.230
825.816; 5592.581;  -11.474; 9820.189
826.382; 5311.511;   -9.174; 9297.248
826.948; 5448.680;   -9.214; 9381.347
827.513; 5840.583;  -10.774; 9450.726
828.079; 5708.731;  -11.924; 9472.444
828.645; 5111.223;  -10.543; 9292.643
829.210; 4933.109;  -10.533; 9065.341
829.776; 4906.317;  -10.753; 9132.620
830.341; 4788.403;  -10.173; 9092.878
830.906; 4938.243;  -10.743; 9078.557
831.472; 5265.174;  -11.113; 8534.535
832.037; 5062.865;  -10.603; 8677.874
832.602; 4565.476;  -13.323; 8628.692
833.167; 4332.055;  -10.823; 8879.031
833.733; 4294.243;  -10.113; 9189.790
834.298; 4433.629;  -13.583; 9052.608
834.863; 4560.805;  -12.703; 8895.087
835.428; 4556.278;  -10.523; 8824.266
835.993; 4389.805;   -6.963; 8845.385
836.558; 4211.204;  -10.763; 8888.563
837.123; 4295.951;   -9.903; 8966.582
837.688; 4559.846;   -9.913; 8617.860
838.253; 4825.161;  -10.283; 8590.699
838.817; 5017.331;  -12.963; 8443.797
839.382; 4933.854;  -14.243; 8799.356
839.947; 4621.303;  -10.733; 8810.595
840.511; 4315.287;   -9.383; 8796.394
841.076; 3932.047;  -12.563; 8347.231
841.641; 3991.527;  -12.953; 8224.330
842.205; 4112.279;   -7.043; 8223.349
842.770; 4159.176;   -8.163; 8622.107
843.334; 4287.816;  -12.503; 8410.386
843.898; 4250.370;  -11.693; 8337.465
844.463; 4250.718;  -10.203; 8506.283
845.027; 4037.152;   -9.533; 8280.962
845.591; 3851.620;  -13.443; 8231.141
846.156; 3851.636;  -13.143; 7969.179
846.720; 3766.126;   -9.433; 7768.278
847.284; 3656.595;  -11.033; 7630.957
847.848; 3521.129;  -10.403; 7472.395
848.412; 3421.128;  -11.553; 7437.394
848.976; 3451.271;   -8.393; 7674.592
849.540; 3362.293;   -8.713; 7836.011
850.104; 3423.518;  -12.463; 7913.669
850.668; 3779.981;  -12.973; 7694.508
851.232; 3946.216;  -10.793; 7756.887
851.796; 3813.344;  -10.662; 7926.545
852.359; 3490.189;  -13.082; 7827.844
852.923; 3305.489;  -12.192; 7641.163
853.487; 3164.515;  -11.912; 7342.501
854.050; 3136.870;  -10.892; 7042.820
854.614; 3267.823;  -13.992; 7151.338
855.177; 3380.548;  -11.732; 7105.077
855.741; 3420.695;   -8.962; 6989.675
856.304; 3320.615;   -9.442; 6596.634
856.868; 3289.240;  -14.192; 6356.272
857.431; 3416.271;  -12.702; 6468.571
857.995; 3563.315;   -9.942; 6373.210
858.558; 3595.112;   -9.112; 6324.448
859.121; 3324.094;  -12.932; 6408.327
859.684; 3141.812;  -13.442; 6347.886
860.247; 3242.230;  -10.632; 6321.264
860.810; 3270.956;  -11.272; 6301.903
861.374; 3020.107;   -9.832; 6607.881
861.937; 2754.438;  -11.762; 6408.200
862.500; 2748.758;   -9.722; 6572.639
863.062; 2902.357;  -10.512; 6387.297
863.625; 3044.503;  -11.232; 6190.836
864.188; 3206.264;  -14.112; 5807.254
864.751; 3306.279;  -11.302; 5682.413
865.314; 3229.937;  -10.112; 5547.492
865.876; 2998.410;  -12.182; 5500.150
866.439; 2956.626;  -10.722; 5415.909
867.002; 2918.760;   -9.252; 5501.567
867.564; 2739.758;   -9.572; 5413.946
868.127; 2522.190;  -13.142; 5160.325
868.689; 2395.116;  -12.902; 5133.183
869.252; 2285.183;   -9.732; 5252.382
869.814; 2175.831;   -9.432; 5297.141
870.377; 2175.262;  -11.552; 5390.919
870.939; 2246.969;   -9.052; 5599.898
871.501; 2326.280;  -10.982; 5248.336
872.063; 2352.803;  -12.292; 4854.235
872.626; 2299.725;  -14.912; 4817.074
873.188; 2293.427;  -13.112; 4987.732
873.750; 2264.284;  -13.442; 4868.651
874.312; 2182.289;   -9.402; 4779.330
874.874; 2103.136;  -11.062; 4866.348
875.436; 2020.241;  -13.931; 4718.887
875.998; 2007.716;   -9.561; 4660.005
876.560; 2035.234;  -11.321; 4462.964
877.122; 1977.008;  -12.221; 4145.042
877.683; 1876.354;  -12.191; 4056.481
878.245; 1796.438;  -12.101; 3950.740
878.807; 1838.292;   -8.971; 4058.958
879.369; 1865.623;  -12.071; 3954.677
879.930; 1771.392;  -14.621; 3941.495
880.492; 1701.211;  -10.311; 4067.014
881.053; 1677.471;  -10.901; 3859.633
881.615; 1581.736;  -14.411; 3776.071
882.176; 1483.416;  -13.761; 3734.750
882.738; 1430.978;   -9.181; 3678.489
883.299; 1411.539;  -11.791; 3405.407
883.860; 1409.404;  -13.121; 3351.106
884.422; 1397.613;  -11.211; 3394.044
884.983; 1351.136;  -10.091; 3166.443
885.544; 1288.316;   -8.461; 3189.802
886.105; 1243.375;  -12.361; 3160.360
886.666; 1195.781;  -14.141; 3093.059
887.227; 1057.396;  -11.361; 2941.957
887.788;  831.915;  -11.401; 2974.836
888.349;  627.160;  -13.791; 2721.214
888.910;  544.423;  -13.191; 2696.493
889.471;  533.435;   -9.881; 2560.172
890.032;  542.737;   -9.881; 2558.190
890.593;  556.198;  -10.371; 2567.669
891.153;  570.482;  -13.301; 2460.307
891.714;  570.158;  -11.431; 2372.046
892.275;  569.088;  -11.291; 2309.505
892.835;  562.007;  -11.471; 2382.543
893.396;  534.485;  -11.541; 2295.502
893.956;  494.026;  -11.181; 2162.420
894.517;  465.578;  -11.741; 2125.439
895.077;  463.844;  -11.671; 2086.978
895.638;  469.835;  -11.311; 2126.316
896.198;  448.975;   -9.831; 1838.275
896.758;  415.376;   -8.421; 1892.813
897.319;  389.277;  -12.351; 1792.232
897.879;  376.073;  -13.511; 1762.751
898.439;  354.984;  -12.001; 1661.149
898.999;  332.157;  -10.180; 1781.468
899.559;  325.507;  -12.030; 1703.347
900.119;  320.372;  -15.710; 1537.525
900.679;  317.793;   -8.900; 1638.384
901.239;  305.770;   -8.340; 1527.902
901.799;  298.401;  -13.910; 1456.441
902.359;  291.842;  -13.460; 1357.140
902.919;  285.970;  -11.490; 1331.118
903.479;  274.375;  -12.110; 1317.257
904.038;  255.638;  -11.720; 1262.595
904.598;  241.931;  -13.610; 1152.034
905.158;  238.681;  -11.040; 1240.893
905.717;  231.987;  -10.900; 1233.691
906.277;  221.358;  -15.080; 1217.330
906.836;  211.803;  -13.380; 1222.408
907.396;  202.688;  -10.780; 1193.047
907.955;  195.557;   -8.500; 1182.526
908.515;  190.645;  -12.760; 1099.364
909.074;  184.239;  -11.900; 1092.863
909.633;  179.163;   -8.950; 1069.121
910.192;  176.349;   -8.770; 1196.460
910.752;  171.123;  -12.390; 1029.960
911.311;  166.759;  -13.680; 1009.780
911.870;  163.914;  -12.370;  971.460
912.429;  165.963;  -10.900; 1094.080
912.988;  164.464;  -11.690; 1081.060
913.547;  159.240;  -13.240;  940.380
914.106;  155.769;  -11.990;  999.420
914.665;  152.962;   -9.990;  984.020
915.224;  151.665;  -12.880; 1035.760
915.782;  151.645;  -12.350;  922.560
916.341;  150.917;   -9.110; 1049.840
916.900;  147.463;   -9.270;  925.260
917.458;  146.149;  -13.240;  884.220
918.017;  145.455;  -13.550;  942.600
918.576;  144.774;  -12.320;  904.440
919.134;  143.153;  -11.490;  837.980
919.693;  141.584;  -13.670;  893.060
920.251;  139.326;  -15.470;  876.500
920.809;  138.704;  -11.290;  839.580
921.368;  138.294;  -10.210;  885.360
921.926;  138.368;  -12.140;  842.940
922.484;  135.605;  -13.080;  903.360
923.042;  135.277;  -11.720;  880.340
923.601;  138.942;   -7.480;  998.680
924.159;  137.255;  -11.570;  935.560
924.717;  133.542;  -13.840;  841.080
925.275;  132.949;  -10.640;  903.240
925.833;  132.346;  -11.540;  779.320
926.391;  134.204;  -12.960;  938.380
926.949;  132.030;  -14.130;  857.680
927.506;  132.509;  -11.750;  903.500
928.064;  133.292;  -10.250;  877.580
928.622;  132.179;  -13.030;  880.100
929.180;  131.068;  -13.400;  814.180
929.737;  132.042;  -10.700;  808.540
930.295;  136.540;  -10.070;  928.480
930.853;  138.293;  -11.960;  849.100
931.410;  138.270;  -13.120;  821.120
931.968;  137.099;  -10.770;  940.660
932.525;  138.278;  -10.680;  909.380
933.082;  138.167;  -13.130;  811.440
933.640;  138.330;  -13.210;  925.900
934.197;  136.422;  -11.060;  886.360
934.754;  139.217;   -9.580;  897.780
935.312;  141.461;  -14.000;  863.340
935.869;  145.732;  -10.710; 1012.980
936.426;  144.946;   -9.860;  872.800
936.983;  146.977;   -9.710;  889.020
937.540;  146.265;  -13.990;  838.280
938.097;  144.607;  -14.040;  940.120
938.654;  144.816;  -10.310;  898.860
939.211;  148.325;  -10.560;  952.480
939.768;  152.847;  -13.900;  915.420
940.324;  154.604;  -14.760;  904.200
940.881;  155.729;  -10.370;  878.500
941.438;  157.505;   -8.260; 1021.200
941.995;  153.828;  -12.540;  992.560
942.551;  149.035;  -14.670;  875.620
943.108;  149.699;  -10.450;  937.920
943.664;  152.188;  -10.750;  869.340
944.221;  155.885;  -11.550; 1088.140
944.777;  152.649;  -14.770;  869.680
945.334;  153.495;  -12.820;  884.840
945.890;  154.787;  -10.130;  946.480
946.446;  155.802;  -13.470;  947.020
947.003;  157.190;  -12.120;  964.940
947.559;  160.203;   -9.980; 1063.040
948.115;  159.700;   -9.080; 1026.540
948.671;  159.281;  -10.830;  967.300
949.227;  155.122;  -12.440;  859.560
949.783;  152.929;  -12.910;  858.900
950.339;  155.467;  -10.270;  991.000
950.895;  155.117;  -13.630; 1023.840
951.451;  153.484;  -15.100;  925.280
952.007;  153.624;  -11.330;  998.540
952.563;  152.546;  -10.580;  937.780
953.118;  151.996;  -13.440;  904.940
953.674;  150.536;  -12.710;  935.780
954.230;  151.592;  -10.350;  949.640
954.785;  149.084;   -9.190;  936.640
955.341;  148.426;  -11.200;  998.160
955.897;  146.104;  -16.560;  834.660
956.452;  146.970;  -12.570;  953.840
957.008;  146.858;   -7.970; 1083.640
957.563;  145.301;  -11.940; 1009.540
958.118;  138.758;  -13.450;  877.700
958.674;  138.983;  -12.030;  946.780
959.229;  141.533;   -9.410; 1013.980
959.784;  139.388;  -12.000;  832.400
960.339;  137.720;  -14.780; 1001.280
960.894;  133.997;   -9.860;  963.760
961.449;  131.217;   -9.970;  859.960
962.004;  131.097;  -10.900; 1212.840
962.559;  124.504;  -13.150;  860.140
963.114;  122.351;  -13.740;  742.480
963.669;  122.155;   -9.820;  915.500
964.224;  120.941;  -13.890;  874.340
964.779;  118.799;  -12.600;  828.420
965.334;  120.138;  -10.950; 1017.860
965.888;  119.732;  -11.170;  875.360
966.443;  123.100;  -12.540;  972.380
966.998;  121.582;  -15.780;  819.460
967.552;  121.086;   -9.760;  908.380
968.107;  118.086;   -9.060;  868.300
968.661;  118.784;  -11.950;  922.440
969.216;  118.724;  -12.800;  856.280
969.770;  118.225;  -11.210;  917.200
970.324;  117.342;  -11.610;  923.140
970.879;  115.245;  -11.370;  947.180
971.433;  111.592;  -12.540;  952.720
971.987;  106.572;  -11.320;  895.340
972.541;  103.261;  -10.720;  917.100
973.095;  103.510;   -9.680; 1009.460
973.649;  101.557;  -11.440;  809.480
974.203;  100.367;  -11.210;  829.040
974.757;   99.961;  -10.240;  855.220
975.311;  101.916;  -13.720;  872.600
975.865;  100.104;  -13.770;  881.820
976.419;   98.659;  -11.690;  857.400
976.973;   98.392;   -9.510;  849.620
977.526;  100.411;  -12.620;  949.920
978.080;   98.581;  -12.010;  796.780
978.634;   99.561;  -10.170;  921.320
979.187;   98.110;   -9.020;  905.400
979.741;   96.074;   -9.820; 1018.380
980.294;   91.166;  -14.870;  789.160
980.848;   88.410;  -12.380;  717.220
981.401;   91.166;  -10.350;  816.540
981.955;   93.919;  -13.720;  844.300
982.508;   91.754;  -11.490;  746.340
983.061;   91.533;  -10.000;  915.260
983.615;   88.245;  -11.480;  798.800
984.168;   85.714;  -13.220;  770.080
984.721;   84.860;  -13.960;  880.760
985.274;   83.878;  -10.870;  867.500
985.827;   83.185;   -9.790;  834.220
986.380;   80.676;  -13.120;  721.340
986.933;   80.099;  -12.450;  864.800
987.486;   77.899;  -10.210;  861.920
988.039;   77.423;   -8.430;  863.100
988.591;   75.738;  -10.520;  893.260
989.144;   72.136;  -14.860;  737.260
989.697;   72.085;  -13.080;  758.740
990.250;   72.930;  -10.150;  858.100
990.802;   71.079;  -13.430;  755.860
991.355;   71.865;  -12.750;  974.880
991.907;   70.176;  -12.040;  864.320
992.460;   68.487;  -11.330;  753.760
993.012;   67.252;  -13.610;  749.540
993.565;   65.678;  -13.460;  711.360
994.117;   67.311;   -9.360;  950.780
994.669;   64.372;  -11.300;  701.320
995.221;   62.767;  -13.540;  791.920
995.774;   59.834;  -13.430;  787.580
996.326;   58.688;  -12.520;  740.220
996.878;   59.187;  -10.950;  838.420
997.430;   57.521;  -14.300;  699.860
997.982;   56.009;  -13.760;  750.140
998.534;   55.006;  -11.530;  739.060
999.086;   54.393;  -10.310;  738.220
999.638;   52.734;  -12.530;  661.380
1000.190;   51.565;  -11.840;  699.320
1000.741;   51.657;  -10.260;  742.700
1001.293;   51.829;   -8.860;  686.020
1001.845;   50.188;  -13.700;  676.640
1002.396;   50.142;  -12.100;  743.400
1002.948;   49.909;  -12.760;  737.400
1003.500;   48.898;  -10.380;  723.780
1004.051;   49.593;  -11.900;  907.580
1004.603;   46.880;  -12.250;  791.820
1005.154;   43.535;  -13.210;  608.980
1005.705;   43.265;  -10.950;  723.960
1006.257;   42.624;  -13.880;  707.220
1006.808;   41.418;  -12.840;  685.460
1007.359;   40.085;  -10.570;  763.240
1007.910;   39.427;   -9.620;  646.640
1008.461;   40.358;  -13.630;  732.940
1009.013;   38.370;  -17.200;  588.340
1009.564;   39.257;  -10.200;  793.520
1010.115;   37.819;  -12.570;  597.040
1010.665;   38.269;  -15.150;  602.160
1011.216;   37.130;  -14.480;  667.920
1011.767;   36.661;  -11.340;  697.920
1012.318;   37.397;   -9.780;  736.980
1012.869;   36.492;  -12.380;  679.000
1013.419;   34.693;  -15.560;  603.120
1013.970;   35.433;  -11.010;  666.640
1014.521;   34.539;  -11.610;  620.620
1015.071;   35.494;  -13.450;  670.380
1015.622;   34.724;  -13.870;  635.460
1016.172;   34.307;  -11.610;  596.820
1016.723;   33.683;  -12.120;  614.380
1017.273;   34.043;  -13.620;  604.160
1017.823;   33.754;  -14.140;  650.340
1018.374;   32.842;  -12.800;  611.760
1018.924;   33.595;  -12.340;  716.880
1019.474;   33.214;  -11.410;  718.880
1020.024;   31.673;  -14.770;  657.580
1020.574;   32.248;   -9.780;  726.160
1021.124;   33.541;   -8.560;  673.580
1021.674;   31.222;  -15.190;  559.120
1022.224;   32.711;  -13.530;  708.940
1022.774;   31.615;  -13.280;  668.820
1023.324;   32.773;  -10.690;  753.520
1023.874;   33.958;  -10.240;  875.760
1024.423;   30.524;  -12.540;  613.700
1024.973;   30.778;  -10.010;  610.760
1025.523;   30.486;  -10.550;  620.960
1026.072;   30.402;  -13.560;  606.420
1026.622;   30.023;  -15.120;  675.740
1027.172;   29.907;  -11.260;  715.660
1027.721;   29.267;  -11.410;  601.220
1028.270;   30.380;  -13.530;  663.400
1028.820;   29.593;  -13.680;  638.080
1029.369;   28.375;  -13.520;  612.700
1029.918;   29.145;  -10.980;  649.840
1030.468;   28.653;  -13.530;  564.780
1031.017;   28.896;  -13.170;  634.800
1031.566;   27.442;  -12.200;  608.900
1032.115;   29.075;   -9.960;  694.500
1032.664;   27.739;  -13.210;  596.480
1033.213;   28.029;  -12.500;  735.420
1033.762;   26.575;  -11.910;  635.620
1034.311;   28.111;   -9.640;  677.220
1034.860;   27.770;  -13.310;  691.000
1035.408;   27.537;  -11.830;  722.720
1035.957;   28.491;  -12.000;  719.540
1036.506;   25.553;  -11.690;  530.800
1037.055;   28.815;  -10.990;  844.320
1037.603;   26.690;  -15.120;  664.000
1038.152;   24.458;  -12.450;  534.760
1038.700;   25.419;  -10.560;  585.740
1039.249;   24.797;  -11.080;  681.220
1039.797;   25.535;  -12.540;  633.360
1040.345;   25.217;  -11.920;  705.420
1040.894;   25.784;  -11.410;  625.300
1041.442;   25.204;  -14.320;  632.200
1041.990;   23.913;  -16.240;  559.160
1042.538;   23.222;  -11.680;  536.180
1043.087;   24.051;  -10.760;  570.860
1043.635;   25.655;  -11.850;  670.500
1044.183;   23.496;  -15.480;  586.400
1044.731;   23.269;  -11.770;  576.000
1045.279;   23.675;  -13.090;  674.920
1045.827;   25.890;  -12.440;  892.400
1046.374;   22.882;  -13.840;  515.420
1046.922;   22.107;  -13.220;  590.580
1047.470;   23.256;  -10.230;  691.300
1048.018;   23.586;  -14.590;  647.960
1048.565;   24.029;  -12.050;  708.600
1049.113;   21.680;  -11.650;  557.000
1049.660;   21.799;  -10.510;  629.660
1050.208;   22.837;  -13.310;  675.640
1050.755;   21.374;  -15.900;  606.580
1051.303;   21.837;  -11.430;  686.820
1051.850;   21.263;   -8.480;  635.120
1052.397;   19.576;  -15.010;  473.960
1052.945;   21.073;  -13.960;  617.760
1053.492;   22.199;  -13.150;  741.840
1054.039;   22.144;   -9.630;  720.180
1054.586;   21.628;  -13.680;  557.240
1055.133;   21.453;  -14.570;  693.140
1055.680;   21.248;  -13.820;  646.620
1056.227;   20.336;  -11.730;  542.780
1056.774;   21.868;  -12.480;  794.980
1057.321;   19.490;  -13.930;  523.260
1057.868;   19.766;  -11.690;  651.320
1058.415;   19.799;   -9.520;  651.980
1058.961;   21.232;  -13.160;  678.940
1059.508;   19.822;  -12.920;  643.820
1060.055;   19.458;  -11.920;  581.780
1060.601;   20.206;  -11.500;  624.300
1061.148;   19.698;  -14.330;  616.820
1061.694;   18.163;  -16.870;  592.580
1062.241;   18.648;  -10.330;  596.320
1062.787;   19.020;  -10.620;  663.140
1063.334;   21.550;  -10.110;  808.560
1063.880;   18.136;  -13.400;  668.360
1064.426;   19.178;  -10.680;  706.820
1064.972;   18.356;   -9.920;  601.340
1065.518;   17.850;  -10.980;  566.640
1066.065;   18.126;  -14.890;  624.460
1066.611;   17.025;  -12.870;  598.800
1067.157;   18.734;  -12.950;  641.860
1067.703;   18.264;  -13.540;  668.480
1068.249;   17.662;  -13.540;  605.220
1068.794;   17.879;  -12.600;  626.880
1069.340;   17.416;  -10.620;  578.960
1069.886;   17.710;  -12.830;  590.700
1070.432;   16.181;  -14.870;  541.720
1070.977;   16.164;  -11.980;  601.080
1071.523;   16.686;   -8.200;  573.060
1072.068;   16.171;  -12.330;  582.000
1072.614;   15.876;  -16.370;  527.760
1073.160;   16.890;  -11.100;  687.040
1073.705;   15.533;  -10.480;  572.520
1074.250;   15.686;  -14.520;  559.900
1074.796;   17.002;  -11.460;  655.160
1075.341;   16.725;  -11.950;  664.100
1075.886;   16.338;  -11.460;  594.240
1076.431;   15.358;  -13.770;  649.880
1076.976;   15.192;  -12.680;  639.220
1077.521;   14.658;  -13.170;  583.080
1078.067;   14.832;  -10.860;  579.400
1078.612;   15.853;  -13.920;  661.620
1079.156;   15.048;  -13.880;  601.540
1079.701;   15.150;  -13.120;  693.260
1080.246;   15.625;   -9.940;  696.300
1080.791;   14.959;  -14.740;  625.020
1081.336;   14.898;  -13.750;  659.320
1081.880;   14.136;  -13.400;  649.680
1082.425;   13.794;  -12.220;  573.480
1082.970;   16.386;  -11.610;  717.040
1083.514;   13.950;  -13.580;  597.000
1084.059;   13.450;  -12.810;  586.720
1084.603;   13.620;  -12.320;  565.840
1085.147;   14.048;  -13.190;  645.220
1085.692;   14.206;  -12.480;  716.800
1086.236;   11.968;  -13.020;  503.140
1086.780;   15.174;   -9.190;  751.440
1087.325;   13.962;  -12.480;  654.620
1087.869;   13.488;  -12.450;  610.700
1088.413;   13.116;  -12.240;  705.040
1088.957;   11.853;   -9.020;  543.400
1089.501;   14.196;  -10.320;  766.640
1090.045;   13.196;  -12.720;  726.480
1090.589;   10.685;  -13.690;  569.920
1091.133;   12.500;  -10.020;  673.340
1091.676;   13.016;  -12.330;  591.940
1092.220;   11.754;  -14.970;  600.920
1092.764;   12.591;  -12.430;  706.960
1093.307;   11.974;   -9.800;  673.780
1093.851;   11.417;  -14.970;  556.540
1094.395;   12.071;  -15.310;  683.140
1094.938;   10.856;  -10.370;  632.520
1095.482;   10.960;  -11.050;  559.800
1096.025;   12.814;  -11.840;  710.880
1096.568;   12.606;  -12.840;  779.280
1097.112;    9.370;  -14.700;  508.180
1097.655;   11.616;   -8.720;  603.000
1098.198;   10.038;  -13.610;  600.180
1098.741;   10.308;  -13.350;  612.860
1099.285;   11.978;  -11.230;  657.300
1099.828;    9.000;  -11.840;  439.400
1100.371;   10.648;  -10.840;  608.160
1100.914;   10.453;  -14.190;  682.660
1101.457;    9.938;  -11.240;  679.900
1101.999;    9.218;  -11.270;  584.680
1102.542;   10.980;  -11.480;  641.440
1103.085;    9.966;  -11.750;  658.500
1103.628;    9.402;  -11.400;  762.060
1104.170;    9.845;  -10.490;  588.280
1104.713;   10.127;  -10.600;  646.700
1105.256;    9.108;  -14.360;  557.440
1105.798;    8.997;  -13.210;  499.980
1106.341;   10.268;  -10.270;  728.900
1106.883;   10.236;  -12.200;  521.340
1107.425;    9.541;  -13.110;  668.180
1107.968;    8.391;  -12.840;  612.380
1108.510;    9.904;   -6.480;  684.960
1109.052;    7.672;  -13.940;  612.620
1109.594;    8.282;  -13.690;  554.440
1110.136;    8.352;  -11.880;  643.220
1110.679;    8.014;   -9.500;  633.080
1111.221;    9.064;  -14.160;  604.460
1111.763;    7.114;  -13.980;  559.220
1112.304;    7.234;  -13.880;  547.140
1112.846;    8.403;  -12.210;  666.240
1113.388;   11.474;  -11.390;  942.180
1113.930;    8.126;  -14.540;  694.200
1114.472;    6.799;  -12.640;  606.540
1115.013;    6.352;  -11.620;  551.280
1115.555;    6.858;  -13.640;  587.100
1116.097;    6.309;  -15.380;  579.480
1116.638;    7.137;  -12.640;  684.600
1117.180;    7.844;   -9.850;  667.740
1117.721;    7.420;  -13.690;  568.580
1118.262;    7.517;  -12.680;  677.960
1118.804;    7.144;  -12.530;  637.340
1119.345;    6.854;  -11.690;  578.400
1119.886;    7.663;  -13.380;  704.040
1120.427;    6.166;  -14.070;  589.020
1120.969;    5.795;  -13.500;  597.920
1121.510;    6.137;  -11.480;  563.060
1122.051;    6.698;  -12.830;  723.580
1122.592;    5.356;  -14.290;  655.420
1123.133;    4.076;  -12.400;  547.940
1123.673;    6.874;  -10.130;  706.480
1124.214;    6.416;  -12.930;  612.460
1124.755;    6.561;  -14.380;  639.460
1125.296;    5.368;  -14.000;  627.320
1125.836;    6.694;  -10.070;  691.500
1126.377;    6.322;  -12.640;  599.660
1126.918;    5.842;  -12.960;  614.980
1127.458;    5.164;  -13.350;  622.220
1127.999;    6.028;  -10.750;  656.980
1128.539;    5.967;  -12.350;  694.240
1129.079;    5.192;  -14.860;  632.720
1129.620;    4.777;  -13.840;  558.100
1130.160;    4.584;  -12.330;  539.480
1130.700;    5.616;  -14.530;  640.840
1131.240;    5.690;  -12.530;  643.700
1131.781;    4.336;  -14.450;  619.680
1132.321;    4.564;   -9.790;  599.120
1132.861;    3.355;  -14.860;  564.200
1133.401;    3.460;  -14.290;  593.940
1133.941;    4.222;  -11.750;  626.280
1134.481;    4.003;   -9.920;  597.580
1135.020;    4.433;  -12.290;  609.160
1135.560;    4.284;  -11.650;  674.940
1136.100;    2.990;  -16.270;  501.160
1136.640;    2.723;  -10.890;  510.480
1137.179;    3.718;  -14.180;  537.960
1137.719;    3.268;  -16.250;  605.400
1138.258;    3.499;  -14.230;  587.360
1138.798;    3.492;   -9.090;  663.780
1139.337;    2.954;  -15.130;  482.840
1139.877;    3.150;  -13.680;  642.360
1140.416;    4.649;  -11.320;  878.060
1140.955;    2.698;  -10.860;  535.380
1141.494;    3.619;  -12.920;  669.280
1142.034;    3.027;  -13.930;  583.520
1142.573;    3.376;  -11.440;  646.280
1143.112;    1.863;  -12.000;  553.480
1143.651;    3.198;  -13.670;  536.480
1144.190;    3.226;  -12.730;  691.640
1144.729;    2.655;  -14.560;  607.420
1145.267;    2.526;  -11.830;  584.900
1145.806;    3.236;  -12.230;  637.040
1146.345;    2.360;  -14.130;  635.020
1146.884;    1.177;  -11.590;  622.500
1147.422;    1.624;  -12.550;  533.060
1147.961;    4.295;  -11.180;  708.460
1148.500;    3.062;  -11.510;  669.720
1149.038;    2.452;  -11.640;  632.500
1149.577;    2.952;  -10.130;  698.640
1150.115;    0.508;  -13.970;  452.280
1150.653;    2.158;  -14.520;  607.340
1151.192;    1.826;  -12.810;  552.920
1151.730;    1.527;   -9.100;  652.560
1152.268;    2.161;  -12.220;  589.520
1152.806;    0.922;  -14.140;  571.180
1153.344;    0.137;  -12.350;  577.640
1153.882;    1.480;   -8.980;  600.060
1154.421;    0.858;  -15.190;  470.620
1154.958;    0.672;  -15.210;  595.240
1155.496;    1.151;  -12.850;  645.280
1156.034;    1.160;   -9.940;  721.880
1156.572;    2.370;  -13.570;  667.060
1157.110;    0.052;  -14.590;  473.940
1157.647;    1.154;  -13.030;  676.960
1158.185;    0.365;  -12.140;  564.320
1158.723;   -0.629;  -14.390;  509.200
1159.260;    0.714;  -14.090;  701.700
1159.798;    1.167;  -11.920;  658.160
1160.335;    0.177;  -11.110;  631.820

