
Integration time [ms]:   3.276
Averaging Nr. [scans]: 1000
Smoothing Nr. [pixels]: 0
Data measured with spectrometer [name]: 7414430SP
Wave   ;Sample   ;Dark     ;Reference
[nm]   ;[counts] ;[counts] ;[counts] 

288.544;  151.248;    7.793;  793.890
289.143;  154.748;    7.462;  681.602
289.742;  155.073;    8.602;  828.814
290.341;  139.649;    1.321;  789.841
290.940;  130.233;   -0.709;  730.702
291.538;  131.067;    0.881;  881.108
292.137;  130.412;    0.122;  792.581
292.736;  134.932;   -1.929;  975.101
293.335;  131.540;   -8.229;  735.086
293.934;  132.065;   -5.279;  781.677
294.532;  129.848;   -1.369; 1031.958
295.131;  115.621;   -7.641;  834.394
295.730;  116.192;   -8.420;  809.588
296.328;  115.365;   -5.611;  783.442
296.927;  115.967;   -5.781;  779.652
297.525;  117.530;   -6.361;  781.236
298.124;  107.711;  -11.382;  654.009
298.722;  112.362;   -7.641;  761.933
299.321;  108.400;   -6.811;  708.597
299.919;  106.564;   -6.991;  751.918
300.518;  104.268;  -10.362;  689.338
301.116;  106.484;   -9.581;  691.381
301.715;  105.100;   -4.891;  730.222
302.313;  103.583;   -8.801;  704.943
302.911;   99.982;   -8.522;  733.830
303.509;  106.352;   -6.171;  925.627
304.108;  103.881;   -7.311;  760.383
304.706;  101.011;   -8.321;  801.664
305.304;   96.969;  -10.222;  796.707
305.902;  102.778;   -6.021;  784.484
306.500;   96.993;   -4.971;  728.200
307.098;   95.779;   -7.061;  746.560
307.696;   94.690;   -8.801;  780.432
308.294;   95.188;   -6.411;  731.359
308.892;   96.400;   -2.901;  759.769
309.490;   92.628;   -5.041;  712.161
310.088;   91.700;   -5.002;  788.444
310.686;   95.559;   -2.041;  821.749
311.284;   91.617;   -2.351;  766.040
311.882;   87.997;   -4.422;  731.225
312.480;   86.410;   -4.192;  697.167
313.078;   87.966;   -1.172;  808.331
313.675;   88.287;   -2.601;  691.600
314.273;   83.160;   -1.312;  797.837
314.871;   83.290;   -3.942;  589.829
315.468;   81.162;   -2.802;  652.090
316.066;   83.483;   -0.701;  694.427
316.664;   75.830;   -4.362;  656.351
317.261;   80.251;   -2.872;  910.128
317.859;   75.946;   -2.022;  768.735
318.456;   76.203;   -0.531;  830.096
319.054;   72.437;   -3.912;  787.828
319.651;   71.306;   -4.752;  759.928
320.249;   70.823;   -2.602;  810.188
320.846;   68.402;   -0.821;  714.286
321.443;   65.928;   -4.642;  832.135
322.041;   62.999;   -5.002;  812.315
322.638;   61.095;   -3.982;  701.456
323.235;   61.685;   -3.411;  665.683
323.833;   58.999;   -7.361;  740.354
324.430;   54.396;   -8.611;  615.900
325.027;   55.595;   -4.061;  876.855
325.624;   54.825;   -4.031;  644.532
326.221;   51.276;   -7.481;  689.717
326.818;   51.359;   -5.281;  818.332
327.415;   55.621;   -7.460;  748.828
328.012;   54.073;   -5.510;  690.585
328.609;   53.032;   -7.880;  731.389
329.206;   51.789;   -8.331;  778.621
329.803;   52.118;   -5.121;  737.841
330.400;   53.563;   -4.510;  704.260
330.997;   55.415;   -6.441;  817.147
331.594;   54.334;   -8.831;  788.185
332.191;   60.199;   -7.621;  728.722
332.787;   62.025;   -4.591;  844.463
333.384;   59.598;   -7.412;  763.093
333.981;   59.520;   -8.293;  815.687
334.578;   63.034;   -7.052;  708.378
335.174;   65.425;   -3.102;  731.469
335.771;   63.998;   -5.943;  836.456
336.367;   61.301;   -7.393;  710.631
336.964;   65.135;   -4.063;  793.266
337.561;   62.048;   -3.813;  731.112
338.157;   58.447;   -4.654;  911.916
338.754;   56.278;   -7.934;  796.589
339.350;   55.033;   -4.414;  722.493
339.946;   55.848;   -4.664;  773.135
340.543;   47.979;   -6.375;  846.136
341.139;   43.701;   -9.815;  720.836
341.735;   41.286;   -4.526;  772.593
342.332;   39.717;   -4.895;  691.472
342.928;   39.737;   -4.295;  795.394
343.524;   35.141;   -5.476;  761.684
344.120;   31.365;   -5.856;  738.562
344.716;   33.962;   -2.155;  723.717
345.313;   31.450;   -6.275;  795.342
345.909;   26.811;   -8.815;  627.336
346.505;   28.971;   -5.305;  740.247
347.101;   28.924;   -2.674;  827.864
347.697;   28.532;   -4.344;  785.398
348.293;   23.412;   -9.975;  627.244
348.889;   24.963;   -5.774;  745.914
349.485;   23.233;   -5.004;  688.205
350.081;   23.754;   -4.704;  772.592
350.676;   20.394;   -6.635;  691.606
351.272;   24.557;   -4.504;  809.530
351.868;   23.622;   -3.914;  780.497
352.464;   20.183;   -9.044;  723.932
353.059;   17.234;   -8.314;  646.017
353.655;   21.467;   -7.024;  777.063
354.251;   22.005;   -5.343;  759.845
354.846;   15.673;   -8.604;  740.646
355.442;   13.722;   -6.945;  753.071
356.038;   16.695;   -7.564;  751.708
356.633;   16.318;   -5.814;  728.594
357.229;   13.168;   -7.364;  724.757
357.824;   12.301;   -8.024;  703.600
358.420;   12.438;   -9.384;  679.726
359.015;   11.577;   -5.104;  695.357
359.610;   11.804;   -6.854;  763.920
360.206;    7.215;  -10.185;  603.240
360.801;   10.130;   -7.054;  646.503
361.396;   12.146;   -5.034;  725.975
361.992;    6.734;   -8.284;  668.220
362.587;    4.955;   -8.625;  670.160
363.182;    6.895;   -7.674;  689.631
363.777;    7.935;   -5.164;  738.242
364.372;    7.157;   -8.604;  737.314
364.967;    3.278;   -9.055;  680.744
365.563;    8.011;   -6.114;  815.567
366.158;    5.103;   -5.814;  685.161
366.753;    5.027;   -7.854;  649.263
367.348;    3.818;   -7.804;  746.056
367.942;    4.171;   -7.954;  697.298
368.537;    2.098;   -4.984;  754.245
369.132;    2.689;   -8.564;  703.428
369.727;   -0.896;   -8.855;  638.079
370.322;    1.439;   -6.245;  580.186
370.917;    0.496;   -6.425;  710.646
371.511;    2.224;   -6.294;  861.834
372.106;   -0.169;   -7.685;  776.964
372.701;   -3.032;   -7.335;  585.988
373.296;    2.052;   -4.564;  863.135
373.890;   -2.953;  -10.235;  647.840
374.485;   -4.368;   -7.885;  691.199
375.079;   -0.197;   -7.324;  738.685
375.674;   -0.315;   -3.494;  812.970
376.268;   -4.027;   -8.525;  691.759
376.863;   -9.469;  -10.086;  580.327
377.457;   -3.057;   -7.025;  662.490
378.052;   -5.424;   -3.585;  764.884
378.646;   -6.254;   -7.595;  741.167
379.240;   -7.218;   -8.335;  721.176
379.835;   -5.619;   -5.785;  636.978
380.429;   -7.526;   -4.335;  562.557
381.023;   -8.082;   -6.805;  779.205
381.617;   -9.585;   -9.195;  680.106
382.212;   -5.346;   -6.905;  685.303
382.806;   -5.132;   -3.745;  760.690
383.400;  -10.113;   -7.745;  672.281
383.994;  -10.148;   -9.765;  664.870
384.588;   -6.364;   -6.564;  697.701
385.182;   -5.168;   -5.344;  726.624
385.776;   -7.461;   -8.514;  706.875
386.370;  -10.065;   -9.555;  681.968
386.964;   -8.253;   -8.715;  684.155
387.558;   -7.391;   -6.174;  598.360
388.152;  -10.976;   -8.725;  681.959
388.745;   -9.494;   -7.965;  814.707
389.339;   -6.567;   -5.924;  747.642
389.933;   -6.307;   -5.524;  695.370
390.527;   -8.709;   -7.114;  859.029
391.120;  -13.070;  -10.725;  595.318
391.714;  -10.311;   -8.035;  711.633
392.308;   -8.102;   -3.574;  780.253
392.901;  -11.532;   -7.245;  642.460
393.495;  -13.336;   -9.285;  595.414
394.089;   -9.623;   -5.895;  760.452
394.682;  -11.274;   -4.295;  697.188
395.275;  -11.837;   -9.875;  719.927
395.869;  -13.374;   -8.485;  667.314
396.462;  -11.270;   -7.455;  616.609
397.056;   -7.968;   -5.424;  776.621
397.649;  -12.655;   -6.605;  731.575
398.242;   -9.341;   -8.224;  712.645
398.836;   -8.165;   -7.474;  766.408
399.429;   -9.901;   -7.094;  631.041
400.022;  -13.587;   -9.475;  665.902
400.615;  -10.190;   -7.145;  805.609
401.208;   -8.937;   -7.174;  691.451
401.802;  -11.668;   -5.515;  699.329
402.395;  -12.540;   -9.875;  683.502
402.988;  -13.075;   -8.845;  696.627
403.581;   -9.853;   -8.874;  646.878
404.174;   -7.668;   -5.324;  686.568
404.767;  -10.968;   -9.575;  638.583
405.360;  -12.912;  -10.965;  621.445
405.953;   -6.631;   -8.764;  759.034
406.545;   -7.478;   -7.514;  725.342
407.138;  -12.321;  -10.025;  618.350
407.731;   -9.791;  -10.034;  613.303
408.324;   -6.154;   -9.374;  660.554
408.917;   -7.560;   -6.534;  681.864
409.509;   -9.632;   -8.004;  740.396
410.102;  -10.675;   -9.875;  643.948
410.695;   -4.193;   -8.604;  665.758
411.287;   -5.895;   -6.794;  599.821
411.880;   -7.361;   -9.334;  585.421
412.472;  -10.531;  -10.254;  613.092
413.065;   -6.275;   -6.714;  629.408
413.657;   -5.043;   -7.234;  576.678
414.250;   -5.129;  -10.544;  646.681
414.842;   -6.778;   -9.744;  676.353
415.434;   -3.684;   -6.994;  570.463
416.027;   -0.046;   -5.893;  652.196
416.619;   -2.902;   -7.264;  713.400
417.211;   -3.043;  -10.374;  599.352
417.804;    1.642;   -7.993;  628.499
418.396;   -2.949;   -7.234;  607.643
418.988;   -1.037;   -9.443;  659.238
419.580;   -4.292;  -10.724;  568.276
420.172;   -2.226;  -10.323;  536.196
420.764;    2.621;   -8.793;  672.482
421.356;    0.152;  -11.143;  636.898
421.948;    0.197;   -8.293;  677.661
422.540;    5.881;   -7.893;  680.027
423.132;    4.081;   -7.082;  600.641
423.724;    1.256;   -8.653;  561.267
424.316;    3.813;  -10.213;  621.345
424.908;    7.220;   -9.762;  591.517
425.500;    7.509;   -5.572;  647.978
426.092;    7.458;   -8.422;  648.268
426.683;    7.125;   -9.283;  684.836
427.275;   10.304;   -7.852;  641.471
427.867;   10.807;   -5.272;  668.948
428.458;   11.510;   -7.682;  732.344
429.050;   10.442;  -10.612;  680.749
429.642;   12.957;   -9.882;  743.124
430.233;   13.123;   -6.962;  569.356
430.825;   14.403;   -6.842;  724.809
431.416;   11.652;   -9.672;  698.241
432.008;   15.565;   -6.552;  651.723
432.599;   16.769;   -6.891;  656.073
433.190;   12.351;  -10.912;  637.670
433.782;   13.019;  -11.172;  590.395
434.373;   20.682;   -6.061;  884.765
434.964;   18.716;   -8.251;  602.920
435.556;   16.326;   -9.722;  634.537
436.147;   19.006;   -9.082;  758.490
436.738;   20.387;   -8.041;  701.099
437.329;   24.700;   -7.341;  721.723
437.920;   16.800;   -8.162;  666.688
438.511;   17.134;  -11.802;  564.526
439.103;   25.246;  -10.191;  623.998
439.694;   26.246;   -7.601;  681.583
440.285;   26.417;   -8.541;  764.432
440.876;   24.076;   -9.751;  845.738
441.466;   24.028;   -9.401;  575.162
442.057;   29.595;   -7.760;  665.814
442.648;   28.706;   -9.971;  746.255
443.239;   26.919;  -11.001;  620.477
443.830;   32.655;   -7.990;  704.958
444.421;   33.372;   -7.910;  655.474
445.011;   29.897;   -8.131;  693.619
445.602;   29.350;   -7.111;  743.126
446.193;   32.328;  -10.920;  488.117
446.783;   35.175;   -6.500;  640.397
447.374;   30.979;   -8.671;  692.759
447.964;   32.271;  -10.781;  713.770
448.555;   40.764;   -9.650;  822.742
449.145;   37.632;   -8.660;  662.853
449.736;   37.777;   -8.990;  803.179
450.326;   38.410;   -9.500;  713.626
450.917;   43.506;   -8.680;  675.324
451.507;   42.327;   -7.520;  600.661
452.097;   42.257;   -8.590;  746.267
452.688;   43.445;  -11.340;  742.160
453.278;   43.708;  -10.100;  566.840
453.868;   48.138;   -6.019;  793.550
454.458;   46.363;   -9.440;  651.141
455.048;   46.757;  -10.560;  711.783
455.639;   48.967;  -11.799;  567.096
456.229;   52.020;   -6.899;  710.694
456.819;   53.201;   -7.389;  751.158
457.409;   53.912;  -11.119;  773.993
457.999;   57.093;   -9.289;  737.505
458.589;   56.377;   -6.139;  686.606
459.179;   56.446;   -8.729;  717.658
459.769;   55.214;   -9.789;  627.099
460.358;   60.589;  -10.259;  797.262
460.948;   59.775;   -7.299;  689.503
461.538;   61.150;  -10.289;  660.677
462.128;   59.284;  -11.269;  664.934
462.717;   66.586;   -9.368;  710.326
463.307;   69.502;   -7.908;  705.846
463.897;   64.615;   -9.599;  656.942
464.486;   63.822;   -9.769;  837.128
465.076;   69.497;   -8.048;  733.776
465.666;   71.979;   -9.358;  652.900
466.255;   70.107;   -7.919;  785.651
466.845;   68.760;  -11.689;  666.749
467.434;   73.336;   -7.818;  725.873
468.023;   73.936;   -7.678;  658.357
468.613;   70.071;  -10.939;  713.946
469.202;   75.961;  -10.118;  646.507
469.791;   79.725;   -9.108;  737.811
470.381;   80.875;   -6.058;  742.813
470.970;   80.214;  -10.428;  711.099
471.559;   80.713;  -10.268;  733.291
472.148;   85.031;   -8.448;  675.737
472.738;   86.713;   -6.917;  765.466
473.327;   85.962;  -11.978;  637.529
473.916;   86.256;  -11.888;  737.446
474.505;   91.860;   -9.437;  751.703
475.094;   93.362;   -6.747;  806.570
475.683;   93.082;   -9.367;  797.699
476.272;   94.456;  -12.637;  730.632
476.861;   97.651;  -10.027;  706.754
477.449;  103.523;   -8.716;  728.487
478.038;   98.228;   -9.577;  692.513
478.627;   99.201;   -9.718;  714.852
479.216;  106.173;   -8.947;  769.441
479.805;  109.402;   -6.256;  783.375
480.393;  107.961;   -7.937; 1008.945
480.982;  108.156;   -7.717;  874.501
481.571;  114.874;   -9.266;  858.333
482.159;  114.597;   -7.636;  705.386
482.748;  114.932;   -9.667;  821.385
483.336;  119.574;  -10.376;  858.209
483.925;  121.036;   -7.147;  774.373
484.513;  126.939;   -7.996;  758.962
485.102;  123.165;  -10.027;  810.965
485.690;  132.988;  -10.446; 1011.050
486.278;  135.589;   -8.446;  979.329
486.867;  135.964;   -6.356;  809.662
487.455;  136.753;   -9.136;  898.229
488.043;  139.494;  -10.646;  748.361
488.631;  148.153;   -7.456; 1005.079
489.220;  152.720;   -6.636;  908.626
489.808;  152.770;  -11.036;  741.415
490.396;  160.524;  -10.246;  914.645
490.984;  168.288;   -8.556;  830.161
491.572;  178.092;   -5.886;  940.315
492.160;  184.112;   -9.486;  919.081
492.748;  197.517;  -10.976;  884.341
493.336;  221.374;   -8.776; 1019.693
493.924;  248.813;   -5.465;  958.077
494.512;  278.940;   -9.986; 1066.638
495.100;  319.540;  -10.636; 1103.280
495.687;  378.963;  -10.885; 1206.373
496.275;  446.552;   -8.126; 1150.796
496.863;  522.826;  -10.586; 1281.171
497.451;  629.620;  -11.926; 1386.805
498.038;  775.007;  -10.885; 1556.729
498.626;  888.994;   -6.315; 1741.407
499.214; 1046.356;   -7.326; 2016.609
499.801; 1267.408;  -11.906; 2220.633
500.389; 1523.735;  -10.466; 2312.494
500.976; 1854.789;   -5.236; 2744.849
501.564; 2310.729;   -8.936; 3148.565
502.151; 2706.959;  -13.176; 3515.999
502.738; 3176.397;  -10.646; 3971.274
503.326; 3582.930;   -9.525; 4403.796
503.913; 4012.479;  -10.856; 5161.749
504.500; 4429.529;  -11.586; 5986.420
505.088; 4805.620;  -10.336; 6381.201
505.675; 5383.218;   -6.355; 6925.547
506.262; 6147.195;   -9.046; 7619.060
506.849; 6936.725;  -10.416; 8733.969
507.436; 7537.017;  -10.305; 9790.121
508.023; 8197.261;   -5.496; 9985.472
508.610; 8401.481;   -7.856;10434.618
509.197; 9020.625;  -10.097;11198.435
509.784;10506.634;  -10.886;12391.194
510.371;11681.717;   -9.315;13603.713
510.958;12435.729;   -9.936;14426.586
511.545;13202.958;   -9.326;15243.775
512.132;14173.607;  -10.075;15945.876
512.719;14927.046;   -7.796;16340.369
513.305;16111.954;  -10.606;18011.766
513.892;16927.242;  -11.486;19754.971
514.479;18148.307;   -9.126;20967.805
515.066;19473.822;   -6.026;22299.793
515.652;21069.793;   -8.466;22908.660
516.239;22613.830;  -10.886;23798.875
516.825;23714.248;  -11.496;25567.275
517.412;24841.592;   -5.796;28154.959
517.998;25600.754;  -10.506;28344.111
518.585;25435.244;  -10.076;27134.219
519.171;25940.250;   -8.315;27268.576
519.758;28039.051;   -8.596;28964.129
520.344;30152.104;   -8.466;30664.494
520.930;29712.137;  -11.006;32550.605
521.516;31088.607;  -10.495;35422.895
522.103;33231.922;   -5.526;38280.004
522.689;34021.930;   -8.746;37835.117
523.275;33312.848;  -11.376;37288.613
523.861;34482.301;  -11.156;37281.395
524.447;36319.664;   -8.135;37846.949
525.033;36264.965;   -7.896;38321.949
525.619;36546.766;  -12.476;38579.285
526.205;38084.684;   -9.516;40622.875
526.791;41002.090;   -6.926;42258.836
527.377;40789.031;   -8.346;42966.902
527.963;42047.531;   -8.717;42018.949
528.549;41099.582;  -11.016;42476.828
529.135;39593.129;   -8.536;41854.852
529.721;38620.602;   -9.666;41237.711
530.306;38145.230;  -10.066;41259.445
530.892;38054.004;  -11.356;41506.047
531.478;39271.758;   -6.596;43559.613
532.063;42804.922;   -8.836;47695.563
532.649;43601.605;  -10.047;50808.324
533.235;44097.043;   -9.746;51787.500
533.820;44565.688;   -6.566;52145.035
534.406;45892.398;  -10.817;51133.488
534.991;45937.465;   -9.416;49996.805
535.576;44267.637;   -9.036;48882.852
536.162;44792.742;   -6.156;46942.285
536.747;46180.465;  -11.607;45711.746
537.333;49349.523;  -11.787;48510.180
537.918;52496.367;  -12.437;50439.891
538.503;51753.980;   -7.196;50863.711
539.088;48443.512;  -10.556;50906.922
539.673;48678.203;   -8.767;52621.965
540.259;49252.773;  -10.026;52368.094
540.844;46090.438;   -7.416;50879.109
541.429;47475.328;   -9.467;52077.777
542.014;49891.566;   -9.527;52716.695
542.599;49168.348;   -9.946;52363.281
543.184;45945.043;   -7.927;53187.137
543.769;47097.504;   -9.297;54697.605
544.354;47194.133;  -10.127;53913.914
544.938;45779.793;   -9.267;49680.164
545.523;47397.566;   -6.506;47386.277
546.108;49863.000;   -9.787;49151.949
546.693;52044.016;  -11.587;51384.637
547.278;52532.848;  -10.986;51853.254
547.862;49039.637;   -8.206;51173.750
548.447;44266.211;  -10.067;51691.395
549.031;43778.992;   -9.637;52456.703
549.616;48618.801;   -9.926;52714.516
550.201;47936.617;   -6.347;52414.598
550.785;49017.988;   -7.917;52355.059
551.370;48415.574;  -10.867;54589.453
551.954;48493.598;   -9.047;58267.348
552.538;49391.395;   -7.827;59062.176
553.123;47869.734;  -10.287;58115.285
553.707;45988.387;  -12.178;56556.285
554.291;47590.668;   -8.717;56201.668
554.876;50626.480;   -7.457;55335.762
555.460;50816.152;  -10.387;54155.703
556.044;50703.129;   -9.618;53721.484
556.628;48125.348;  -11.567;53731.016
557.212;46782.086;   -8.097;54312.531
557.796;45747.387;  -11.077;53797.773
558.380;45668.105;  -11.108;56145.984
558.964;45734.223;   -9.057;57277.930
559.548;46568.699;   -6.977;56459.641
560.132;44844.410;  -11.457;54434.543
560.716;43571.371;  -11.378;54800.617
561.300;45046.957;   -9.577;57606.945
561.884;46069.453;   -7.127;58972.445
562.467;43882.063;   -7.118;57327.570
563.051;42718.480;  -13.358;54962.434
563.635;44044.824;  -10.178;52594.473
564.219;44945.730;   -7.837;50610.410
564.802;45589.570;  -11.398;49551.180
565.386;45213.984;  -12.788;48370.953
565.969;44684.086;   -9.077;48178.871
566.553;43907.121;   -6.207;49957.305
567.136;44709.719;   -8.568;50369.594
567.720;41016.930;  -11.868;49492.004
568.303;39056.313;   -8.268;50616.352
568.887;39323.406;   -8.698;50727.148
569.470;39968.293;   -6.808;51698.379
570.053;38907.262;  -13.188;52122.078
570.637;36428.992;  -12.037;52536.438
571.220;35946.758;   -8.577;51186.098
571.803;36848.523;   -8.498;51032.762
572.386;39229.930;  -10.498;49609.887
572.969;41663.633;   -9.388;48285.926
573.552;39994.238;   -8.338;47624.285
574.135;38586.441;   -8.518;45498.641
574.718;35958.578;  -13.628;41970.434
575.301;34965.996;  -10.893;41447.137
575.884;33973.414;   -8.158;40923.836
576.467;35279.273;  -10.328;45267.723
577.050;37218.781;  -13.058;48175.543
577.633;38222.484;   -9.458;47729.328
578.216;37298.391;   -8.928;47579.793
578.799;36524.172;   -9.358;47820.996
579.381;35291.609;  -11.388;48115.551
579.964;33475.570;  -11.718;47333.766
580.547;35748.359;   -8.588;46668.969
581.129;36573.988;   -8.859;44466.141
581.712;37080.961;  -10.729;44164.922
582.294;37418.891;  -11.118;46477.855
582.877;37664.961;   -5.218;48244.254
583.459;35779.473;   -8.679;47437.895
584.042;33508.203;  -10.709;46943.219
584.624;33749.078;  -11.669;46792.227
585.206;33615.926;   -8.218;46557.250
585.789;34222.512;  -10.569;45793.773
586.371;36511.520;  -11.859;43836.391
586.953;36778.316;  -10.719;42972.492
587.536;37614.730;   -7.198;42487.211
588.118;37706.672;   -8.720;42086.414
588.700;33984.266;  -10.439;43389.930
589.282;33183.090;   -9.198;43646.039
589.864;34403.711;   -9.199;43438.109
590.446;35598.102;  -11.319;43151.926
591.028;35193.027;  -11.159;42781.867
591.610;33929.703;  -11.779;42839.098
592.192;31381.994;   -7.668;42820.402
592.774;30160.418;  -11.949;40724.277
593.356;29199.322;  -12.129;39874.789
593.937;28203.475;  -10.669;39980.648
594.519;30688.957;   -6.509;42069.633
595.101;32784.844;  -10.849;42976.031
595.683;32678.510;  -11.679;44084.441
596.264;33525.305;   -9.049;43478.797
596.846;33086.109;   -8.849;43803.672
597.427;32763.938;   -9.570;42986.934
598.009;34050.258;  -12.620;42832.219
598.591;34226.090;  -10.039;42580.086
599.172;33570.641;  -10.369;43061.805
599.753;33707.090;   -9.140;41691.469
600.335;35124.621;  -11.430;40692.520
600.916;33583.133;   -9.939;39982.422
601.498;31584.932;   -8.479;40318.617
602.079;29994.766;  -10.920;40670.609
602.660;29880.434;  -11.480;41450.898
603.241;31581.158;  -11.699;41137.738
603.823;30214.600;   -9.579;38868.797
604.404;29856.840;  -10.620;38182.785
604.985;31485.701;  -10.450;38078.047
605.566;31124.033;   -9.129;38056.633
606.147;31101.002;   -7.510;37020.418
606.728;32759.486;  -10.660;37883.359
607.309;31312.352;  -11.740;38748.273
607.890;31066.006;   -9.759;38850.230
608.471;30720.471;   -8.250;37457.918
609.051;29955.396;   -9.240;36066.457
609.632;28636.242;  -12.120;35991.074
610.213;29033.740;   -9.110;37402.641
610.794;29790.709;   -8.030;38383.363
611.374;29781.418;   -8.110;40562.387
611.955;30536.543;  -13.560;38533.727
612.536;31702.398;  -11.400;36951.789
613.116;31448.045;   -8.070;37197.891
613.697;31637.197;  -10.830;38411.125
614.277;29757.412;  -11.641;38673.938
614.858;30660.828;  -13.310;37075.863
615.438;30430.656;   -7.460;35092.906
616.019;28099.055;   -7.601;33666.301
616.599;28177.881;  -12.020;34189.023
617.179;29793.793;  -11.780;36952.047
617.760;30900.137;   -8.570;39582.574
618.340;31532.486;  -11.471;38943.977
618.920;32356.363;  -11.170;37594.156
619.500;32504.762;  -11.071;37866.938
620.080;31812.650;   -7.750;37869.043
620.660;32966.688;  -12.711;36868.617
621.241;34799.766;  -10.211;36352.309
621.821;35161.094;  -10.961;35459.520
622.401;33963.035;   -7.720;35207.414
622.980;32919.387;   -8.981;35980.422
623.560;31414.021;   -9.331;37351.328
624.140;30191.879;   -9.850;34388.582
624.720;25160.746;   -7.451;32368.764
625.300;21652.979;   -9.070;32638.629
625.880;25156.826;  -12.601;34599.035
626.459;29525.221;  -11.751;36831.738
627.039;32490.707;   -9.281;38299.098
627.619;32261.205;   -8.801;38289.574
628.198;30754.328;  -12.071;37220.695
628.778;29626.148;   -9.461;37632.563
629.357;30145.625;   -8.491;38003.012
629.937;30468.160;   -9.721;38402.039
630.516;30092.682;   -9.951;37868.801
631.096;29661.818;  -11.731;35760.410
631.675;32206.215;   -8.572;35225.219
632.254;37379.742;  -11.282;35130.289
632.834;36813.359;  -13.322;35794.570
633.413;34994.121;  -10.301;35788.922
633.992;32120.047;   -8.582;34532.863
634.571;32704.432;   -8.352;33590.113
635.151;35175.543;  -11.912;34943.863
635.730;33815.359;  -10.511;35352.523
636.309;30815.525;   -7.731;35366.605
636.888;28514.242;   -9.952;36165.637
637.467;29228.824;  -11.672;37515.902
638.046;30551.822;   -8.901;39288.695
638.625;33474.625;   -7.912;38279.699
639.204;33248.094;  -10.022;37741.598
639.782;32069.010;  -12.252;38364.551
640.361;28098.324;  -10.041;36740.621
640.940;25315.652;  -11.161;34950.082
641.519;26025.297;   -9.701;34137.398
642.097;29104.592;  -11.271;35654.258
642.676;31781.281;   -8.651;35637.957
643.255;32737.146;   -8.711;36567.074
643.833;31888.865;   -9.581;37809.434
644.412;32162.508;  -13.711;37337.293
644.990;31414.330;  -11.811;37018.531
645.569;31642.527;   -9.411;36518.469
646.147;31033.986;  -10.291;36186.430
646.726;30717.801;  -12.401;36267.688
647.304;31371.537;  -10.411;36647.625
647.882;32863.180;   -9.651;39286.742
648.461;34563.934;   -9.631;39157.703
649.039;32867.855;  -11.881;35412.883
649.617;31686.252;   -9.661;34744.918
650.195;30765.686;   -9.301;35403.098
650.773;29366.139;  -10.511;35053.797
651.352;27428.326;  -11.521;33756.816
651.930;25450.668;  -12.211;31868.773
652.508;23899.813;   -9.171;33121.551
653.086;27778.375;   -9.371;33564.793
653.663;30610.252;  -13.161;34054.668
654.241;29287.555;  -13.031;35693.309
654.819;30557.455;   -9.371;36422.906
655.397;30342.447;  -10.511;38213.484
655.975;30044.965;  -10.371;39507.625
656.553;29485.789;  -10.051;39498.223
657.130;27904.422;  -10.061;40395.480
657.708;27559.338;   -9.561;39242.020
658.286;27805.912;  -11.511;38920.020
658.863;28917.160;  -10.261;40202.898
659.441;32276.850;   -7.531;39677.938
660.018;32197.361;   -9.501;40413.355
660.596;30821.740;  -13.301;39931.414
661.173;32274.068;  -11.211;39604.531
661.750;32613.275;   -9.951;39700.070
662.328;31834.846;   -9.390;39292.809
662.905;30931.969;  -11.330;38235.648
663.482;26383.631;   -9.050;36212.305
664.060;24661.496;   -8.240;35944.945
664.637;27664.803;  -10.050;35170.785
665.214;29123.355;  -11.760;34197.523
665.791;30469.313;  -10.530;34549.520
666.368;29371.980;   -9.690;35118.578
666.945;30025.906;   -9.320;36019.418
667.522;31543.578;  -11.860;36048.438
668.099;31424.936;  -10.770;36243.914
668.676;30084.553;   -6.260;35958.875
669.253;28718.168;   -7.000;37384.730
669.830;28963.082;  -10.190;36779.629
670.407;28918.396;   -9.550;35231.289
670.984;29138.645;   -9.260;35544.270
671.560;29849.162;   -9.280;35466.867
672.137;28953.844;  -11.810;34280.863
672.714;29909.475;  -11.490;34632.863
673.290;30847.146;   -7.740;35135.422
673.867;30942.174;  -10.660;36114.480
674.443;30475.986;  -12.230;36152.859
675.020;28450.711;  -10.450;35327.238
675.596;29611.652;   -9.260;35795.176
676.173;30350.559;  -10.780;35430.355
676.749;30057.770;  -13.690;33549.516
677.326;29881.197;  -11.980;32210.012
677.902;29747.854;   -8.630;32068.871
678.478;29184.260;  -10.730;32583.891
679.054;28478.002;  -10.520;32088.928
679.631;28768.545;  -11.920;30978.848
680.207;30032.709;   -7.490;33160.887
680.783;31412.047;   -9.860;35570.363
681.359;30553.072;  -13.380;36125.184
681.935;30487.938;  -12.480;35240.922
682.511;30340.291;   -7.900;34429.961
683.087;30751.107;   -7.710;34463.680
683.663;30060.131;  -11.480;34648.898
684.239;28495.982;  -14.090;34546.457
684.815;27872.648;   -7.560;35586.375
685.390;28005.301;   -9.910;35821.895
685.966;28318.279;  -11.159;35085.871
686.542;30824.119;  -11.169;34198.230
687.118;33316.801;   -5.959;32847.707
687.693;33739.531;  -10.329;32794.027
688.269;33284.516;  -12.059;33072.367
688.844;31344.326;  -10.909;33141.664
689.420;29273.025;   -8.019;33965.742
689.995;27406.709;   -8.399;34655.523
690.571;25983.629;  -10.949;33576.742
691.146;26120.262;   -9.619;32657.219
691.722;25992.613;   -8.999;32526.979
692.297;25877.094;  -11.589;33014.617
692.872;27324.889;  -11.739;34012.254
693.448;26996.689;  -11.059;34237.434
694.023;26087.645;  -10.139;34142.672
694.598;28066.354;   -9.029;34132.031
695.173;28564.141;  -13.319;34205.250
695.748;27526.568;  -10.169;32882.488
696.323;27206.096;   -8.339;32864.906
696.898;27433.578;   -8.169;33170.004
697.473;27746.850;  -12.309;32432.984
698.048;27222.369;  -10.989;31649.303
698.623;27018.994;   -9.329;30778.141
699.198;28616.188;   -9.849;31140.119
699.773;29855.141;  -12.329;31764.299
700.348;28602.037;  -10.389;31780.816
700.922;28412.615;   -9.269;32046.375
701.497;29303.975;   -9.329;32603.574
702.072;29425.674;  -10.789;34799.871
702.646;28027.156;  -10.839;35793.172
703.221;26149.064;   -9.099;35201.590
703.795;27937.695;  -10.939;34764.527
704.370;28319.871;  -12.859;34307.367
704.944;28699.041;  -11.559;33509.887
705.519;29445.121;   -7.939;31388.584
706.093;30685.082;  -10.499;31340.104
706.668;30818.602;  -11.289;32630.281
707.242;29875.566;  -11.509;32728.779
707.816;28723.807;   -9.639;32947.238
708.390;27063.168;  -11.429;33277.855
708.965;27602.385;  -11.869;33834.336
709.539;28141.225;  -11.689;33709.273
710.113;28283.461;  -10.478;33044.313
710.687;27408.502;  -10.228;31953.992
711.261;25560.371;  -13.698;30505.949
711.835;25359.740;  -13.378;30262.369
712.409;25990.098;   -9.698;31254.447
712.983;28045.451;  -11.898;32754.986
713.557;29219.275;  -15.138;34018.824
714.131;29000.957;  -14.098;34579.625
714.704;28131.080;   -9.958;33890.262
715.278;25728.129;  -10.028;33531.102
715.852;24707.576;  -11.148;33601.660
716.425;25864.936;   -9.068;33515.117
716.999;26900.334;  -10.038;33185.555
717.573;27709.271;   -9.798;33905.996
718.146;28649.930;  -12.378;35199.293
718.720;28533.443;  -11.918;35060.551
719.293;28310.096;   -8.088;34973.230
719.867;31300.502;  -10.888;36394.449
720.440;30942.912;  -11.938;36663.008
721.013;29143.861;  -12.818;35102.426
721.587;27720.646;  -10.298;33985.266
722.160;26675.771;  -10.048;33524.965
722.733;25685.912;  -12.108;32987.043
723.306;25942.752;  -10.818;33066.301
723.880;28049.342;   -8.908;33399.500
724.453;29999.865;   -9.878;33468.297
725.026;29182.174;  -11.188;33816.637
725.599;26590.697;  -11.678;32797.996
726.172;26788.029;   -9.618;33187.434
726.745;27893.434;   -8.258;35136.613
727.318;29228.977;  -12.978;35751.730
727.891;29666.326;  -12.148;35890.430
728.463;29026.762;   -8.968;34822.090
729.036;27723.568;  -10.188;32895.086
729.609;28135.654;  -11.788;31823.225
730.182;25329.803;  -11.788;31445.283
730.754;23138.545;  -10.268;32373.223
731.327;23630.590;   -9.998;33676.820
731.900;24161.082;  -12.228;33417.000
732.472;24944.053;  -13.848;31978.498
733.045;26243.414;   -8.698;30368.777
733.617;26265.387;  -10.607;30574.215
734.190;26461.102;  -11.507;31280.975
734.762;24039.322;  -13.647;31674.412
735.334;22395.631;   -9.767;31247.291
735.907;23056.863;   -9.897;29876.211
736.479;23177.107;  -11.637;29808.488
737.051;22573.938;   -9.567;30233.547
737.623;23040.777;   -8.187;31469.086
738.195;23584.490;  -11.187;31784.225
738.768;25849.680;  -12.337;32120.523
739.340;26437.900;  -12.227;32094.342
739.912;25293.688;  -11.057;31312.680
740.484;23904.609;  -10.207;31946.238
741.056;22531.590;  -10.047;32984.059
741.628;23669.141;  -13.627;33897.715
742.199;25807.621;   -7.177;33213.016
742.771;24665.299;  -10.797;31369.113
743.343;22575.504;  -11.997;31865.473
743.915;21666.313;  -12.867;32388.631
744.487;21684.004;   -7.617;31079.568
745.058;21672.613;   -9.557;30570.107
745.630;22257.900;   -9.877;29970.127
746.201;23401.373;  -14.177;29186.766
746.773;23951.975;   -9.237;28805.723
747.344;23739.881;   -9.847;29591.223
747.916;22127.453;  -11.657;31412.201
748.487;22356.396;  -10.587;32194.898
749.059;23734.910;   -8.707;32533.719
749.630;24474.070;  -10.537;32158.518
750.201;23678.365;  -11.687;30855.395
750.773;21933.959;  -11.647;28622.555
751.344;21597.264;   -7.147;28405.732
751.915;22416.943;   -9.757;28461.551
752.486;22318.623;  -12.427;27842.850
753.057;20380.215;  -12.227;27845.008
753.628;19245.242;  -10.417;27728.107
754.199;20193.781;  -11.767;27381.086
754.770;21306.096;  -11.187;25882.203
755.341;21578.627;  -10.507;25886.184
755.912;21601.047;   -9.387;26050.861
756.483;21011.291;  -10.647;26798.779
757.054;19163.752;  -11.837;27048.238
757.625;17742.854;  -12.716;26294.838
758.195;17671.863;   -9.666;26142.076
758.766;17458.160;   -8.656;26392.234
759.337;18004.475;  -12.856;26334.594
759.907;19502.748;  -13.366;27579.652
760.478;20391.506;   -8.576;28352.770
761.048;19707.980;  -10.526;27325.088
761.619;18737.338;  -11.116;26460.428
762.189;18884.707;  -12.136;26029.826
762.760;20137.295;   -9.456;26430.145
763.330;21241.127;   -7.136;26670.902
763.900;20743.875;  -11.786;26603.021
764.471;18284.793;  -11.546;25542.740
765.041;16864.199;   -8.096;24358.459
765.611;16697.809;   -8.876;23991.297
766.181;17022.102;  -12.196;24470.236
766.751;18204.338;  -11.636;24845.975
767.321;17999.172;  -10.156;24533.633
767.891;15845.139;  -11.766;24916.492
768.461;15201.005;  -14.936;24776.771
769.031;15694.545;  -12.356;24757.988
769.601;17250.799;   -7.526;24181.088
770.171;17264.529;  -10.766;23670.387
770.741;16517.057;  -13.176;22960.045
771.311;16734.139;  -10.616;22917.523
771.880;17301.811;   -9.576;23562.941
772.450;17268.805;  -10.336;24216.500
773.020;17291.223;  -13.516;24140.398
773.589;16414.469;  -13.466;24414.857
774.159;15660.564;   -8.686;23858.717
774.729;15260.536;   -9.476;22942.135
775.298;14854.621;  -13.666;22324.033
775.867;14451.443;  -11.716;21140.313
776.437;14566.694;   -9.906;20838.092
777.006;14293.991;  -12.166;20599.510
777.576;13956.149;  -12.356;20508.809
778.145;14060.160;  -11.646;20732.947
778.714;14191.364;   -8.226;21062.465
779.283;13709.241;   -9.556;20949.664
779.853;13263.092;  -14.116;20508.623
780.422;13682.212;  -11.506;20649.082
780.991;13226.558;   -9.556;21527.520
781.560;11929.378;   -9.095;22632.658
782.129;11653.832;  -12.135;23048.277
782.698;11630.259;  -10.865;23438.555
783.267;11311.943;   -9.335;23267.734
783.836;11289.174;  -11.045;22415.133
784.404;12227.994;  -13.865;20443.152
784.973;12849.118;  -13.095;19699.150
785.542;12971.837;  -11.575;19763.828
786.111;12831.285;   -9.705;20341.408
786.679;12294.087;  -12.105;20207.967
787.248;11985.456;  -12.455;19516.465
787.817;11766.130;  -11.535;18900.363
788.385;11410.351;   -9.765;17879.121
788.954;10864.473;  -14.005;17658.301
789.522;10233.788;  -11.955;17788.879
790.090;10596.467;  -10.135;18118.277
790.659;11154.097;  -10.975;18338.736
791.227;10849.306;  -13.375;18508.615
791.795;11296.052;  -12.375;17898.254
792.364;11551.448;  -10.725;17295.133
792.932;11755.970;   -9.715;16822.051
793.500;11999.598;  -12.675;17040.148
794.068;12273.314;  -13.495;17179.787
794.636;12417.341;  -10.885;16664.246
795.204;11810.958;  -11.045;16524.545
795.772;11779.119;  -13.175;17274.564
796.340;11281.318;  -12.445;17891.002
796.908;11055.567;   -9.735;17648.561
797.476;10940.469;   -9.815;17064.080
798.044;10549.315;  -13.985;16672.777
798.612; 9838.643;  -13.115;17023.996
799.180; 9495.693;  -10.185;16561.615
799.747; 9372.576;   -9.055;15962.773
800.315; 9093.432;  -12.385;15296.992
800.883; 8873.575;  -15.035;14801.771
801.450; 9018.282;  -10.365;14534.430
802.018; 9095.108;   -9.855;14173.248
802.585; 9096.945;  -11.905;14029.547
803.153; 9098.609;  -11.585;13836.846
803.720; 8914.820;   -9.095;13567.324
804.287; 8409.049;   -9.135;13360.622
804.855; 7924.458;  -11.604;13681.981
805.422; 7817.766;  -11.794;13536.560
805.989; 7897.424;  -10.734;13355.958
806.556; 8126.741;  -10.444;13747.896
807.124; 8408.547;  -12.764;13987.376
807.691; 8349.934;  -12.964;14038.674
808.258; 8152.406;  -11.134;14120.152
808.825; 7798.378;   -9.854;13860.111
809.392; 7877.363;  -10.504;13268.790
809.959; 7459.387;  -13.054;12680.389
810.526; 7030.723;   -8.294;12427.308
811.093; 7025.054;   -8.394;12030.105
811.659; 7608.199;  -12.304;11653.664
812.226; 8129.150;  -13.944;11637.183
812.793; 7830.664;  -10.484;11611.521
813.360; 7159.943;  -10.144;11885.181
813.926; 6841.834;  -11.684;12770.539
814.493; 6696.178;  -13.644;12677.638
815.060; 6387.649;   -9.724;11974.336
815.626; 6369.443;   -9.854;11594.715
816.193; 6705.601;  -13.254;11579.474
816.759; 6722.838;  -13.204;11666.972
817.325; 6770.357;   -9.434;11325.530
817.892; 7130.238;  -10.134;11105.369
818.458; 7550.979;  -13.474;10843.928
819.024; 7190.457;  -11.854;10714.406
819.591; 6892.336;  -10.244;10469.165
820.157; 6713.752;  -10.704;10235.523
820.723; 6242.979;  -12.324;10847.563
821.289; 5931.720;   -9.444;11040.980
821.855; 5817.649;   -8.374;10357.100
822.421; 5730.725;  -10.234; 9978.918
822.987; 5666.326;  -13.294; 9754.177
823.553; 5325.731;  -10.884;10065.755
824.119; 5167.538;   -8.884;10036.294
824.685; 5309.014;   -6.784;10029.192
825.251; 5438.366;  -12.004;10199.230
825.816; 5401.284;  -11.474; 9820.189
826.382; 5151.349;   -9.174; 9297.248
826.948; 5316.646;   -9.214; 9381.347
827.513; 5675.688;  -10.774; 9450.726
828.079; 5504.104;  -11.924; 9472.444
828.645; 4935.757;  -10.543; 9292.643
829.210; 4795.580;  -10.533; 9065.341
829.776; 4767.155;  -10.753; 9132.620
830.341; 4643.845;  -10.173; 9092.878
830.906; 4795.326;  -10.743; 9078.557
831.472; 5095.897;  -11.113; 8534.535
832.037; 4875.160;  -10.603; 8677.874
832.602; 4385.288;  -13.323; 8628.692
833.167; 4168.235;  -10.823; 8879.031
833.733; 4138.914;  -10.113; 9189.790
834.298; 4275.348;  -13.583; 9052.608
834.863; 4381.015;  -12.703; 8895.087
835.428; 4385.850;  -10.523; 8824.266
835.993; 4237.173;   -6.963; 8845.385
836.558; 4082.924;  -10.763; 8888.563
837.123; 4184.006;   -9.903; 8966.582
837.688; 4435.335;   -9.913; 8617.860
838.253; 4667.892;  -10.283; 8590.699
838.817; 4836.753;  -12.963; 8443.797
839.382; 4757.153;  -14.243; 8799.356
839.947; 4467.731;  -10.733; 8810.595
840.511; 4168.939;   -9.383; 8796.394
841.076; 3799.172;  -12.563; 8347.231
841.641; 3867.287;  -12.953; 8224.330
842.205; 3977.789;   -7.043; 8223.349
842.770; 4018.799;   -8.163; 8622.107
843.334; 4154.790;  -12.503; 8410.386
843.898; 4133.540;  -11.693; 8337.465
844.463; 4137.140;  -10.203; 8506.283
845.027; 3928.842;   -9.533; 8280.962
845.591; 3747.272;  -13.443; 8231.141
846.156; 3727.849;  -13.143; 7969.179
846.720; 3643.772;   -9.433; 7768.278
847.284; 3535.442;  -11.033; 7630.957
847.848; 3396.725;  -10.403; 7472.395
848.412; 3287.045;  -11.553; 7437.394
848.976; 3305.913;   -8.393; 7674.592
849.540; 3221.875;   -8.713; 7836.011
850.104; 3290.172;  -12.463; 7913.669
850.668; 3629.342;  -12.973; 7694.508
851.232; 3773.256;  -10.793; 7756.887
851.796; 3634.986;  -10.662; 7926.545
852.359; 3322.321;  -13.082; 7827.844
852.923; 3162.183;  -12.192; 7641.163
853.487; 3042.415;  -11.912; 7342.501
854.050; 3011.630;  -10.892; 7042.820
854.614; 3119.431;  -13.992; 7151.338
855.177; 3212.341;  -11.732; 7105.077
855.741; 3244.990;   -8.962; 6989.675
856.304; 3162.566;   -9.442; 6596.634
856.868; 3147.319;  -14.192; 6356.272
857.431; 3280.637;  -12.702; 6468.571
857.995; 3420.719;   -9.942; 6373.210
858.558; 3441.115;   -9.112; 6324.448
859.121; 3181.629;  -12.932; 6408.327
859.684; 3017.381;  -13.442; 6347.886
860.247; 3106.060;  -10.632; 6321.264
860.810; 3118.222;  -11.272; 6301.903
861.374; 2876.256;   -9.832; 6607.881
861.937; 2626.672;  -11.762; 6408.200
862.500; 2632.594;   -9.722; 6572.639
863.062; 2774.840;  -10.512; 6387.297
863.625; 2902.043;  -11.232; 6190.836
864.188; 3056.447;  -14.112; 5807.254
864.751; 3149.032;  -11.302; 5682.413
865.314; 3069.271;  -10.112; 5547.492
865.876; 2854.828;  -12.182; 5500.150
866.439; 2823.523;  -10.722; 5415.909
867.002; 2782.424;   -9.252; 5501.567
867.564; 2597.437;   -9.572; 5413.946
868.127; 2385.126;  -13.142; 5160.325
868.689; 2264.175;  -12.902; 5133.183
869.252; 2152.805;   -9.732; 5252.382
869.814; 2039.561;   -9.432; 5297.141
870.377; 2044.235;  -11.552; 5390.919
870.939; 2114.775;   -9.052; 5599.898
871.501; 2194.848;  -10.982; 5248.336
872.063; 2215.655;  -12.292; 4854.235
872.626; 2166.028;  -14.912; 4817.074
873.188; 2157.097;  -13.112; 4987.732
873.750; 2128.261;  -13.442; 4868.651
874.312; 2060.119;   -9.402; 4779.330
874.874; 1980.348;  -11.062; 4866.348
875.436; 1895.764;  -13.931; 4718.887
875.998; 1882.314;   -9.561; 4660.005
876.560; 1898.187;  -11.321; 4462.964
877.122; 1841.736;  -12.221; 4145.042
877.683; 1752.621;  -12.191; 4056.481
878.245; 1675.353;  -12.101; 3950.740
878.807; 1708.901;   -8.971; 4058.958
879.369; 1734.132;  -12.071; 3954.677
879.930; 1649.587;  -14.621; 3941.495
880.492; 1587.942;  -10.311; 4067.014
881.053; 1549.484;  -10.901; 3859.633
881.615; 1450.842;  -14.411; 3776.071
882.176; 1359.188;  -13.761; 3734.750
882.738; 1309.494;   -9.181; 3678.489
883.299; 1286.102;  -11.791; 3405.407
883.860; 1277.594;  -13.121; 3351.106
884.422; 1266.529;  -11.211; 3394.044
884.983; 1225.185;  -10.091; 3166.443
885.544; 1151.660;   -8.461; 3189.802
886.105; 1078.475;  -12.361; 3160.360
886.666; 1015.135;  -14.141; 3093.059
887.227;  959.246;  -11.361; 2941.957
887.788;  899.872;  -11.401; 2974.836
888.349;  835.341;  -13.791; 2721.214
888.910;  831.876;  -13.191; 2696.493
889.471;  839.902;   -9.881; 2560.172
890.032;  819.453;   -9.881; 2558.190
890.593;  794.781;  -10.371; 2567.669
891.153;  770.469;  -13.301; 2460.307
891.714;  725.747;  -11.431; 2372.046
892.275;  686.275;  -11.291; 2309.505
892.835;  650.305;  -11.471; 2382.543
893.396;  599.740;  -11.541; 2295.502
893.956;  541.290;  -11.181; 2162.420
894.517;  501.068;  -11.741; 2125.439
895.077;  496.748;  -11.671; 2086.978
895.638;  499.335;  -11.311; 2126.316
896.198;  473.988;   -9.831; 1838.275
896.758;  433.280;   -8.421; 1892.813
897.319;  402.716;  -12.351; 1792.232
897.879;  386.802;  -13.511; 1762.751
898.439;  363.803;  -12.001; 1661.149
898.999;  339.271;  -10.180; 1781.468
899.559;  328.782;  -12.030; 1703.347
900.119;  323.902;  -15.710; 1537.525
900.679;  321.237;   -8.900; 1638.384
901.239;  307.326;   -8.340; 1527.902
901.799;  297.861;  -13.910; 1456.441
902.359;  292.009;  -13.460; 1357.140
902.919;  286.617;  -11.490; 1331.118
903.479;  273.458;  -12.110; 1317.257
904.038;  255.035;  -11.720; 1262.595
904.598;  240.806;  -13.610; 1152.034
905.158;  237.793;  -11.040; 1240.893
905.717;  229.489;  -10.900; 1233.691
906.277;  219.123;  -15.080; 1217.330
906.836;  209.548;  -13.380; 1222.408
907.396;  201.721;  -10.780; 1193.047
907.955;  193.679;   -8.500; 1182.526
908.515;  188.149;  -12.760; 1099.364
909.074;  183.530;  -11.900; 1092.863
909.633;  177.523;   -8.950; 1069.121
910.192;  172.313;   -8.770; 1196.460
910.752;  167.134;  -12.390; 1029.960
911.311;  163.820;  -13.680; 1009.780
911.870;  162.115;  -12.370;  971.460
912.429;  162.310;  -10.900; 1094.080
912.988;  161.483;  -11.690; 1081.060
913.547;  157.261;  -13.240;  940.380
914.106;  152.826;  -11.990;  999.420
914.665;  149.315;   -9.990;  984.020
915.224;  148.398;  -12.880; 1035.760
915.782;  148.082;  -12.350;  922.560
916.341;  149.055;   -9.110; 1049.840
916.900;  143.838;   -9.270;  925.260
917.458;  141.636;  -13.240;  884.220
918.017;  141.814;  -13.550;  942.600
918.576;  141.792;  -12.320;  904.440
919.134;  139.432;  -11.490;  837.980
919.693;  137.525;  -13.670;  893.060
920.251;  136.519;  -15.470;  876.500
920.809;  135.184;  -11.290;  839.580
921.368;  134.924;  -10.210;  885.360
921.926;  133.843;  -12.140;  842.940
922.484;  132.495;  -13.080;  903.360
923.042;  133.282;  -11.720;  880.340
923.601;  134.977;   -7.480;  998.680
924.159;  133.705;  -11.570;  935.560
924.717;  129.951;  -13.840;  841.080
925.275;  130.812;  -10.640;  903.240
925.833;  129.641;  -11.540;  779.320
926.391;  130.007;  -12.960;  938.380
926.949;  128.383;  -14.130;  857.680
927.506;  130.104;  -11.750;  903.500
928.064;  128.725;  -10.250;  877.580
928.622;  128.257;  -13.030;  880.100
929.180;  128.093;  -13.400;  814.180
929.737;  130.187;  -10.700;  808.540
930.295;  132.858;  -10.070;  928.480
930.853;  134.087;  -11.960;  849.100
931.410;  134.969;  -13.120;  821.120
931.968;  133.692;  -10.770;  940.660
932.525;  133.792;  -10.680;  909.380
933.082;  133.961;  -13.130;  811.440
933.640;  135.112;  -13.210;  925.900
934.197;  133.641;  -11.060;  886.360
934.754;  135.578;   -9.580;  897.780
935.312;  137.101;  -14.000;  863.340
935.869;  142.349;  -10.710; 1012.980
936.426;  142.343;   -9.860;  872.800
936.983;  142.852;   -9.710;  889.020
937.540;  142.472;  -13.990;  838.280
938.097;  141.275;  -14.040;  940.120
938.654;  142.125;  -10.310;  898.860
939.211;  143.698;  -10.560;  952.480
939.768;  146.448;  -13.900;  915.420
940.324;  150.445;  -14.760;  904.200
940.881;  152.761;  -10.370;  878.500
941.438;  152.404;   -8.260; 1021.200
941.995;  148.105;  -12.540;  992.560
942.551;  145.650;  -14.670;  875.620
943.108;  146.135;  -10.450;  937.920
943.664;  148.057;  -10.750;  869.340
944.221;  151.691;  -11.550; 1088.140
944.777;  149.410;  -14.770;  869.680
945.334;  150.685;  -12.820;  884.840
945.890;  151.603;  -10.130;  946.480
946.446;  151.296;  -13.470;  947.020
947.003;  152.906;  -12.120;  964.940
947.559;  157.036;   -9.980; 1063.040
948.115;  155.705;   -9.080; 1026.540
948.671;  153.476;  -10.830;  967.300
949.227;  151.570;  -12.440;  859.560
949.783;  149.420;  -12.910;  858.900
950.339;  150.933;  -10.270;  991.000
950.895;  150.840;  -13.630; 1023.840
951.451;  150.923;  -15.100;  925.280
952.007;  150.638;  -11.330;  998.540
952.563;  148.373;  -10.580;  937.780
953.118;  147.192;  -13.440;  904.940
953.674;  147.315;  -12.710;  935.780
954.230;  147.139;  -10.350;  949.640
954.785;  144.832;   -9.190;  936.640
955.341;  142.058;  -11.200;  998.160
955.897;  142.055;  -16.560;  834.660
956.452;  144.014;  -12.570;  953.840
957.008;  142.540;   -7.970; 1083.640
957.563;  139.609;  -11.940; 1009.540
958.118;  136.075;  -13.450;  877.700
958.674;  136.991;  -12.030;  946.780
959.229;  137.884;   -9.410; 1013.980
959.784;  135.490;  -12.000;  832.400
960.339;  134.338;  -14.780; 1001.280
960.894;  131.787;   -9.860;  963.760
961.449;  126.601;   -9.970;  859.960
962.004;  126.596;  -10.900; 1212.840
962.559;  121.666;  -13.150;  860.140
963.114;  119.127;  -13.740;  742.480
963.669;  118.630;   -9.820;  915.500
964.224;  116.456;  -13.890;  874.340
964.779;  116.336;  -12.600;  828.420
965.334;  118.022;  -10.950; 1017.860
965.888;  116.126;  -11.170;  875.360
966.443;  118.609;  -12.540;  972.380
966.998;  118.717;  -15.780;  819.460
967.552;  118.576;   -9.760;  908.380
968.107;  114.395;   -9.060;  868.300
968.661;  115.425;  -11.950;  922.440
969.216;  115.913;  -12.800;  856.280
969.770;  116.149;  -11.210;  917.200
970.324;  114.300;  -11.610;  923.140
970.879;  111.032;  -11.370;  947.180
971.433;  109.016;  -12.540;  952.720
971.987;  104.738;  -11.320;  895.340
972.541;  100.930;  -10.720;  917.100
973.095;   99.824;   -9.680; 1009.460
973.649;   98.258;  -11.440;  809.480
974.203;   98.155;  -11.210;  829.040
974.757;   98.258;  -10.240;  855.220
975.311;   97.611;  -13.720;  872.600
975.865;   97.323;  -13.770;  881.820
976.419;   96.039;  -11.690;  857.400
976.973;   95.860;   -9.510;  849.620
977.526;   96.665;  -12.620;  949.920
978.080;   95.975;  -12.010;  796.780
978.634;   98.424;  -10.170;  921.320
979.187;   94.564;   -9.020;  905.400
979.741;   92.659;   -9.820; 1018.380
980.294;   88.865;  -14.870;  789.160
980.848;   86.915;  -12.380;  717.220
981.401;   87.956;  -10.350;  816.540
981.955;   89.963;  -13.720;  844.300
982.508;   89.514;  -11.490;  746.340
983.061;   89.866;  -10.000;  915.260
983.615;   86.038;  -11.480;  798.800
984.168;   82.937;  -13.220;  770.080
984.721;   82.941;  -13.960;  880.760
985.274;   82.123;  -10.870;  867.500
985.827;   80.635;   -9.790;  834.220
986.380;   78.260;  -13.120;  721.340
986.933;   77.851;  -12.450;  864.800
987.486;   76.716;  -10.210;  861.920
988.039;   74.691;   -8.430;  863.100
988.591;   73.806;  -10.520;  893.260
989.144;   70.472;  -14.860;  737.260
989.697;   71.369;  -13.080;  758.740
990.250;   70.541;  -10.150;  858.100
990.802;   69.393;  -13.430;  755.860
991.355;   71.012;  -12.750;  974.880
991.907;   68.221;  -12.040;  864.320
992.460;   65.430;  -11.330;  753.760
993.012;   65.144;  -13.610;  749.540
993.565;   63.732;  -13.460;  711.360
994.117;   65.221;   -9.360;  950.780
994.669;   62.198;  -11.300;  701.320
995.221;   60.531;  -13.540;  791.920
995.774;   58.542;  -13.430;  787.580
996.326;   57.448;  -12.520;  740.220
996.878;   57.396;  -10.950;  838.420
997.430;   54.688;  -14.300;  699.860
997.982;   53.865;  -13.760;  750.140
998.534;   53.834;  -11.530;  739.060
999.086;   52.645;  -10.310;  738.220
999.638;   51.224;  -12.530;  661.380
1000.190;   50.702;  -11.840;  699.320
1000.741;   51.212;  -10.260;  742.700
1001.293;   50.161;   -8.860;  686.020
1001.845;   48.121;  -13.700;  676.640
1002.396;   49.136;  -12.100;  743.400
1002.948;   49.378;  -12.760;  737.400
1003.500;   46.756;  -10.380;  723.780
1004.051;   46.951;  -11.900;  907.580
1004.603;   45.446;  -12.250;  791.820
1005.154;   42.747;  -13.210;  608.980
1005.705;   41.184;  -10.950;  723.960
1006.257;   40.558;  -13.880;  707.220
1006.808;   40.103;  -12.840;  685.460
1007.359;   40.166;  -10.570;  763.240
1007.910;   38.898;   -9.620;  646.640
1008.461;   38.077;  -13.630;  732.940
1009.013;   36.734;  -17.200;  588.340
1009.564;   39.409;  -10.200;  793.520
1010.115;   36.112;  -12.570;  597.040
1010.665;   35.221;  -15.150;  602.160
1011.216;   36.096;  -14.480;  667.920
1011.767;   36.214;  -11.340;  697.920
1012.318;   35.991;   -9.780;  736.980
1012.869;   34.274;  -12.380;  679.000
1013.419;   34.840;  -15.560;  603.120
1013.970;   35.272;  -11.010;  666.640
1014.521;   33.515;  -11.610;  620.620
1015.071;   34.230;  -13.450;  670.380
1015.622;   33.426;  -13.870;  635.460
1016.172;   34.104;  -11.610;  596.820
1016.723;   32.541;  -12.120;  614.380
1017.273;   31.326;  -13.620;  604.160
1017.823;   33.168;  -14.140;  650.340
1018.374;   32.479;  -12.800;  611.760
1018.924;   31.713;  -12.340;  716.880
1019.474;   31.469;  -11.410;  718.880
1020.024;   31.359;  -14.770;  657.580
1020.574;   31.515;   -9.780;  726.160
1021.124;   32.397;   -8.560;  673.580
1021.674;   30.156;  -15.190;  559.120
1022.224;   32.012;  -13.530;  708.940
1022.774;   31.878;  -13.280;  668.820
1023.324;   31.262;  -10.690;  753.520
1023.874;   32.215;  -10.240;  875.760
1024.423;   29.325;  -12.540;  613.700
1024.973;   29.713;  -10.010;  610.760
1025.523;   28.713;  -10.550;  620.960
1026.072;   28.326;  -13.560;  606.420
1026.622;   28.358;  -15.120;  675.740
1027.172;   30.339;  -11.260;  715.660
1027.721;   28.015;  -11.410;  601.220
1028.270;   28.700;  -13.530;  663.400
1028.820;   28.216;  -13.680;  638.080
1029.369;   28.565;  -13.520;  612.700
1029.918;   28.005;  -10.980;  649.840
1030.468;   27.621;  -13.530;  564.780
1031.017;   27.900;  -13.170;  634.800
1031.566;   27.716;  -12.200;  608.900
1032.115;   27.557;   -9.960;  694.500
1032.664;   25.267;  -13.210;  596.480
1033.213;   27.123;  -12.500;  735.420
1033.762;   26.966;  -11.910;  635.620
1034.311;   26.048;   -9.640;  677.220
1034.860;   27.130;  -13.310;  691.000
1035.408;   26.649;  -11.830;  722.720
1035.957;   28.050;  -12.000;  719.540
1036.506;   24.830;  -11.690;  530.800
1037.055;   26.636;  -10.990;  844.320
1037.603;   25.357;  -15.120;  664.000
1038.152;   24.782;  -12.450;  534.760
1038.700;   24.072;  -10.560;  585.740
1039.249;   23.661;  -11.080;  681.220
1039.797;   25.066;  -12.540;  633.360
1040.345;   25.073;  -11.920;  705.420
1040.894;   23.888;  -11.410;  625.300
1041.442;   23.625;  -14.320;  632.200
1041.990;   22.970;  -16.240;  559.160
1042.538;   23.496;  -11.680;  536.180
1043.087;   22.926;  -10.760;  570.860
1043.635;   23.972;  -11.850;  670.500
1044.183;   22.889;  -15.480;  586.400
1044.731;   23.596;  -11.770;  576.000
1045.279;   22.086;  -13.090;  674.920
1045.827;   24.328;  -12.440;  892.400
1046.374;   21.396;  -13.840;  515.420
1046.922;   22.212;  -13.220;  590.580
1047.470;   23.330;  -10.230;  691.300
1048.018;   22.691;  -14.590;  647.960
1048.565;   23.365;  -12.050;  708.600
1049.113;   22.136;  -11.650;  557.000
1049.660;   21.430;  -10.510;  629.660
1050.208;   21.783;  -13.310;  675.640
1050.755;   20.651;  -15.900;  606.580
1051.303;   21.807;  -11.430;  686.820
1051.850;   20.719;   -8.480;  635.120
1052.397;   18.824;  -15.010;  473.960
1052.945;   20.032;  -13.960;  617.760
1053.492;   21.780;  -13.150;  741.840
1054.039;   21.072;   -9.630;  720.180
1054.586;   18.991;  -13.680;  557.240
1055.133;   20.254;  -14.570;  693.140
1055.680;   20.981;  -13.820;  646.620
1056.227;   19.140;  -11.730;  542.780
1056.774;   20.847;  -12.480;  794.980
1057.321;   18.689;  -13.930;  523.260
1057.868;   19.704;  -11.690;  651.320
1058.415;   18.749;   -9.520;  651.980
1058.961;   19.785;  -13.160;  678.940
1059.508;   18.763;  -12.920;  643.820
1060.055;   19.148;  -11.920;  581.780
1060.601;   19.880;  -11.500;  624.300
1061.148;   18.045;  -14.330;  616.820
1061.694;   17.704;  -16.870;  592.580
1062.241;   18.655;  -10.330;  596.320
1062.787;   18.216;  -10.620;  663.140
1063.334;   19.596;  -10.110;  808.560
1063.880;   18.065;  -13.400;  668.360
1064.426;   18.444;  -10.680;  706.820
1064.972;   17.248;   -9.920;  601.340
1065.518;   15.572;  -10.980;  566.640
1066.065;   17.317;  -14.890;  624.460
1066.611;   16.554;  -12.870;  598.800
1067.157;   17.807;  -12.950;  641.860
1067.703;   16.610;  -13.540;  668.480
1068.249;   17.068;  -13.540;  605.220
1068.794;   17.450;  -12.600;  626.880
1069.340;   15.835;  -10.620;  578.960
1069.886;   16.265;  -12.830;  590.700
1070.432;   15.359;  -14.870;  541.720
1070.977;   15.789;  -11.980;  601.080
1071.523;   15.336;   -8.200;  573.060
1072.068;   15.776;  -12.330;  582.000
1072.614;   15.544;  -16.370;  527.760
1073.160;   16.695;  -11.100;  687.040
1073.705;   14.581;  -10.480;  572.520
1074.250;   14.560;  -14.520;  559.900
1074.796;   15.936;  -11.460;  655.160
1075.341;   16.507;  -11.950;  664.100
1075.886;   14.977;  -11.460;  594.240
1076.431;   13.893;  -13.770;  649.880
1076.976;   14.399;  -12.680;  639.220
1077.521;   14.732;  -13.170;  583.080
1078.067;   13.844;  -10.860;  579.400
1078.612;   14.373;  -13.920;  661.620
1079.156;   14.398;  -13.880;  601.540
1079.701;   14.868;  -13.120;  693.260
1080.246;   15.465;   -9.940;  696.300
1080.791;   14.108;  -14.740;  625.020
1081.336;   14.188;  -13.750;  659.320
1081.880;   14.632;  -13.400;  649.680
1082.425;   13.438;  -12.220;  573.480
1082.970;   14.359;  -11.610;  717.040
1083.514;   13.260;  -13.580;  597.000
1084.059;   13.336;  -12.810;  586.720
1084.603;   12.820;  -12.320;  565.840
1085.147;   13.006;  -13.190;  645.220
1085.692;   13.856;  -12.480;  716.800
1086.236;   12.251;  -13.020;  503.140
1086.780;   14.508;   -9.190;  751.440
1087.325;   12.567;  -12.480;  654.620
1087.869;   12.718;  -12.450;  610.700
1088.413;   14.124;  -12.240;  705.040
1088.957;   11.051;   -9.020;  543.400
1089.501;   12.982;  -10.320;  766.640
1090.045;   12.652;  -12.720;  726.480
1090.589;   10.955;  -13.690;  569.920
1091.133;   12.631;  -10.020;  673.340
1091.676;   11.557;  -12.330;  591.940
1092.220;   11.167;  -14.970;  600.920
1092.764;   13.029;  -12.430;  706.960
1093.307;   11.855;   -9.800;  673.780
1093.851;    9.988;  -14.970;  556.540
1094.395;   11.319;  -15.310;  683.140
1094.938;   11.218;  -10.370;  632.520
1095.482;   11.159;  -11.050;  559.800
1096.025;   10.623;  -11.840;  710.880
1096.568;   11.566;  -12.840;  779.280
1097.112;    9.837;  -14.700;  508.180
1097.655;   10.823;   -8.720;  603.000
1098.198;    8.662;  -13.610;  600.180
1098.741;    9.893;  -13.350;  612.860
1099.285;   10.852;  -11.230;  657.300
1099.828;    8.830;  -11.840;  439.400
1100.371;    9.435;  -10.840;  608.160
1100.914;   10.053;  -14.190;  682.660
1101.457;   10.273;  -11.240;  679.900
1101.999;    8.867;  -11.270;  584.680
1102.542;    9.543;  -11.480;  641.440
1103.085;    8.586;  -11.750;  658.500
1103.628;    9.912;  -11.400;  762.060
1104.170;    9.229;  -10.490;  588.280
1104.713;    8.915;  -10.600;  646.700
1105.256;    8.637;  -14.360;  557.440
1105.798;    8.088;  -13.210;  499.980
1106.341;    9.959;  -10.270;  728.900
1106.883;    7.724;  -12.200;  521.340
1107.425;    8.584;  -13.110;  668.180
1107.968;    8.539;  -12.840;  612.380
1108.510;    8.855;   -6.480;  684.960
1109.052;    6.515;  -13.940;  612.620
1109.594;    7.005;  -13.690;  554.440
1110.136;    9.057;  -11.880;  643.220
1110.679;    7.127;   -9.500;  633.080
1111.221;    8.008;  -14.160;  604.460
1111.763;    6.399;  -13.980;  559.220
1112.304;    7.315;  -13.880;  547.140
1112.846;    7.686;  -12.210;  666.240
1113.388;    9.088;  -11.390;  942.180
1113.930;    7.289;  -14.540;  694.200
1114.472;    7.433;  -12.640;  606.540
1115.013;    5.956;  -11.620;  551.280
1115.555;    5.872;  -13.640;  587.100
1116.097;    5.965;  -15.380;  579.480
1116.638;    6.596;  -12.640;  684.600
1117.180;    7.102;   -9.850;  667.740
1117.721;    6.104;  -13.690;  568.580
1118.262;    7.027;  -12.680;  677.960
1118.804;    7.348;  -12.530;  637.340
1119.345;    5.429;  -11.690;  578.400
1119.886;    6.877;  -13.380;  704.040
1120.427;    6.060;  -14.070;  589.020
1120.969;    5.918;  -13.500;  597.920
1121.510;    5.773;  -11.480;  563.060
1122.051;    6.039;  -12.830;  723.580
1122.592;    5.117;  -14.290;  655.420
1123.133;    4.646;  -12.400;  547.940
1123.673;    6.519;  -10.130;  706.480
1124.214;    4.647;  -12.930;  612.460
1124.755;    5.383;  -14.380;  639.460
1125.296;    5.932;  -14.000;  627.320
1125.836;    6.451;  -10.070;  691.500
1126.377;    3.850;  -12.640;  599.660
1126.918;    4.883;  -12.960;  614.980
1127.458;    4.886;  -13.350;  622.220
1127.999;    5.079;  -10.750;  656.980
1128.539;    4.453;  -12.350;  694.240
1129.079;    4.407;  -14.860;  632.720
1129.620;    4.854;  -13.840;  558.100
1130.160;    3.484;  -12.330;  539.480
1130.700;    4.105;  -14.530;  640.840
1131.240;    4.428;  -12.530;  643.700
1131.781;    4.797;  -14.450;  619.680
1132.321;    3.939;   -9.790;  599.120
1132.861;    2.828;  -14.860;  564.200
1133.401;    2.887;  -14.290;  593.940
1133.941;    4.284;  -11.750;  626.280
1134.481;    3.582;   -9.920;  597.580
1135.020;    2.888;  -12.290;  609.160
1135.560;    4.071;  -11.650;  674.940
1136.100;    3.477;  -16.270;  501.160
1136.640;    2.378;  -10.890;  510.480
1137.179;    2.104;  -14.180;  537.960
1137.719;    2.817;  -16.250;  605.400
1138.258;    3.686;  -14.230;  587.360
1138.798;    3.604;   -9.090;  663.780
1139.337;    1.484;  -15.130;  482.840
1139.877;    3.178;  -13.680;  642.360
1140.416;    5.753;  -11.320;  878.060
1140.955;    2.206;  -10.860;  535.380
1141.494;    2.010;  -12.920;  669.280
1142.034;    2.624;  -13.930;  583.520
1142.573;    4.049;  -11.440;  646.280
1143.112;    2.403;  -12.000;  553.480
1143.651;    1.336;  -13.670;  536.480
1144.190;    2.619;  -12.730;  691.640
1144.729;    2.491;  -14.560;  607.420
1145.267;    2.191;  -11.830;  584.900
1145.806;    2.270;  -12.230;  637.040
1146.345;    1.667;  -14.130;  635.020
1146.884;    2.494;  -11.590;  622.500
1147.422;    1.030;  -12.550;  533.060
1147.961;    2.416;  -11.180;  708.460
1148.500;    3.331;  -11.510;  669.720
1149.038;    2.850;  -11.640;  632.500
1149.577;    2.179;  -10.130;  698.640
1150.115;   -0.503;  -13.970;  452.280
1150.653;    1.167;  -14.520;  607.340
1151.192;    1.802;  -12.810;  552.920
1151.730;    1.147;   -9.100;  652.560
1152.268;    0.082;  -12.220;  589.520
1152.806;    0.709;  -14.140;  571.180
1153.344;    0.457;  -12.350;  577.640
1153.882;    1.422;   -8.980;  600.060
1154.421;   -0.484;  -15.190;  470.620
1154.958;   -0.314;  -15.210;  595.240
1155.496;    2.047;  -12.850;  645.280
1156.034;    1.359;   -9.940;  721.880
1156.572;    1.113;  -13.570;  667.060
1157.110;   -0.172;  -14.590;  473.940
1157.647;    1.292;  -13.030;  676.960
1158.185;   -0.557;  -12.140;  564.320
1158.723;   -0.968;  -14.390;  509.200
1159.260;    0.089;  -14.090;  701.700
1159.798;    0.982;  -11.920;  658.160
1160.335;    0.198;  -11.110;  631.820

