
Integration time [ms]:   3.276
Averaging Nr. [scans]: 1000
Smoothing Nr. [pixels]: 0
Data measured with spectrometer [name]: 7414430SP
Wave   ;Sample   ;Dark     ;Reference
[nm]   ;[counts] ;[counts] ;[counts] 

288.544;  149.481;    7.793;  793.890
289.143;  154.169;    7.462;  681.602
289.742;  153.921;    8.602;  828.814
290.341;  138.775;    1.321;  789.841
290.940;  128.608;   -0.709;  730.702
291.538;  129.010;    0.881;  881.108
292.137;  129.344;    0.122;  792.581
292.736;  133.570;   -1.929;  975.101
293.335;  130.445;   -8.229;  735.086
293.934;  130.831;   -5.279;  781.677
294.532;  128.270;   -1.369; 1031.958
295.131;  115.045;   -7.641;  834.394
295.730;  115.305;   -8.420;  809.588
296.328;  115.310;   -5.611;  783.442
296.927;  115.575;   -5.781;  779.652
297.525;  116.396;   -6.361;  781.236
298.124;  106.396;  -11.382;  654.009
298.722;  110.574;   -7.641;  761.933
299.321;  107.846;   -6.811;  708.597
299.919;  106.155;   -6.991;  751.918
300.518;  103.172;  -10.362;  689.338
301.116;  105.479;   -9.581;  691.381
301.715;  104.322;   -4.891;  730.222
302.313;  103.212;   -8.801;  704.943
302.911;   98.917;   -8.522;  733.830
303.509;  104.592;   -6.171;  925.627
304.108;  102.249;   -7.311;  760.383
304.706;  101.168;   -8.321;  801.664
305.304;   95.766;  -10.222;  796.707
305.902;  100.816;   -6.021;  784.484
306.500;   96.292;   -4.971;  728.200
307.098;   95.100;   -7.061;  746.560
307.696;   93.261;   -8.801;  780.432
308.294;   93.885;   -6.411;  731.359
308.892;   95.151;   -2.901;  759.769
309.490;   91.816;   -5.041;  712.161
310.088;   90.174;   -5.002;  788.444
310.686;   94.231;   -2.041;  821.749
311.284;   90.374;   -2.351;  766.040
311.882;   88.159;   -4.422;  731.225
312.480;   85.124;   -4.192;  697.167
313.078;   86.049;   -1.172;  808.331
313.675;   86.490;   -2.601;  691.600
314.273;   81.980;   -1.312;  797.837
314.871;   81.591;   -3.942;  589.829
315.468;   79.469;   -2.802;  652.090
316.066;   81.200;   -0.701;  694.427
316.664;   76.156;   -4.362;  656.351
317.261;   78.688;   -2.872;  910.128
317.859;   74.979;   -2.022;  768.735
318.456;   75.075;   -0.531;  830.096
319.054;   71.903;   -3.912;  787.828
319.651;   70.233;   -4.752;  759.928
320.249;   68.857;   -2.602;  810.188
320.846;   66.881;   -0.821;  714.286
321.443;   64.246;   -4.642;  832.135
322.041;   61.201;   -5.002;  812.315
322.638;   59.239;   -3.982;  701.456
323.235;   60.358;   -3.411;  665.683
323.833;   57.939;   -7.361;  740.354
324.430;   52.693;   -8.611;  615.900
325.027;   54.161;   -4.061;  876.855
325.624;   52.980;   -4.031;  644.532
326.221;   50.339;   -7.481;  689.717
326.818;   51.042;   -5.281;  818.332
327.415;   53.934;   -7.460;  748.828
328.012;   51.865;   -5.510;  690.585
328.609;   51.346;   -7.880;  731.389
329.206;   49.502;   -8.331;  778.621
329.803;   50.101;   -5.121;  737.841
330.400;   52.071;   -4.510;  704.260
330.997;   54.050;   -6.441;  817.147
331.594;   52.087;   -8.831;  788.185
332.191;   57.907;   -7.621;  728.722
332.787;   60.972;   -4.591;  844.463
333.384;   59.222;   -7.412;  763.093
333.981;   58.759;   -8.293;  815.687
334.578;   60.027;   -7.052;  708.378
335.174;   63.612;   -3.102;  731.469
335.771;   63.243;   -5.943;  836.456
336.367;   60.077;   -7.393;  710.631
336.964;   64.606;   -4.063;  793.266
337.561;   61.322;   -3.813;  731.112
338.157;   56.794;   -4.654;  911.916
338.754;   55.517;   -7.934;  796.589
339.350;   53.490;   -4.414;  722.493
339.946;   54.922;   -4.664;  773.135
340.543;   46.413;   -6.375;  846.136
341.139;   41.791;   -9.815;  720.836
341.735;   40.183;   -4.526;  772.593
342.332;   37.866;   -4.895;  691.472
342.928;   38.335;   -4.295;  795.394
343.524;   32.887;   -5.476;  761.684
344.120;   28.878;   -5.856;  738.562
344.716;   31.630;   -2.155;  723.717
345.313;   30.678;   -6.275;  795.342
345.909;   25.362;   -8.815;  627.336
346.505;   26.770;   -5.305;  740.247
347.101;   26.406;   -2.674;  827.864
347.697;   27.120;   -4.344;  785.398
348.293;   22.722;   -9.975;  627.244
348.889;   23.045;   -5.774;  745.914
349.485;   22.023;   -5.004;  688.205
350.081;   22.685;   -4.704;  772.592
350.676;   17.952;   -6.635;  691.606
351.272;   22.613;   -4.504;  809.530
351.868;   22.030;   -3.914;  780.497
352.464;   19.298;   -9.044;  723.932
353.059;   15.560;   -8.314;  646.017
353.655;   18.982;   -7.024;  777.063
354.251;   19.831;   -5.343;  759.845
354.846;   14.210;   -8.604;  740.646
355.442;   12.153;   -6.945;  753.071
356.038;   14.014;   -7.564;  751.708
356.633;   13.858;   -5.814;  728.594
357.229;   11.504;   -7.364;  724.757
357.824;   10.130;   -8.024;  703.600
358.420;    9.654;   -9.384;  679.726
359.015;    9.836;   -5.104;  695.357
359.610;   10.782;   -6.854;  763.920
360.206;    5.053;  -10.185;  603.240
360.801;    8.064;   -7.054;  646.503
361.396;   10.035;   -5.034;  725.975
361.992;    5.159;   -8.284;  668.220
362.587;    3.238;   -8.625;  670.160
363.182;    4.911;   -7.674;  689.631
363.777;    4.923;   -5.164;  738.242
364.372;    5.538;   -8.604;  737.314
364.967;    1.414;   -9.055;  680.744
365.563;    5.953;   -6.114;  815.567
366.158;    3.022;   -5.814;  685.161
366.753;    2.855;   -7.854;  649.263
367.348;    2.266;   -7.804;  746.056
367.942;    1.721;   -7.954;  697.298
368.537;    0.455;   -4.984;  754.245
369.132;    0.099;   -8.564;  703.428
369.727;   -3.395;   -8.855;  638.079
370.322;   -1.448;   -6.245;  580.186
370.917;   -2.049;   -6.425;  710.646
371.511;    0.320;   -6.294;  861.834
372.106;   -2.614;   -7.685;  776.964
372.701;   -5.268;   -7.335;  585.988
373.296;   -0.484;   -4.564;  863.135
373.890;   -5.491;  -10.235;  647.840
374.485;   -6.964;   -7.885;  691.199
375.079;   -2.902;   -7.324;  738.685
375.674;   -2.144;   -3.494;  812.970
376.268;   -7.211;   -8.525;  691.759
376.863;  -12.162;  -10.086;  580.327
377.457;   -5.722;   -7.025;  662.490
378.052;   -8.661;   -3.585;  764.884
378.646;   -8.565;   -7.595;  741.167
379.240;   -9.434;   -8.335;  721.176
379.835;   -7.830;   -5.785;  636.978
380.429;  -10.503;   -4.335;  562.557
381.023;  -10.586;   -6.805;  779.205
381.617;  -12.522;   -9.195;  680.106
382.212;   -9.098;   -6.905;  685.303
382.806;   -8.521;   -3.745;  760.690
383.400;  -12.023;   -7.745;  672.281
383.994;  -13.364;   -9.765;  664.870
384.588;   -8.758;   -6.564;  697.701
385.182;   -8.800;   -5.344;  726.624
385.776;  -10.435;   -8.514;  706.875
386.370;  -13.845;   -9.555;  681.968
386.964;  -12.131;   -8.715;  684.155
387.558;  -11.518;   -6.174;  598.360
388.152;  -14.127;   -8.725;  681.959
388.745;  -11.838;   -7.965;  814.707
389.339;   -9.839;   -5.924;  747.642
389.933;   -9.283;   -5.524;  695.370
390.527;  -10.572;   -7.114;  859.029
391.120;  -17.032;  -10.725;  595.318
391.714;  -12.918;   -8.035;  711.633
392.308;  -10.865;   -3.574;  780.253
392.901;  -15.054;   -7.245;  642.460
393.495;  -15.969;   -9.285;  595.414
394.089;  -12.923;   -5.895;  760.452
394.682;  -14.626;   -4.295;  697.188
395.275;  -15.345;   -9.875;  719.927
395.869;  -16.536;   -8.485;  667.314
396.462;  -14.462;   -7.455;  616.609
397.056;  -10.921;   -5.424;  776.621
397.649;  -16.189;   -6.605;  731.575
398.242;  -12.954;   -8.224;  712.645
398.836;  -11.933;   -7.474;  766.408
399.429;  -13.365;   -7.094;  631.041
400.022;  -16.514;   -9.475;  665.902
400.615;  -15.161;   -7.145;  805.609
401.208;  -11.892;   -7.174;  691.451
401.802;  -14.687;   -5.515;  699.329
402.395;  -16.115;   -9.875;  683.502
402.988;  -17.004;   -8.845;  696.627
403.581;  -12.996;   -8.874;  646.878
404.174;  -11.578;   -5.324;  686.568
404.767;  -14.754;   -9.575;  638.583
405.360;  -16.987;  -10.965;  621.445
405.953;  -11.126;   -8.764;  759.034
406.545;  -11.236;   -7.514;  725.342
407.138;  -15.738;  -10.025;  618.350
407.731;  -14.014;  -10.034;  613.303
408.324;   -9.642;   -9.374;  660.554
408.917;  -11.081;   -6.534;  681.864
409.509;  -13.549;   -8.004;  740.396
410.102;  -14.733;   -9.875;  643.948
410.695;   -8.858;   -8.604;  665.758
411.287;  -10.274;   -6.794;  599.821
411.880;  -10.851;   -9.334;  585.421
412.472;  -14.341;  -10.254;  613.092
413.065;  -10.930;   -6.714;  629.408
413.657;   -9.068;   -7.234;  576.678
414.250;   -9.231;  -10.544;  646.681
414.842;  -10.530;   -9.744;  676.353
415.434;   -7.699;   -6.994;  570.463
416.027;   -5.397;   -5.893;  652.196
416.619;   -6.778;   -7.264;  713.400
417.211;   -6.402;  -10.374;  599.352
417.804;   -3.416;   -7.993;  628.499
418.396;   -7.419;   -7.234;  607.643
418.988;   -5.709;   -9.443;  659.238
419.580;   -8.489;  -10.724;  568.276
420.172;   -5.707;  -10.323;  536.196
420.764;   -1.809;   -8.793;  672.482
421.356;   -3.211;  -11.143;  636.898
421.948;   -3.640;   -8.293;  677.661
422.540;    1.066;   -7.893;  680.027
423.132;   -0.402;   -7.082;  600.641
423.724;   -4.029;   -8.653;  561.267
424.316;   -1.452;  -10.213;  621.345
424.908;    1.704;   -9.762;  591.517
425.500;    2.906;   -5.572;  647.978
426.092;    3.207;   -8.422;  648.268
426.683;    2.372;   -9.283;  684.836
427.275;    5.820;   -7.852;  641.471
427.867;    6.468;   -5.272;  668.948
428.458;    6.634;   -7.682;  732.344
429.050;    5.348;  -10.612;  680.749
429.642;    8.126;   -9.882;  743.124
430.233;    8.146;   -6.962;  569.356
430.825;    9.788;   -6.842;  724.809
431.416;    7.704;   -9.672;  698.241
432.008;   10.360;   -6.552;  651.723
432.599;   11.100;   -6.891;  656.073
433.190;    7.888;  -10.912;  637.670
433.782;    7.956;  -11.172;  590.395
434.373;   14.829;   -6.061;  884.765
434.964;   13.832;   -8.251;  602.920
435.556;   10.863;   -9.722;  634.537
436.147;   13.666;   -9.082;  758.490
436.738;   14.069;   -8.041;  701.099
437.329;   18.936;   -7.341;  721.723
437.920;   11.775;   -8.162;  666.688
438.511;   12.282;  -11.802;  564.526
439.103;   19.260;  -10.191;  623.998
439.694;   20.769;   -7.601;  681.583
440.285;   21.284;   -8.541;  764.432
440.876;   19.150;   -9.751;  845.738
441.466;   19.586;   -9.401;  575.162
442.057;   23.489;   -7.760;  665.814
442.648;   23.288;   -9.971;  746.255
443.239;   21.166;  -11.001;  620.477
443.830;   26.857;   -7.990;  704.958
444.421;   27.468;   -7.910;  655.474
445.011;   24.053;   -8.131;  693.619
445.602;   23.938;   -7.111;  743.126
446.193;   25.788;  -10.920;  488.117
446.783;   30.226;   -6.500;  640.397
447.374;   25.027;   -8.671;  692.759
447.964;   26.548;  -10.781;  713.770
448.555;   34.826;   -9.650;  822.742
449.145;   30.852;   -8.660;  662.853
449.736;   32.115;   -8.990;  803.179
450.326;   32.406;   -9.500;  713.626
450.917;   36.841;   -8.680;  675.324
451.507;   36.093;   -7.520;  600.661
452.097;   36.264;   -8.590;  746.267
452.688;   37.618;  -11.340;  742.160
453.278;   38.047;  -10.100;  566.840
453.868;   42.263;   -6.019;  793.550
454.458;   39.003;   -9.440;  651.141
455.048;   39.405;  -10.560;  711.783
455.639;   42.206;  -11.799;  567.096
456.229;   45.156;   -6.899;  710.694
456.819;   46.012;   -7.389;  751.158
457.409;   48.066;  -11.119;  773.993
457.999;   50.511;   -9.289;  737.505
458.589;   49.949;   -6.139;  686.606
459.179;   49.355;   -8.729;  717.658
459.769;   47.953;   -9.789;  627.099
460.358;   53.490;  -10.259;  797.262
460.948;   53.169;   -7.299;  689.503
461.538;   54.278;  -10.289;  660.677
462.128;   52.338;  -11.269;  664.934
462.717;   58.916;   -9.368;  710.326
463.307;   61.713;   -7.908;  705.846
463.897;   57.644;   -9.599;  656.942
464.486;   57.029;   -9.769;  837.128
465.076;   61.633;   -8.048;  733.776
465.666;   64.517;   -9.358;  652.900
466.255;   62.556;   -7.919;  785.651
466.845;   61.446;  -11.689;  666.749
467.434;   65.224;   -7.818;  725.873
468.023;   65.972;   -7.678;  658.357
468.613;   63.311;  -10.939;  713.946
469.202;   67.591;  -10.118;  646.507
469.791;   71.865;   -9.108;  737.811
470.381;   73.294;   -6.058;  742.813
470.970;   72.834;  -10.428;  711.099
471.559;   72.859;  -10.268;  733.291
472.148;   76.437;   -8.448;  675.737
472.738;   79.043;   -6.917;  765.466
473.327;   77.500;  -11.978;  637.529
473.916;   77.686;  -11.888;  737.446
474.505;   83.281;   -9.437;  751.703
475.094;   85.493;   -6.747;  806.570
475.683;   84.302;   -9.367;  797.699
476.272;   85.074;  -12.637;  730.632
476.861;   88.262;  -10.027;  706.754
477.449;   94.824;   -8.716;  728.487
478.038;   88.254;   -9.577;  692.513
478.627;   89.844;   -9.718;  714.852
479.216;   97.308;   -8.947;  769.441
479.805;   98.928;   -6.256;  783.375
480.393;   98.830;   -7.937; 1008.945
480.982;   98.561;   -7.717;  874.501
481.571;  104.721;   -9.266;  858.333
482.159;  104.678;   -7.636;  705.386
482.748;  104.488;   -9.667;  821.385
483.336;  109.019;  -10.376;  858.209
483.925;  110.576;   -7.147;  774.373
484.513;  116.810;   -7.996;  758.962
485.102;  112.556;  -10.027;  810.965
485.690;  122.374;  -10.446; 1011.050
486.278;  123.802;   -8.446;  979.329
486.867;  123.791;   -6.356;  809.662
487.455;  126.150;   -9.136;  898.229
488.043;  127.049;  -10.646;  748.361
488.631;  136.376;   -7.456; 1005.079
489.220;  139.766;   -6.636;  908.626
489.808;  139.463;  -11.036;  741.415
490.396;  146.699;  -10.246;  914.645
490.984;  154.317;   -8.556;  830.161
491.572;  162.224;   -5.886;  940.315
492.160;  167.373;   -9.486;  919.081
492.748;  179.391;  -10.976;  884.341
493.336;  202.272;   -8.776; 1019.693
493.924;  227.285;   -5.465;  958.077
494.512;  252.209;   -9.986; 1066.638
495.100;  288.625;  -10.636; 1103.280
495.687;  342.950;  -10.885; 1206.373
496.275;  401.793;   -8.126; 1150.796
496.863;  469.328;  -10.586; 1281.171
497.451;  567.775;  -11.926; 1386.805
498.038;  692.923;  -10.885; 1556.729
498.626;  792.547;   -6.315; 1741.407
499.214;  931.114;   -7.326; 2016.609
499.801; 1118.813;  -11.906; 2220.633
500.389; 1354.250;  -10.466; 2312.494
500.976; 1651.371;   -5.236; 2744.849
501.564; 2068.538;   -8.936; 3148.565
502.151; 2429.073;  -13.176; 3515.999
502.738; 2859.330;  -10.646; 3971.274
503.326; 3234.180;   -9.525; 4403.796
503.913; 3593.333;  -10.856; 5161.749
504.500; 3941.654;  -11.586; 5986.420
505.088; 4341.737;  -10.336; 6381.201
505.675; 4851.797;   -6.355; 6925.547
506.262; 5543.246;   -9.046; 7619.060
506.849; 6230.261;  -10.416; 8733.969
507.436; 6668.757;  -10.305; 9790.121
508.023; 7208.366;   -5.496; 9985.472
508.610; 7471.693;   -7.856;10434.618
509.197; 8110.736;  -10.097;11198.435
509.784; 9443.403;  -10.886;12391.194
510.371;10443.905;   -9.315;13603.713
510.958;11162.210;   -9.936;14426.586
511.545;11918.274;   -9.326;15243.775
512.132;12770.058;  -10.075;15945.876
512.719;13318.460;   -7.796;16340.369
513.305;14199.476;  -10.606;18011.766
513.892;14908.981;  -11.486;19754.971
514.479;16221.200;   -9.126;20967.805
515.066;17712.975;   -6.026;22299.793
515.652;18940.867;   -8.466;22908.660
516.239;20234.229;  -10.886;23798.875
516.825;21350.248;  -11.496;25567.275
517.412;22387.865;   -5.796;28154.959
517.998;22911.611;  -10.506;28344.111
518.585;22965.506;  -10.076;27134.219
519.171;23539.402;   -8.315;27268.576
519.758;24890.670;   -8.596;28964.129
520.344;26690.883;   -8.466;30664.494
520.930;26853.637;  -11.006;32550.605
521.516;28290.277;  -10.495;35422.895
522.103;30584.723;   -5.526;38280.004
522.689;31136.943;   -8.746;37835.117
523.275;30629.719;  -11.376;37288.613
523.861;31841.713;  -11.156;37281.395
524.447;33122.590;   -8.135;37846.949
525.033;32905.914;   -7.896;38321.949
525.619;33137.043;  -12.476;38579.285
526.205;34819.203;   -9.516;40622.875
526.791;37055.258;   -6.926;42258.836
527.377;37356.852;   -8.346;42966.902
527.963;38923.707;   -8.717;42018.949
528.549;37341.004;  -11.016;42476.828
529.135;36121.293;   -8.536;41854.852
529.721;35624.324;   -9.666;41237.711
530.306;34931.582;  -10.066;41259.445
530.892;34738.625;  -11.356;41506.047
531.478;36137.516;   -6.596;43559.613
532.063;39042.742;   -8.836;47695.563
532.649;39435.066;  -10.047;50808.324
533.235;40422.836;   -9.746;51787.500
533.820;41170.223;   -6.566;52145.035
534.406;42610.699;  -10.817;51133.488
534.991;42430.035;   -9.416;49996.805
535.576;41076.770;   -9.036;48882.852
536.162;41523.910;   -6.156;46942.285
536.747;42336.930;  -11.607;45711.746
537.333;46081.516;  -11.787;48510.180
537.918;48995.434;  -12.437;50439.891
538.503;47563.316;   -7.196;50863.711
539.088;44286.496;  -10.556;50906.922
539.673;44086.531;   -8.767;52621.965
540.259;44148.109;  -10.026;52368.094
540.844;41663.465;   -7.416;50879.109
541.429;42757.121;   -9.467;52077.777
542.014;45524.230;   -9.527;52716.695
542.599;45046.539;   -9.946;52363.281
543.184;42949.133;   -7.927;53187.137
543.769;44344.121;   -9.297;54697.605
544.354;43737.711;  -10.127;53913.914
544.938;42493.246;   -9.267;49680.164
545.523;44367.012;   -6.506;47386.277
546.108;46897.746;   -9.787;49151.949
546.693;48906.828;  -11.587;51384.637
547.278;48545.719;  -10.986;51853.254
547.862;45730.605;   -8.206;51173.750
548.447;41453.164;  -10.067;51691.395
549.031;40990.883;   -9.637;52456.703
549.616;45819.766;   -9.926;52714.516
550.201;45102.922;   -6.347;52414.598
550.785;46219.059;   -7.917;52355.059
551.370;45418.961;  -10.867;54589.453
551.954;44993.395;   -9.047;58267.348
552.538;45766.875;   -7.827;59062.176
553.123;44197.699;  -10.287;58115.285
553.707;42139.789;  -12.178;56556.285
554.291;43342.344;   -8.717;56201.668
554.876;45441.625;   -7.457;55335.762
555.460;45724.691;  -10.387;54155.703
556.044;46875.941;   -9.618;53721.484
556.628;45571.457;  -11.567;53731.016
557.212;44342.320;   -8.097;54312.531
557.796;42901.207;  -11.077;53797.773
558.380;42771.590;  -11.108;56145.984
558.964;43024.371;   -9.057;57277.930
559.548;44145.359;   -6.977;56459.641
560.132;42612.176;  -11.457;54434.543
560.716;41397.902;  -11.378;54800.617
561.300;42481.543;   -9.577;57606.945
561.884;43555.898;   -7.127;58972.445
562.467;42108.805;   -7.118;57327.570
563.051;41502.836;  -13.358;54962.434
563.635;42441.043;  -10.178;52594.473
564.219;42526.617;   -7.837;50610.410
564.802;43335.070;  -11.398;49551.180
565.386;43336.000;  -12.788;48370.953
565.969;42719.320;   -9.077;48178.871
566.553;42126.914;   -6.207;49957.305
567.136;42519.699;   -8.568;50369.594
567.720;38941.926;  -11.868;49492.004
568.303;36946.836;   -8.268;50616.352
568.887;37068.766;   -8.698;50727.148
569.470;37235.910;   -6.808;51698.379
570.053;35877.117;  -13.188;52122.078
570.637;34491.273;  -12.037;52536.438
571.220;34379.980;   -8.577;51186.098
571.803;34921.539;   -8.498;51032.762
572.386;37082.238;  -10.498;49609.887
572.969;39421.031;   -9.388;48285.926
573.552;37451.074;   -8.338;47624.285
574.135;36147.828;   -8.518;45498.641
574.718;33806.113;  -13.628;41970.434
575.301;32792.988;  -10.893;41447.137
575.884;31779.865;   -8.158;40923.836
576.467;32907.539;  -10.328;45267.723
577.050;34670.238;  -13.058;48175.543
577.633;35793.125;   -9.458;47729.328
578.216;34390.070;   -8.928;47579.793
578.799;32998.496;   -9.358;47820.996
579.381;31720.934;  -11.388;48115.551
579.964;30525.846;  -11.718;47333.766
580.547;32793.734;   -8.588;46668.969
581.129;34340.055;   -8.859;44466.141
581.712;35210.594;  -10.729;44164.922
582.294;35780.301;  -11.118;46477.855
582.877;35598.246;   -5.218;48244.254
583.459;33035.289;   -8.679;47437.895
584.042;31188.441;  -10.709;46943.219
584.624;31842.477;  -11.669;46792.227
585.206;31178.879;   -8.218;46557.250
585.789;30936.340;  -10.569;45793.773
586.371;33270.688;  -11.859;43836.391
586.953;33179.023;  -10.719;42972.492
587.536;33146.883;   -7.198;42487.211
588.118;31259.891;   -8.720;42086.414
588.700;26541.023;  -10.439;43389.930
589.282;26212.906;   -9.198;43646.039
589.864;29686.213;   -9.199;43438.109
590.446;33067.902;  -11.319;43151.926
591.028;34104.934;  -11.159;42781.867
591.610;33535.984;  -11.779;42839.098
592.192;31150.244;   -7.668;42820.402
592.774;29650.354;  -11.949;40724.277
593.356;28335.957;  -12.129;39874.789
593.937;27258.635;  -10.669;39980.648
594.519;29324.086;   -6.509;42069.633
595.101;31520.014;  -10.849;42976.031
595.683;31586.115;  -11.679;44084.441
596.264;32674.354;   -9.049;43478.797
596.846;32056.053;   -8.849;43803.672
597.427;31882.111;   -9.570;42986.934
598.009;33509.453;  -12.620;42832.219
598.591;33846.992;  -10.039;42580.086
599.172;32963.102;  -10.369;43061.805
599.753;33099.391;   -9.140;41691.469
600.335;34675.750;  -11.430;40692.520
600.916;33038.547;   -9.939;39982.422
601.498;30486.703;   -8.479;40318.617
602.079;28965.715;  -10.920;40670.609
602.660;28893.361;  -11.480;41450.898
603.241;30498.326;  -11.699;41137.738
603.823;29368.822;   -9.579;38868.797
604.404;28997.840;  -10.620;38182.785
604.985;30528.713;  -10.450;38078.047
605.566;30255.242;   -9.129;38056.633
606.147;30377.994;   -7.510;37020.418
606.728;31998.217;  -10.660;37883.359
607.309;30747.807;  -11.740;38748.273
607.890;30202.641;   -9.759;38850.230
608.471;29662.615;   -8.250;37457.918
609.051;28741.188;   -9.240;36066.457
609.632;27747.295;  -12.120;35991.074
610.213;28552.068;   -9.110;37402.641
610.794;29161.207;   -8.030;38383.363
611.374;28651.736;   -8.110;40562.387
611.955;29071.475;  -13.560;38533.727
612.536;30380.910;  -11.400;36951.789
613.116;30408.416;   -8.070;37197.891
613.697;30762.447;  -10.830;38411.125
614.277;29281.031;  -11.641;38673.938
614.858;30085.473;  -13.310;37075.863
615.438;29149.498;   -7.460;35092.906
616.019;26504.229;   -7.601;33666.301
616.599;27227.771;  -12.020;34189.023
617.179;28989.578;  -11.780;36952.047
617.760;29903.092;   -8.570;39582.574
618.340;31040.617;  -11.471;38943.977
618.920;32378.328;  -11.170;37594.156
619.500;32110.277;  -11.071;37866.938
620.080;31219.813;   -7.750;37869.043
620.660;32331.553;  -12.711;36868.617
621.241;33722.617;  -10.211;36352.309
621.821;33956.855;  -10.961;35459.520
622.401;32923.527;   -7.720;35207.414
622.980;32206.307;   -8.981;35980.422
623.560;30782.670;   -9.331;37351.328
624.140;29578.889;   -9.850;34388.582
624.720;24506.477;   -7.451;32368.764
625.300;21031.238;   -9.070;32638.629
625.880;24435.186;  -12.601;34599.035
626.459;28395.998;  -11.751;36831.738
627.039;31492.277;   -9.281;38299.098
627.619;31475.510;   -8.801;38289.574
628.198;29890.314;  -12.071;37220.695
628.778;29054.516;   -9.461;37632.563
629.357;29793.340;   -8.491;38003.012
629.937;29828.689;   -9.721;38402.039
630.516;29211.834;   -9.951;37868.801
631.096;28861.619;  -11.731;35760.410
631.675;31522.314;   -8.572;35225.219
632.254;36549.133;  -11.282;35130.289
632.834;36006.473;  -13.322;35794.570
633.413;34178.789;  -10.301;35788.922
633.992;31329.631;   -8.582;34532.863
634.571;32089.465;   -8.352;33590.113
635.151;35075.297;  -11.912;34943.863
635.730;33499.344;  -10.511;35352.523
636.309;30047.770;   -7.731;35366.605
636.888;27613.141;   -9.952;36165.637
637.467;28441.930;  -11.672;37515.902
638.046;30104.164;   -8.901;39288.695
638.625;33158.992;   -7.912;38279.699
639.204;32959.762;  -10.022;37741.598
639.782;31411.986;  -12.252;38364.551
640.361;27749.807;  -10.041;36740.621
640.940;24853.990;  -11.161;34950.082
641.519;25494.727;   -9.701;34137.398
642.097;28556.898;  -11.271;35654.258
642.676;31463.096;   -8.651;35637.957
643.255;32033.652;   -8.711;36567.074
643.833;31146.809;   -9.581;37809.434
644.412;31219.752;  -13.711;37337.293
644.990;30369.592;  -11.811;37018.531
645.569;30432.166;   -9.411;36518.469
646.147;29256.162;  -10.291;36186.430
646.726;28807.029;  -12.401;36267.688
647.304;30032.723;  -10.411;36647.625
647.882;31935.352;   -9.651;39286.742
648.461;33645.641;   -9.631;39157.703
649.039;31944.980;  -11.881;35412.883
649.617;31404.984;   -9.661;34744.918
650.195;31152.629;   -9.301;35403.098
650.773;29675.090;  -10.511;35053.797
651.352;27227.455;  -11.521;33756.816
651.930;24857.270;  -12.211;31868.773
652.508;23308.539;   -9.171;33121.551
653.086;27221.357;   -9.371;33564.793
653.663;30020.328;  -13.161;34054.668
654.241;28861.660;  -13.031;35693.309
654.819;30570.369;   -9.371;36422.906
655.397;30832.385;  -10.511;38213.484
655.975;30567.283;  -10.371;39507.625
656.553;30305.850;  -10.051;39498.223
657.130;28702.801;  -10.061;40395.480
657.708;27907.854;   -9.561;39242.020
658.286;27915.043;  -11.511;38920.020
658.863;29210.119;  -10.261;40202.898
659.441;32242.752;   -7.531;39677.938
660.018;31723.744;   -9.501;40413.355
660.596;30644.840;  -13.301;39931.414
661.173;32731.850;  -11.211;39604.531
661.750;32868.398;   -9.951;39700.070
662.328;31549.531;   -9.390;39292.809
662.905;30503.330;  -11.330;38235.648
663.482;26259.047;   -9.050;36212.305
664.060;24357.125;   -8.240;35944.945
664.637;27174.771;  -10.050;35170.785
665.214;29068.844;  -11.760;34197.523
665.791;30492.848;  -10.530;34549.520
666.368;29316.451;   -9.690;35118.578
666.945;30084.023;   -9.320;36019.418
667.522;31720.318;  -11.860;36048.438
668.099;31442.592;  -10.770;36243.914
668.676;30327.811;   -6.260;35958.875
669.253;29000.490;   -7.000;37384.730
669.830;29676.324;  -10.190;36779.629
670.407;29457.621;   -9.550;35231.289
670.984;29342.158;   -9.260;35544.270
671.560;29886.832;   -9.280;35466.867
672.137;29052.193;  -11.810;34280.863
672.714;29841.107;  -11.490;34632.863
673.290;30379.482;   -7.740;35135.422
673.867;30584.451;  -10.660;36114.480
674.443;30475.111;  -12.230;36152.859
675.020;28740.301;  -10.450;35327.238
675.596;29787.293;   -9.260;35795.176
676.173;30200.893;  -10.780;35430.355
676.749;29998.262;  -13.690;33549.516
677.326;30052.988;  -11.980;32210.012
677.902;30055.311;   -8.630;32068.871
678.478;29399.258;  -10.730;32583.891
679.054;28836.039;  -10.520;32088.928
679.631;29105.855;  -11.920;30978.848
680.207;30782.637;   -7.490;33160.887
680.783;32564.326;   -9.860;35570.363
681.359;31650.275;  -13.380;36125.184
681.935;30868.664;  -12.480;35240.922
682.511;29909.104;   -7.900;34429.961
683.087;29906.938;   -7.710;34463.680
683.663;29539.818;  -11.480;34648.898
684.239;28368.119;  -14.090;34546.457
684.815;28054.168;   -7.560;35586.375
685.390;28390.641;   -9.910;35821.895
685.966;28859.111;  -11.159;35085.871
686.542;31353.500;  -11.169;34198.230
687.118;33418.332;   -5.959;32847.707
687.693;33641.090;  -10.329;32794.027
688.269;33421.855;  -12.059;33072.367
688.844;31664.586;  -10.909;33141.664
689.420;29407.906;   -8.019;33965.742
689.995;26999.990;   -8.399;34655.523
690.571;25603.365;  -10.949;33576.742
691.146;26129.885;   -9.619;32657.219
691.722;25579.555;   -8.999;32526.979
692.297;25543.182;  -11.589;33014.617
692.872;27498.752;  -11.739;34012.254
693.448;27029.191;  -11.059;34237.434
694.023;26213.447;  -10.139;34142.672
694.598;28162.893;   -9.029;34132.031
695.173;28460.834;  -13.319;34205.250
695.748;27794.250;  -10.169;32882.488
696.323;27922.699;   -8.339;32864.906
696.898;28205.006;   -8.169;33170.004
697.473;27981.330;  -12.309;32432.984
698.048;27383.252;  -10.989;31649.303
698.623;27362.965;   -9.329;30778.141
699.198;29373.436;   -9.849;31140.119
699.773;30247.473;  -12.329;31764.299
700.348;28508.064;  -10.389;31780.816
700.922;28462.564;   -9.269;32046.375
701.497;29246.664;   -9.329;32603.574
702.072;29447.045;  -10.789;34799.871
702.646;28186.691;  -10.839;35793.172
703.221;26103.447;   -9.099;35201.590
703.795;28254.160;  -10.939;34764.527
704.370;28694.479;  -12.859;34307.367
704.944;29099.238;  -11.559;33509.887
705.519;29972.281;   -7.939;31388.584
706.093;31453.332;  -10.499;31340.104
706.668;31748.361;  -11.289;32630.281
707.242;30704.020;  -11.509;32728.779
707.816;29097.666;   -9.639;32947.238
708.390;27464.277;  -11.429;33277.855
708.965;27950.023;  -11.869;33834.336
709.539;27991.320;  -11.689;33709.273
710.113;28543.402;  -10.478;33044.313
710.687;28051.998;  -10.228;31953.992
711.261;26338.521;  -13.698;30505.949
711.835;26249.756;  -13.378;30262.369
712.409;27130.023;   -9.698;31254.447
712.983;29056.445;  -11.898;32754.986
713.557;29974.330;  -15.138;34018.824
714.131;29486.600;  -14.098;34579.625
714.704;28471.600;   -9.958;33890.262
715.278;26260.041;  -10.028;33531.102
715.852;25337.004;  -11.148;33601.660
716.425;26191.047;   -9.068;33515.117
716.999;26851.428;  -10.038;33185.555
717.573;27792.090;   -9.798;33905.996
718.146;28911.840;  -12.378;35199.293
718.720;28894.801;  -11.918;35060.551
719.293;28236.387;   -8.088;34973.230
719.867;31089.900;  -10.888;36394.449
720.440;30862.553;  -11.938;36663.008
721.013;29154.619;  -12.818;35102.426
721.587;27809.477;  -10.298;33985.266
722.160;26906.898;  -10.048;33524.965
722.733;25827.104;  -12.108;32987.043
723.306;26128.590;  -10.818;33066.301
723.880;28532.215;   -8.908;33399.500
724.453;30405.232;   -9.878;33468.297
725.026;29410.166;  -11.188;33816.637
725.599;26800.754;  -11.678;32797.996
726.172;27263.859;   -9.618;33187.434
726.745;28341.908;   -8.258;35136.613
727.318;29631.629;  -12.978;35751.730
727.891;30078.246;  -12.148;35890.430
728.463;29776.217;   -8.968;34822.090
729.036;28811.395;  -10.188;32895.086
729.609;29193.799;  -11.788;31823.225
730.182;26121.250;  -11.788;31445.283
730.754;23612.789;  -10.268;32373.223
731.327;23572.410;   -9.998;33676.820
731.900;23934.938;  -12.228;33417.000
732.472;25392.805;  -13.848;31978.498
733.045;27353.002;   -8.698;30368.777
733.617;27495.508;  -10.607;30574.215
734.190;27121.098;  -11.507;31280.975
734.762;24168.490;  -13.647;31674.412
735.334;22386.117;   -9.767;31247.291
735.907;23024.557;   -9.897;29876.211
736.479;23152.381;  -11.637;29808.488
737.051;22825.131;   -9.567;30233.547
737.623;23741.361;   -8.187;31469.086
738.195;24570.834;  -11.187;31784.225
738.768;26542.242;  -12.337;32120.523
739.340;26667.262;  -12.227;32094.342
739.912;25370.197;  -11.057;31312.680
740.484;23905.809;  -10.207;31946.238
741.056;22872.830;  -10.047;32984.059
741.628;24745.695;  -13.627;33897.715
742.199;27002.354;   -7.177;33213.016
742.771;25265.938;  -10.797;31369.113
743.343;22901.238;  -11.997;31865.473
743.915;21951.078;  -12.867;32388.631
744.487;22103.266;   -7.617;31079.568
745.058;22326.863;   -9.557;30570.107
745.630;22824.568;   -9.877;29970.127
746.201;23624.834;  -14.177;29186.766
746.773;23982.934;   -9.237;28805.723
747.344;23754.334;   -9.847;29591.223
747.916;22452.664;  -11.657;31412.201
748.487;22688.461;  -10.587;32194.898
749.059;23806.936;   -8.707;32533.719
749.630;24431.051;  -10.537;32158.518
750.201;23516.490;  -11.687;30855.395
750.773;21754.865;  -11.647;28622.555
751.344;21766.395;   -7.147;28405.732
751.915;23107.457;   -9.757;28461.551
752.486;23009.041;  -12.427;27842.850
753.057;20667.717;  -12.227;27845.008
753.628;19418.182;  -10.417;27728.107
754.199;20571.654;  -11.767;27381.086
754.770;21578.607;  -11.187;25882.203
755.341;21534.088;  -10.507;25886.184
755.912;21551.945;   -9.387;26050.861
756.483;21026.314;  -10.647;26798.779
757.054;19297.500;  -11.837;27048.238
757.625;17998.016;  -12.716;26294.838
758.195;17735.238;   -9.666;26142.076
758.766;17468.027;   -8.656;26392.234
759.337;18261.242;  -12.856;26334.594
759.907;20010.727;  -13.366;27579.652
760.478;20921.516;   -8.576;28352.770
761.048;20311.447;  -10.526;27325.088
761.619;19490.770;  -11.116;26460.428
762.189;19541.982;  -12.136;26029.826
762.760;20662.004;   -9.456;26430.145
763.330;21745.855;   -7.136;26670.902
763.900;21163.617;  -11.786;26603.021
764.471;18528.205;  -11.546;25542.740
765.041;17300.135;   -8.096;24358.459
765.611;17421.238;   -8.876;23991.297
766.181;17803.879;  -12.196;24470.236
766.751;18704.389;  -11.636;24845.975
767.321;18456.881;  -10.156;24533.633
767.891;16542.033;  -11.766;24916.492
768.461;16042.380;  -14.936;24776.771
769.031;16566.191;  -12.356;24757.988
769.601;18135.289;   -7.526;24181.088
770.171;17981.271;  -10.766;23670.387
770.741;17194.164;  -13.176;22960.045
771.311;17385.688;  -10.616;22917.523
771.880;17725.713;   -9.576;23562.941
772.450;17361.822;  -10.336;24216.500
773.020;17431.766;  -13.516;24140.398
773.589;16839.234;  -13.466;24414.857
774.159;16187.374;   -8.686;23858.717
774.729;15747.616;   -9.476;22942.135
775.298;15236.246;  -13.666;22324.033
775.867;14837.122;  -11.716;21140.313
776.437;14910.172;   -9.906;20838.092
777.006;14696.492;  -12.166;20599.510
777.576;14611.247;  -12.356;20508.809
778.145;14747.200;  -11.646;20732.947
778.714;14621.135;   -8.226;21062.465
779.283;13847.871;   -9.556;20949.664
779.853;13337.203;  -14.116;20508.623
780.422;13830.408;  -11.506;20649.082
780.991;13425.263;   -9.556;21527.520
781.560;12265.022;   -9.095;22632.658
782.129;12113.501;  -12.135;23048.277
782.698;12139.203;  -10.865;23438.555
783.267;11716.727;   -9.335;23267.734
783.836;11679.815;  -11.045;22415.133
784.404;12782.469;  -13.865;20443.152
784.973;13383.437;  -13.095;19699.150
785.542;13270.751;  -11.575;19763.828
786.111;13060.881;   -9.705;20341.408
786.679;12526.885;  -12.105;20207.967
787.248;12285.502;  -12.455;19516.465
787.817;12136.899;  -11.535;18900.363
788.385;11746.013;   -9.765;17879.121
788.954;11163.500;  -14.005;17658.301
789.522;10633.628;  -11.955;17788.879
790.090;11195.861;  -10.135;18118.277
790.659;11600.016;  -10.975;18338.736
791.227;11091.609;  -13.375;18508.615
791.795;11551.646;  -12.375;17898.254
792.364;11963.005;  -10.725;17295.133
792.932;12291.015;   -9.715;16822.051
793.500;12442.937;  -12.675;17040.148
794.068;12648.160;  -13.495;17179.787
794.636;12772.007;  -10.885;16664.246
795.204;12196.483;  -11.045;16524.545
795.772;12295.742;  -13.175;17274.564
796.340;11843.343;  -12.445;17891.002
796.908;11658.543;   -9.735;17648.561
797.476;11546.374;   -9.815;17064.080
798.044;11072.160;  -13.985;16672.777
798.612;10239.057;  -13.115;17023.996
799.180; 9831.207;  -10.185;16561.615
799.747; 9748.142;   -9.055;15962.773
800.315; 9495.715;  -12.385;15296.992
800.883; 9156.989;  -15.035;14801.771
801.450; 9156.834;  -10.365;14534.430
802.018; 9228.863;   -9.855;14173.248
802.585; 9379.949;  -11.905;14029.547
803.153; 9433.976;  -11.585;13836.846
803.720; 9260.646;   -9.095;13567.324
804.287; 8811.366;   -9.135;13360.622
804.855; 8379.358;  -11.604;13681.981
805.422; 8248.903;  -11.794;13536.560
805.989; 8256.452;  -10.734;13355.958
806.556; 8444.684;  -10.444;13747.896
807.124; 8686.501;  -12.764;13987.376
807.691; 8654.525;  -12.964;14038.674
808.258; 8456.320;  -11.134;14120.152
808.825; 8115.731;   -9.854;13860.111
809.392; 8163.594;  -10.504;13268.790
809.959; 7676.552;  -13.054;12680.389
810.526; 7253.913;   -8.294;12427.308
811.093; 7300.727;   -8.394;12030.105
811.659; 7902.582;  -12.304;11653.664
812.226; 8395.731;  -13.944;11637.183
812.793; 8091.296;  -10.484;11611.521
813.360; 7457.064;  -10.144;11885.181
813.926; 7148.577;  -11.684;12770.539
814.493; 6933.871;  -13.644;12677.638
815.060; 6544.332;   -9.724;11974.336
815.626; 6545.677;   -9.854;11594.715
816.193; 6964.482;  -13.254;11579.474
816.759; 6992.595;  -13.204;11666.972
817.325; 7045.074;   -9.434;11325.530
817.892; 7369.452;  -10.134;11105.369
818.458; 7777.985;  -13.474;10843.928
819.024; 7371.266;  -11.854;10714.406
819.591; 7001.845;  -10.244;10469.165
820.157; 6778.559;  -10.704;10235.523
820.723; 6302.887;  -12.324;10847.563
821.289; 5992.998;   -9.444;11040.980
821.855; 5904.410;   -8.374;10357.100
822.421; 5867.219;  -10.234; 9978.918
822.987; 5863.803;  -13.294; 9754.177
823.553; 5570.885;  -10.884;10065.755
824.119; 5395.852;   -8.884;10036.294
824.685; 5469.288;   -6.784;10029.192
825.251; 5547.542;  -12.004;10199.230
825.816; 5516.271;  -11.474; 9820.189
826.382; 5299.021;   -9.174; 9297.248
826.948; 5511.512;   -9.214; 9381.347
827.513; 5899.740;  -10.774; 9450.726
828.079; 5709.416;  -11.924; 9472.444
828.645; 5127.775;  -10.543; 9292.643
829.210; 5047.500;  -10.533; 9065.341
829.776; 5044.538;  -10.753; 9132.620
830.341; 4934.290;  -10.173; 9092.878
830.906; 5119.242;  -10.743; 9078.557
831.472; 5452.411;  -11.113; 8534.535
832.037; 5173.956;  -10.603; 8677.874
832.602; 4617.932;  -13.323; 8628.692
833.167; 4367.861;  -10.823; 8879.031
833.733; 4309.598;  -10.113; 9189.790
834.298; 4439.730;  -13.583; 9052.608
834.863; 4497.003;  -12.703; 8895.087
835.428; 4474.421;  -10.523; 8824.266
835.993; 4345.837;   -6.963; 8845.385
836.558; 4203.540;  -10.763; 8888.563
837.123; 4333.677;   -9.903; 8966.582
837.688; 4551.275;   -9.913; 8617.860
838.253; 4763.520;  -10.283; 8590.699
838.817; 4943.138;  -12.963; 8443.797
839.382; 4842.370;  -14.243; 8799.356
839.947; 4517.517;  -10.733; 8810.595
840.511; 4240.191;   -9.383; 8796.394
841.076; 3890.954;  -12.563; 8347.231
841.641; 3959.057;  -12.953; 8224.330
842.205; 4059.106;   -7.043; 8223.349
842.770; 4174.890;   -8.163; 8622.107
843.334; 4350.477;  -12.503; 8410.386
843.898; 4299.376;  -11.693; 8337.465
844.463; 4315.108;  -10.203; 8506.283
845.027; 4095.843;   -9.533; 8280.962
845.591; 3915.451;  -13.443; 8231.141
846.156; 3891.725;  -13.143; 7969.179
846.720; 3767.570;   -9.433; 7768.278
847.284; 3640.681;  -11.033; 7630.957
847.848; 3513.176;  -10.403; 7472.395
848.412; 3430.493;  -11.553; 7437.394
848.976; 3480.976;   -8.393; 7674.592
849.540; 3423.368;   -8.713; 7836.011
850.104; 3547.194;  -12.463; 7913.669
850.668; 3912.349;  -12.973; 7694.508
851.232; 4006.097;  -10.793; 7756.887
851.796; 3835.743;  -10.662; 7926.545
852.359; 3535.950;  -13.082; 7827.844
852.923; 3371.507;  -12.192; 7641.163
853.487; 3188.404;  -11.912; 7342.501
854.050; 3134.542;  -10.892; 7042.820
854.614; 3279.803;  -13.992; 7151.338
855.177; 3412.059;  -11.732; 7105.077
855.741; 3453.263;   -8.962; 6989.675
856.304; 3345.413;   -9.442; 6596.634
856.868; 3289.657;  -14.192; 6356.272
857.431; 3387.095;  -12.702; 6468.571
857.995; 3505.418;   -9.942; 6373.210
858.558; 3518.946;   -9.112; 6324.448
859.121; 3244.106;  -12.932; 6408.327
859.684; 3120.504;  -13.442; 6347.886
860.247; 3229.012;  -10.632; 6321.264
860.810; 3218.126;  -11.272; 6301.903
861.374; 2962.777;   -9.832; 6607.881
861.937; 2709.422;  -11.762; 6408.200
862.500; 2707.244;   -9.722; 6572.639
863.062; 2896.218;  -10.512; 6387.297
863.625; 3073.773;  -11.232; 6190.836
864.188; 3231.957;  -14.112; 5807.254
864.751; 3288.198;  -11.302; 5682.413
865.314; 3168.003;  -10.112; 5547.492
865.876; 2957.419;  -12.182; 5500.150
866.439; 2944.707;  -10.722; 5415.909
867.002; 2894.975;   -9.252; 5501.567
867.564; 2684.990;   -9.572; 5413.946
868.127; 2451.644;  -13.142; 5160.325
868.689; 2345.728;  -12.902; 5133.183
869.252; 2247.637;   -9.732; 5252.382
869.814; 2153.279;   -9.432; 5297.141
870.377; 2170.765;  -11.552; 5390.919
870.939; 2241.841;   -9.052; 5599.898
871.501; 2303.802;  -10.982; 5248.336
872.063; 2304.981;  -12.292; 4854.235
872.626; 2266.322;  -14.912; 4817.074
873.188; 2299.510;  -13.112; 4987.732
873.750; 2265.462;  -13.442; 4868.651
874.312; 2154.277;   -9.402; 4779.330
874.874; 2061.848;  -11.062; 4866.348
875.436; 1967.831;  -13.931; 4718.887
875.998; 1958.240;   -9.561; 4660.005
876.560; 1981.032;  -11.321; 4462.964
877.122; 1922.996;  -12.221; 4145.042
877.683; 1829.236;  -12.191; 4056.481
878.245; 1759.251;  -12.101; 3950.740
878.807; 1799.674;   -8.971; 4058.958
879.369; 1824.120;  -12.071; 3954.677
879.930; 1726.427;  -14.621; 3941.495
880.492; 1658.148;  -10.311; 4067.014
881.053; 1621.398;  -10.901; 3859.633
881.615; 1507.939;  -14.411; 3776.071
882.176; 1406.111;  -13.761; 3734.750
882.738; 1359.328;   -9.181; 3678.489
883.299; 1332.307;  -11.791; 3405.407
883.860; 1335.761;  -13.121; 3351.106
884.422; 1337.844;  -11.211; 3394.044
884.983; 1291.154;  -10.091; 3166.443
885.544; 1211.089;   -8.461; 3189.802
886.105; 1128.997;  -12.361; 3160.360
886.666; 1060.613;  -14.141; 3093.059
887.227; 1003.469;  -11.361; 2941.957
887.788;  936.604;  -11.401; 2974.836
888.349;  874.763;  -13.791; 2721.214
888.910;  872.986;  -13.191; 2696.493
889.471;  881.078;   -9.881; 2560.172
890.032;  863.441;   -9.881; 2558.190
890.593;  837.815;  -10.371; 2567.669
891.153;  811.510;  -13.301; 2460.307
891.714;  759.801;  -11.431; 2372.046
892.275;  719.065;  -11.291; 2309.505
892.835;  679.746;  -11.471; 2382.543
893.396;  624.478;  -11.541; 2295.502
893.956;  569.137;  -11.181; 2162.420
894.517;  531.406;  -11.741; 2125.439
895.077;  524.856;  -11.671; 2086.978
895.638;  526.044;  -11.311; 2126.316
896.198;  497.573;   -9.831; 1838.275
896.758;  452.001;   -8.421; 1892.813
897.319;  422.525;  -12.351; 1792.232
897.879;  405.176;  -13.511; 1762.751
898.439;  379.086;  -12.001; 1661.149
898.999;  354.096;  -10.180; 1781.468
899.559;  346.812;  -12.030; 1703.347
900.119;  341.523;  -15.710; 1537.525
900.679;  337.495;   -8.900; 1638.384
901.239;  322.060;   -8.340; 1527.902
901.799;  311.252;  -13.910; 1456.441
902.359;  305.882;  -13.460; 1357.140
902.919;  300.630;  -11.490; 1331.118
903.479;  285.961;  -12.110; 1317.257
904.038;  265.642;  -11.720; 1262.595
904.598;  249.946;  -13.610; 1152.034
905.158;  246.101;  -11.040; 1240.893
905.717;  238.996;  -10.900; 1233.691
906.277;  228.106;  -15.080; 1217.330
906.836;  217.834;  -13.380; 1222.408
907.396;  209.205;  -10.780; 1193.047
907.955;  201.496;   -8.500; 1182.526
908.515;  195.803;  -12.760; 1099.364
909.074;  189.079;  -11.900; 1092.863
909.633;  184.191;   -8.950; 1069.121
910.192;  178.788;   -8.770; 1196.460
910.752;  173.643;  -12.390; 1029.960
911.311;  169.096;  -13.680; 1009.780
911.870;  167.404;  -12.370;  971.460
912.429;  168.692;  -10.900; 1094.080
912.988;  167.291;  -11.690; 1081.060
913.547;  162.717;  -13.240;  940.380
914.106;  156.867;  -11.990;  999.420
914.665;  153.686;   -9.990;  984.020
915.224;  153.680;  -12.880; 1035.760
915.782;  153.902;  -12.350;  922.560
916.341;  153.428;   -9.110; 1049.840
916.900;  148.681;   -9.270;  925.260
917.458;  147.728;  -13.240;  884.220
918.017;  146.803;  -13.550;  942.600
918.576;  146.916;  -12.320;  904.440
919.134;  144.482;  -11.490;  837.980
919.693;  142.287;  -13.670;  893.060
920.251;  141.107;  -15.470;  876.500
920.809;  139.909;  -11.290;  839.580
921.368;  138.449;  -10.210;  885.360
921.926;  138.198;  -12.140;  842.940
922.484;  136.768;  -13.080;  903.360
923.042;  136.758;  -11.720;  880.340
923.601;  139.126;   -7.480;  998.680
924.159;  137.511;  -11.570;  935.560
924.717;  134.524;  -13.840;  841.080
925.275;  134.960;  -10.640;  903.240
925.833;  133.836;  -11.540;  779.320
926.391;  135.014;  -12.960;  938.380
926.949;  133.894;  -14.130;  857.680
927.506;  134.530;  -11.750;  903.500
928.064;  133.804;  -10.250;  877.580
928.622;  133.065;  -13.030;  880.100
929.180;  133.558;  -13.400;  814.180
929.737;  134.867;  -10.700;  808.540
930.295;  138.896;  -10.070;  928.480
930.853;  139.924;  -11.960;  849.100
931.410;  140.739;  -13.120;  821.120
931.968;  140.267;  -10.770;  940.660
932.525;  139.564;  -10.680;  909.380
933.082;  141.130;  -13.130;  811.440
933.640;  141.495;  -13.210;  925.900
934.197;  139.122;  -11.060;  886.360
934.754;  140.714;   -9.580;  897.780
935.312;  143.938;  -14.000;  863.340
935.869;  147.113;  -10.710; 1012.980
936.426;  148.598;   -9.860;  872.800
936.983;  148.261;   -9.710;  889.020
937.540;  148.541;  -13.990;  838.280
938.097;  147.124;  -14.040;  940.120
938.654;  147.217;  -10.310;  898.860
939.211;  150.593;  -10.560;  952.480
939.768;  154.207;  -13.900;  915.420
940.324;  157.779;  -14.760;  904.200
940.881;  159.604;  -10.370;  878.500
941.438;  159.481;   -8.260; 1021.200
941.995;  155.322;  -12.540;  992.560
942.551;  153.178;  -14.670;  875.620
943.108;  154.275;  -10.450;  937.920
943.664;  155.893;  -10.750;  869.340
944.221;  158.928;  -11.550; 1088.140
944.777;  157.369;  -14.770;  869.680
945.334;  157.866;  -12.820;  884.840
945.890;  159.399;  -10.130;  946.480
946.446;  159.493;  -13.470;  947.020
947.003;  161.127;  -12.120;  964.940
947.559;  164.290;   -9.980; 1063.040
948.115;  163.414;   -9.080; 1026.540
948.671;  161.693;  -10.830;  967.300
949.227;  160.012;  -12.440;  859.560
949.783;  156.447;  -12.910;  858.900
950.339;  157.641;  -10.270;  991.000
950.895;  157.899;  -13.630; 1023.840
951.451;  158.909;  -15.100;  925.280
952.007;  158.300;  -11.330;  998.540
952.563;  159.277;  -10.580;  937.780
953.118;  157.880;  -13.440;  904.940
953.674;  158.109;  -12.710;  935.780
954.230;  157.894;  -10.350;  949.640
954.785;  155.219;   -9.190;  936.640
955.341;  152.905;  -11.200;  998.160
955.897;  151.034;  -16.560;  834.660
956.452;  152.595;  -12.570;  953.840
957.008;  151.789;   -7.970; 1083.640
957.563;  148.896;  -11.940; 1009.540
958.118;  143.786;  -13.450;  877.700
958.674;  145.041;  -12.030;  946.780
959.229;  145.932;   -9.410; 1013.980
959.784;  144.012;  -12.000;  832.400
960.339;  143.568;  -14.780; 1001.280
960.894;  139.843;   -9.860;  963.760
961.449;  136.021;   -9.970;  859.960
962.004;  135.968;  -10.900; 1212.840
962.559;  130.719;  -13.150;  860.140
963.114;  128.436;  -13.740;  742.480
963.669;  127.345;   -9.820;  915.500
964.224;  126.514;  -13.890;  874.340
964.779;  124.673;  -12.600;  828.420
965.334;  126.638;  -10.950; 1017.860
965.888;  125.672;  -11.170;  875.360
966.443;  129.290;  -12.540;  972.380
966.998;  129.170;  -15.780;  819.460
967.552;  127.395;   -9.760;  908.380
968.107;  123.547;   -9.060;  868.300
968.661;  124.591;  -11.950;  922.440
969.216;  126.143;  -12.800;  856.280
969.770;  126.219;  -11.210;  917.200
970.324;  125.162;  -11.610;  923.140
970.879;  122.773;  -11.370;  947.180
971.433;  119.239;  -12.540;  952.720
971.987;  115.179;  -11.320;  895.340
972.541;  112.896;  -10.720;  917.100
973.095;  113.216;   -9.680; 1009.460
973.649;  110.028;  -11.440;  809.480
974.203;  105.281;  -11.210;  829.040
974.757;   98.269;  -10.240;  855.220
975.311;   90.126;  -13.720;  872.600
975.865;   84.908;  -13.770;  881.820
976.419;   79.530;  -11.690;  857.400
976.973;   79.218;   -9.510;  849.620
977.526;   81.328;  -12.620;  949.920
978.080;   82.877;  -12.010;  796.780
978.634;   86.486;  -10.170;  921.320
979.187;   85.825;   -9.020;  905.400
979.741;   85.878;   -9.820; 1018.380
980.294;   83.114;  -14.870;  789.160
980.848;   82.026;  -12.380;  717.220
981.401;   84.247;  -10.350;  816.540
981.955;   86.403;  -13.720;  844.300
982.508;   86.680;  -11.490;  746.340
983.061;   87.287;  -10.000;  915.260
983.615;   83.701;  -11.480;  798.800
984.168;   81.090;  -13.220;  770.080
984.721;   81.528;  -13.960;  880.760
985.274;   81.552;  -10.870;  867.500
985.827;   80.098;   -9.790;  834.220
986.380;   77.618;  -13.120;  721.340
986.933;   77.418;  -12.450;  864.800
987.486;   76.005;  -10.210;  861.920
988.039;   75.702;   -8.430;  863.100
988.591;   73.394;  -10.520;  893.260
989.144;   71.329;  -14.860;  737.260
989.697;   71.385;  -13.080;  758.740
990.250;   71.660;  -10.150;  858.100
990.802;   70.847;  -13.430;  755.860
991.355;   71.414;  -12.750;  974.880
991.907;   69.176;  -12.040;  864.320
992.460;   66.939;  -11.330;  753.760
993.012;   67.066;  -13.610;  749.540
993.565;   66.050;  -13.460;  711.360
994.117;   67.604;   -9.360;  950.780
994.669;   64.039;  -11.300;  701.320
995.221;   62.737;  -13.540;  791.920
995.774;   60.685;  -13.430;  787.580
996.326;   59.041;  -12.520;  740.220
996.878;   56.680;  -10.950;  838.420
997.430;   53.610;  -14.300;  699.860
997.982;   52.719;  -13.760;  750.140
998.534;   52.833;  -11.530;  739.060
999.086;   51.845;  -10.310;  738.220
999.638;   51.708;  -12.530;  661.380
1000.190;   51.235;  -11.840;  699.320
1000.741;   50.715;  -10.260;  742.700
1001.293;   51.103;   -8.860;  686.020
1001.845;   49.118;  -13.700;  676.640
1002.396;   49.257;  -12.100;  743.400
1002.948;   49.315;  -12.760;  737.400
1003.500;   47.356;  -10.380;  723.780
1004.051;   48.083;  -11.900;  907.580
1004.603;   46.517;  -12.250;  791.820
1005.154;   42.957;  -13.210;  608.980
1005.705;   41.795;  -10.950;  723.960
1006.257;   41.298;  -13.880;  707.220
1006.808;   40.868;  -12.840;  685.460
1007.359;   41.000;  -10.570;  763.240
1007.910;   40.094;   -9.620;  646.640
1008.461;   39.429;  -13.630;  732.940
1009.013;   38.534;  -17.200;  588.340
1009.564;   39.966;  -10.200;  793.520
1010.115;   37.619;  -12.570;  597.040
1010.665;   36.740;  -15.150;  602.160
1011.216;   37.062;  -14.480;  667.920
1011.767;   37.352;  -11.340;  697.920
1012.318;   36.315;   -9.780;  736.980
1012.869;   35.155;  -12.380;  679.000
1013.419;   35.666;  -15.560;  603.120
1013.970;   35.964;  -11.010;  666.640
1014.521;   34.827;  -11.610;  620.620
1015.071;   34.967;  -13.450;  670.380
1015.622;   34.609;  -13.870;  635.460
1016.172;   34.051;  -11.610;  596.820
1016.723;   33.845;  -12.120;  614.380
1017.273;   33.214;  -13.620;  604.160
1017.823;   33.563;  -14.140;  650.340
1018.374;   33.796;  -12.800;  611.760
1018.924;   32.328;  -12.340;  716.880
1019.474;   32.710;  -11.410;  718.880
1020.024;   31.559;  -14.770;  657.580
1020.574;   32.916;   -9.780;  726.160
1021.124;   32.657;   -8.560;  673.580
1021.674;   31.265;  -15.190;  559.120
1022.224;   33.259;  -13.530;  708.940
1022.774;   31.937;  -13.280;  668.820
1023.324;   32.545;  -10.690;  753.520
1023.874;   32.954;  -10.240;  875.760
1024.423;   30.548;  -12.540;  613.700
1024.973;   30.972;  -10.010;  610.760
1025.523;   29.691;  -10.550;  620.960
1026.072;   29.910;  -13.560;  606.420
1026.622;   30.191;  -15.120;  675.740
1027.172;   30.896;  -11.260;  715.660
1027.721;   28.854;  -11.410;  601.220
1028.270;   29.403;  -13.530;  663.400
1028.820;   29.569;  -13.680;  638.080
1029.369;   29.678;  -13.520;  612.700
1029.918;   29.375;  -10.980;  649.840
1030.468;   28.424;  -13.530;  564.780
1031.017;   28.559;  -13.170;  634.800
1031.566;   27.946;  -12.200;  608.900
1032.115;   27.948;   -9.960;  694.500
1032.664;   27.099;  -13.210;  596.480
1033.213;   27.946;  -12.500;  735.420
1033.762;   27.633;  -11.910;  635.620
1034.311;   26.988;   -9.640;  677.220
1034.860;   27.473;  -13.310;  691.000
1035.408;   27.819;  -11.830;  722.720
1035.957;   28.060;  -12.000;  719.540
1036.506;   25.988;  -11.690;  530.800
1037.055;   28.124;  -10.990;  844.320
1037.603;   26.564;  -15.120;  664.000
1038.152;   25.363;  -12.450;  534.760
1038.700;   25.100;  -10.560;  585.740
1039.249;   25.250;  -11.080;  681.220
1039.797;   25.881;  -12.540;  633.360
1040.345;   25.669;  -11.920;  705.420
1040.894;   24.976;  -11.410;  625.300
1041.442;   24.489;  -14.320;  632.200
1041.990;   23.421;  -16.240;  559.160
1042.538;   23.564;  -11.680;  536.180
1043.087;   23.818;  -10.760;  570.860
1043.635;   24.350;  -11.850;  670.500
1044.183;   23.547;  -15.480;  586.400
1044.731;   23.683;  -11.770;  576.000
1045.279;   23.415;  -13.090;  674.920
1045.827;   24.792;  -12.440;  892.400
1046.374;   22.242;  -13.840;  515.420
1046.922;   22.372;  -13.220;  590.580
1047.470;   23.909;  -10.230;  691.300
1048.018;   22.879;  -14.590;  647.960
1048.565;   23.942;  -12.050;  708.600
1049.113;   21.968;  -11.650;  557.000
1049.660;   21.961;  -10.510;  629.660
1050.208;   22.608;  -13.310;  675.640
1050.755;   21.357;  -15.900;  606.580
1051.303;   21.877;  -11.430;  686.820
1051.850;   20.879;   -8.480;  635.120
1052.397;   20.220;  -15.010;  473.960
1052.945;   20.717;  -13.960;  617.760
1053.492;   22.337;  -13.150;  741.840
1054.039;   22.171;   -9.630;  720.180
1054.586;   20.091;  -13.680;  557.240
1055.133;   21.456;  -14.570;  693.140
1055.680;   21.214;  -13.820;  646.620
1056.227;   20.302;  -11.730;  542.780
1056.774;   21.890;  -12.480;  794.980
1057.321;   19.518;  -13.930;  523.260
1057.868;   20.588;  -11.690;  651.320
1058.415;   19.776;   -9.520;  651.980
1058.961;   19.844;  -13.160;  678.940
1059.508;   19.702;  -12.920;  643.820
1060.055;   20.242;  -11.920;  581.780
1060.601;   20.499;  -11.500;  624.300
1061.148;   19.316;  -14.330;  616.820
1061.694;   18.199;  -16.870;  592.580
1062.241;   19.157;  -10.330;  596.320
1062.787;   18.672;  -10.620;  663.140
1063.334;   20.121;  -10.110;  808.560
1063.880;   19.108;  -13.400;  668.360
1064.426;   18.812;  -10.680;  706.820
1064.972;   17.387;   -9.920;  601.340
1065.518;   16.975;  -10.980;  566.640
1066.065;   17.994;  -14.890;  624.460
1066.611;   17.743;  -12.870;  598.800
1067.157;   17.856;  -12.950;  641.860
1067.703;   16.840;  -13.540;  668.480
1068.249;   17.892;  -13.540;  605.220
1068.794;   17.203;  -12.600;  626.880
1069.340;   16.449;  -10.620;  578.960
1069.886;   16.861;  -12.830;  590.700
1070.432;   16.579;  -14.870;  541.720
1070.977;   16.545;  -11.980;  601.080
1071.523;   16.537;   -8.200;  573.060
1072.068;   16.177;  -12.330;  582.000
1072.614;   16.210;  -16.370;  527.760
1073.160;   17.689;  -11.100;  687.040
1073.705;   15.982;  -10.480;  572.520
1074.250;   15.455;  -14.520;  559.900
1074.796;   16.735;  -11.460;  655.160
1075.341;   17.207;  -11.950;  664.100
1075.886;   15.320;  -11.460;  594.240
1076.431;   15.331;  -13.770;  649.880
1076.976;   15.523;  -12.680;  639.220
1077.521;   15.278;  -13.170;  583.080
1078.067;   14.557;  -10.860;  579.400
1078.612;   15.035;  -13.920;  661.620
1079.156;   14.888;  -13.880;  601.540
1079.701;   15.481;  -13.120;  693.260
1080.246;   15.068;   -9.940;  696.300
1080.791;   14.538;  -14.740;  625.020
1081.336;   14.816;  -13.750;  659.320
1081.880;   14.994;  -13.400;  649.680
1082.425;   13.977;  -12.220;  573.480
1082.970;   14.731;  -11.610;  717.040
1083.514;   12.619;  -13.580;  597.000
1084.059;   13.413;  -12.810;  586.720
1084.603;   13.216;  -12.320;  565.840
1085.147;   13.621;  -13.190;  645.220
1085.692;   13.940;  -12.480;  716.800
1086.236;   12.808;  -13.020;  503.140
1086.780;   14.821;   -9.190;  751.440
1087.325;   13.594;  -12.480;  654.620
1087.869;   13.466;  -12.450;  610.700
1088.413;   13.739;  -12.240;  705.040
1088.957;   12.133;   -9.020;  543.400
1089.501;   13.799;  -10.320;  766.640
1090.045;   12.729;  -12.720;  726.480
1090.589;   11.485;  -13.690;  569.920
1091.133;   11.819;  -10.020;  673.340
1091.676;   12.357;  -12.330;  591.940
1092.220;   12.018;  -14.970;  600.920
1092.764;   13.185;  -12.430;  706.960
1093.307;   12.416;   -9.800;  673.780
1093.851;   10.897;  -14.970;  556.540
1094.395;   12.374;  -15.310;  683.140
1094.938;   11.338;  -10.370;  632.520
1095.482;   11.554;  -11.050;  559.800
1096.025;   11.565;  -11.840;  710.880
1096.568;   12.216;  -12.840;  779.280
1097.112;   10.135;  -14.700;  508.180
1097.655;   11.398;   -8.720;  603.000
1098.198;   10.073;  -13.610;  600.180
1098.741;    9.853;  -13.350;  612.860
1099.285;   12.407;  -11.230;  657.300
1099.828;    8.667;  -11.840;  439.400
1100.371;    9.743;  -10.840;  608.160
1100.914;   11.158;  -14.190;  682.660
1101.457;   10.728;  -11.240;  679.900
1101.999;    8.833;  -11.270;  584.680
1102.542;    9.901;  -11.480;  641.440
1103.085;   10.005;  -11.750;  658.500
1103.628;   11.095;  -11.400;  762.060
1104.170;    9.120;  -10.490;  588.280
1104.713;    9.675;  -10.600;  646.700
1105.256;    9.096;  -14.360;  557.440
1105.798;    8.536;  -13.210;  499.980
1106.341;    9.884;  -10.270;  728.900
1106.883;    8.619;  -12.200;  521.340
1107.425;    9.374;  -13.110;  668.180
1107.968;    8.562;  -12.840;  612.380
1108.510;    9.461;   -6.480;  684.960
1109.052;    8.046;  -13.940;  612.620
1109.594;    8.140;  -13.690;  554.440
1110.136;    9.162;  -11.880;  643.220
1110.679;    8.253;   -9.500;  633.080
1111.221;    8.368;  -14.160;  604.460
1111.763;    8.029;  -13.980;  559.220
1112.304;    7.935;  -13.880;  547.140
1112.846;    7.950;  -12.210;  666.240
1113.388;   10.570;  -11.390;  942.180
1113.930;    7.699;  -14.540;  694.200
1114.472;    7.660;  -12.640;  606.540
1115.013;    5.870;  -11.620;  551.280
1115.555;    5.587;  -13.640;  587.100
1116.097;    6.182;  -15.380;  579.480
1116.638;    7.431;  -12.640;  684.600
1117.180;    7.338;   -9.850;  667.740
1117.721;    6.943;  -13.690;  568.580
1118.262;    7.500;  -12.680;  677.960
1118.804;    7.270;  -12.530;  637.340
1119.345;    6.109;  -11.690;  578.400
1119.886;    7.207;  -13.380;  704.040
1120.427;    6.025;  -14.070;  589.020
1120.969;    5.523;  -13.500;  597.920
1121.510;    5.039;  -11.480;  563.060
1122.051;    6.602;  -12.830;  723.580
1122.592;    5.896;  -14.290;  655.420
1123.133;    5.601;  -12.400;  547.940
1123.673;    6.716;  -10.130;  706.480
1124.214;    5.347;  -12.930;  612.460
1124.755;    6.081;  -14.380;  639.460
1125.296;    6.248;  -14.000;  627.320
1125.836;    6.293;  -10.070;  691.500
1126.377;    5.089;  -12.640;  599.660
1126.918;    5.255;  -12.960;  614.980
1127.458;    4.769;  -13.350;  622.220
1127.999;    5.535;  -10.750;  656.980
1128.539;    4.964;  -12.350;  694.240
1129.079;    4.878;  -14.860;  632.720
1129.620;    4.518;  -13.840;  558.100
1130.160;    4.430;  -12.330;  539.480
1130.700;    4.923;  -14.530;  640.840
1131.240;    5.459;  -12.530;  643.700
1131.781;    4.658;  -14.450;  619.680
1132.321;    4.286;   -9.790;  599.120
1132.861;    2.755;  -14.860;  564.200
1133.401;    3.271;  -14.290;  593.940
1133.941;    4.532;  -11.750;  626.280
1134.481;    3.678;   -9.920;  597.580
1135.020;    2.995;  -12.290;  609.160
1135.560;    4.591;  -11.650;  674.940
1136.100;    4.144;  -16.270;  501.160
1136.640;    3.411;  -10.890;  510.480
1137.179;    3.315;  -14.180;  537.960
1137.719;    3.453;  -16.250;  605.400
1138.258;    3.201;  -14.230;  587.360
1138.798;    3.142;   -9.090;  663.780
1139.337;    2.349;  -15.130;  482.840
1139.877;    3.581;  -13.680;  642.360
1140.416;    5.378;  -11.320;  878.060
1140.955;    2.558;  -10.860;  535.380
1141.494;    2.516;  -12.920;  669.280
1142.034;    2.755;  -13.930;  583.520
1142.573;    3.468;  -11.440;  646.280
1143.112;    1.920;  -12.000;  553.480
1143.651;    2.501;  -13.670;  536.480
1144.190;    3.144;  -12.730;  691.640
1144.729;    2.523;  -14.560;  607.420
1145.267;    2.686;  -11.830;  584.900
1145.806;    2.351;  -12.230;  637.040
1146.345;    1.704;  -14.130;  635.020
1146.884;    2.631;  -11.590;  622.500
1147.422;    1.106;  -12.550;  533.060
1147.961;    2.757;  -11.180;  708.460
1148.500;    2.863;  -11.510;  669.720
1149.038;    2.701;  -11.640;  632.500
1149.577;    2.320;  -10.130;  698.640
1150.115;   -0.131;  -13.970;  452.280
1150.653;    1.996;  -14.520;  607.340
1151.192;    1.561;  -12.810;  552.920
1151.730;    1.347;   -9.100;  652.560
1152.268;    1.105;  -12.220;  589.520
1152.806;    1.266;  -14.140;  571.180
1153.344;    0.534;  -12.350;  577.640
1153.882;    1.024;   -8.980;  600.060
1154.421;   -0.681;  -15.190;  470.620
1154.958;   -0.105;  -15.210;  595.240
1155.496;    2.421;  -12.850;  645.280
1156.034;    0.659;   -9.940;  721.880
1156.572;    2.032;  -13.570;  667.060
1157.110;   -0.534;  -14.590;  473.940
1157.647;    1.998;  -13.030;  676.960
1158.185;    0.448;  -12.140;  564.320
1158.723;   -1.644;  -14.390;  509.200
1159.260;    1.008;  -14.090;  701.700
1159.798;    1.732;  -11.920;  658.160
1160.335;   -0.021;  -11.110;  631.820

