
Integration time [ms]:   3.276
Averaging Nr. [scans]: 1000
Smoothing Nr. [pixels]: 0
Data measured with spectrometer [name]: 7414430SP
Wave   ;Sample   ;Dark     ;Reference
[nm]   ;[counts] ;[counts] ;[counts] 

288.544;  157.873;    7.793;  793.890
289.143;  161.865;    7.462;  681.602
289.742;  162.581;    8.602;  828.814
290.341;  150.207;    1.321;  789.841
290.940;  140.527;   -0.709;  730.702
291.538;  140.392;    0.881;  881.108
292.137;  139.953;    0.122;  792.581
292.736;  143.039;   -1.929;  975.101
293.335;  140.065;   -8.229;  735.086
293.934;  140.315;   -5.279;  781.677
294.532;  139.457;   -1.369; 1031.958
295.131;  125.731;   -7.641;  834.394
295.730;  126.426;   -8.420;  809.588
296.328;  123.863;   -5.611;  783.442
296.927;  122.973;   -5.781;  779.652
297.525;  124.346;   -6.361;  781.236
298.124;  114.667;  -11.382;  654.009
298.722;  119.398;   -7.641;  761.933
299.321;  117.347;   -6.811;  708.597
299.919;  114.024;   -6.991;  751.918
300.518;  110.857;  -10.362;  689.338
301.116;  112.423;   -9.581;  691.381
301.715;  111.677;   -4.891;  730.222
302.313;  111.705;   -8.801;  704.943
302.911;  106.167;   -8.522;  733.830
303.509;  111.646;   -6.171;  925.627
304.108;  109.802;   -7.311;  760.383
304.706;  108.658;   -8.321;  801.664
305.304;  103.040;  -10.222;  796.707
305.902;  108.518;   -6.021;  784.484
306.500;  104.357;   -4.971;  728.200
307.098;  101.462;   -7.061;  746.560
307.696;  100.337;   -8.801;  780.432
308.294;  101.594;   -6.411;  731.359
308.892;  103.458;   -2.901;  759.769
309.490;   97.836;   -5.041;  712.161
310.088;   96.870;   -5.002;  788.444
310.686;  101.422;   -2.041;  821.749
311.284;   96.768;   -2.351;  766.040
311.882;   94.152;   -4.422;  731.225
312.480;   90.809;   -4.192;  697.167
313.078;   92.312;   -1.172;  808.331
313.675;   94.161;   -2.601;  691.600
314.273;   88.003;   -1.312;  797.837
314.871;   87.374;   -3.942;  589.829
315.468;   85.096;   -2.802;  652.090
316.066;   88.341;   -0.701;  694.427
316.664;   81.164;   -4.362;  656.351
317.261;   84.765;   -2.872;  910.128
317.859;   80.709;   -2.022;  768.735
318.456;   80.705;   -0.531;  830.096
319.054;   75.657;   -3.912;  787.828
319.651;   75.952;   -4.752;  759.928
320.249;   74.413;   -2.602;  810.188
320.846;   72.408;   -0.821;  714.286
321.443;   69.442;   -4.642;  832.135
322.041;   66.483;   -5.002;  812.315
322.638;   63.834;   -3.982;  701.456
323.235;   65.287;   -3.411;  665.683
323.833;   62.209;   -7.361;  740.354
324.430;   57.199;   -8.611;  615.900
325.027;   57.537;   -4.061;  876.855
325.624;   57.907;   -4.031;  644.532
326.221;   54.717;   -7.481;  689.717
326.818;   54.213;   -5.281;  818.332
327.415;   56.814;   -7.460;  748.828
328.012;   56.581;   -5.510;  690.585
328.609;   54.916;   -7.880;  731.389
329.206;   52.308;   -8.331;  778.621
329.803;   53.125;   -5.121;  737.841
330.400;   55.203;   -4.510;  704.260
330.997;   58.125;   -6.441;  817.147
331.594;   55.591;   -8.831;  788.185
332.191;   60.864;   -7.621;  728.722
332.787;   63.807;   -4.591;  844.463
333.384;   64.037;   -7.412;  763.093
333.981;   62.731;   -8.293;  815.687
334.578;   65.285;   -7.052;  708.378
335.174;   68.530;   -3.102;  731.469
335.771;   67.975;   -5.943;  836.456
336.367;   65.084;   -7.393;  710.631
336.964;   67.669;   -4.063;  793.266
337.561;   67.226;   -3.813;  731.112
338.157;   62.197;   -4.654;  911.916
338.754;   60.302;   -7.934;  796.589
339.350;   58.669;   -4.414;  722.493
339.946;   60.323;   -4.664;  773.135
340.543;   51.888;   -6.375;  846.136
341.139;   47.066;   -9.815;  720.836
341.735;   43.645;   -4.526;  772.593
342.332;   41.763;   -4.895;  691.472
342.928;   42.351;   -4.295;  795.394
343.524;   35.974;   -5.476;  761.684
344.120;   30.795;   -5.856;  738.562
344.716;   35.574;   -2.155;  723.717
345.313;   32.986;   -6.275;  795.342
345.909;   26.963;   -8.815;  627.336
346.505;   28.606;   -5.305;  740.247
347.101;   29.948;   -2.674;  827.864
347.697;   29.834;   -4.344;  785.398
348.293;   24.095;   -9.975;  627.244
348.889;   25.468;   -5.774;  745.914
349.485;   24.723;   -5.004;  688.205
350.081;   24.995;   -4.704;  772.592
350.676;   20.376;   -6.635;  691.606
351.272;   24.489;   -4.504;  809.530
351.868;   23.972;   -3.914;  780.497
352.464;   22.348;   -9.044;  723.932
353.059;   18.386;   -8.314;  646.017
353.655;   21.582;   -7.024;  777.063
354.251;   22.388;   -5.343;  759.845
354.846;   16.237;   -8.604;  740.646
355.442;   14.217;   -6.945;  753.071
356.038;   15.823;   -7.564;  751.708
356.633;   16.443;   -5.814;  728.594
357.229;   14.469;   -7.364;  724.757
357.824;   12.102;   -8.024;  703.600
358.420;   11.698;   -9.384;  679.726
359.015;   12.363;   -5.104;  695.357
359.610;   13.652;   -6.854;  763.920
360.206;    7.720;  -10.185;  603.240
360.801;   10.011;   -7.054;  646.503
361.396;   12.034;   -5.034;  725.975
361.992;    7.349;   -8.284;  668.220
362.587;    4.207;   -8.625;  670.160
363.182;    6.013;   -7.674;  689.631
363.777;    7.547;   -5.164;  738.242
364.372;    6.166;   -8.604;  737.314
364.967;    1.783;   -9.055;  680.744
365.563;    7.497;   -6.114;  815.567
366.158;    4.479;   -5.814;  685.161
366.753;    5.098;   -7.854;  649.263
367.348;    3.240;   -7.804;  746.056
367.942;    2.211;   -7.954;  697.298
368.537;    2.117;   -4.984;  754.245
369.132;    1.981;   -8.564;  703.428
369.727;   -1.585;   -8.855;  638.079
370.322;   -0.803;   -6.245;  580.186
370.917;   -0.677;   -6.425;  710.646
371.511;    1.957;   -6.294;  861.834
372.106;   -1.616;   -7.685;  776.964
372.701;   -4.563;   -7.335;  585.988
373.296;    0.735;   -4.564;  863.135
373.890;   -4.112;  -10.235;  647.840
374.485;   -6.173;   -7.885;  691.199
375.079;   -2.752;   -7.324;  738.685
375.674;   -0.511;   -3.494;  812.970
376.268;   -6.032;   -8.525;  691.759
376.863;  -10.864;  -10.086;  580.327
377.457;   -5.016;   -7.025;  662.490
378.052;   -6.823;   -3.585;  764.884
378.646;   -7.649;   -7.595;  741.167
379.240;   -8.281;   -8.335;  721.176
379.835;   -7.715;   -5.785;  636.978
380.429;   -9.142;   -4.335;  562.557
381.023;   -9.701;   -6.805;  779.205
381.617;  -11.859;   -9.195;  680.106
382.212;   -8.374;   -6.905;  685.303
382.806;   -6.867;   -3.745;  760.690
383.400;  -11.569;   -7.745;  672.281
383.994;  -12.171;   -9.765;  664.870
384.588;   -8.933;   -6.564;  697.701
385.182;   -7.634;   -5.344;  726.624
385.776;   -8.988;   -8.514;  706.875
386.370;  -13.014;   -9.555;  681.968
386.964;  -11.078;   -8.715;  684.155
387.558;   -9.582;   -6.174;  598.360
388.152;  -12.772;   -8.725;  681.959
388.745;  -11.428;   -7.965;  814.707
389.339;   -9.388;   -5.924;  747.642
389.933;   -9.628;   -5.524;  695.370
390.527;  -10.467;   -7.114;  859.029
391.120;  -16.551;  -10.725;  595.318
391.714;  -12.801;   -8.035;  711.633
392.308;  -10.561;   -3.574;  780.253
392.901;  -14.246;   -7.245;  642.460
393.495;  -15.089;   -9.285;  595.414
394.089;  -13.429;   -5.895;  760.452
394.682;  -13.739;   -4.295;  697.188
395.275;  -15.033;   -9.875;  719.927
395.869;  -16.001;   -8.485;  667.314
396.462;  -14.023;   -7.455;  616.609
397.056;  -10.224;   -5.424;  776.621
397.649;  -15.354;   -6.605;  731.575
398.242;  -12.785;   -8.224;  712.645
398.836;  -11.878;   -7.474;  766.408
399.429;  -13.112;   -7.094;  631.041
400.022;  -16.551;   -9.475;  665.902
400.615;  -13.776;   -7.145;  805.609
401.208;  -12.594;   -7.174;  691.451
401.802;  -13.912;   -5.515;  699.329
402.395;  -15.533;   -9.875;  683.502
402.988;  -16.922;   -8.845;  696.627
403.581;  -13.797;   -8.874;  646.878
404.174;  -11.197;   -5.324;  686.568
404.767;  -14.084;   -9.575;  638.583
405.360;  -17.317;  -10.965;  621.445
405.953;  -11.204;   -8.764;  759.034
406.545;  -10.805;   -7.514;  725.342
407.138;  -14.830;  -10.025;  618.350
407.731;  -13.843;  -10.034;  613.303
408.324;   -9.650;   -9.374;  660.554
408.917;  -10.804;   -6.534;  681.864
409.509;  -12.845;   -8.004;  740.396
410.102;  -14.874;   -9.875;  643.948
410.695;   -8.333;   -8.604;  665.758
411.287;   -9.308;   -6.794;  599.821
411.880;  -10.786;   -9.334;  585.421
412.472;  -14.127;  -10.254;  613.092
413.065;  -11.342;   -6.714;  629.408
413.657;   -8.546;   -7.234;  576.678
414.250;   -8.881;  -10.544;  646.681
414.842;  -11.127;   -9.744;  676.353
415.434;   -8.501;   -6.994;  570.463
416.027;   -4.665;   -5.893;  652.196
416.619;   -6.746;   -7.264;  713.400
417.211;   -6.976;  -10.374;  599.352
417.804;   -3.714;   -7.993;  628.499
418.396;   -7.179;   -7.234;  607.643
418.988;   -4.844;   -9.443;  659.238
419.580;   -8.675;  -10.724;  568.276
420.172;   -5.970;  -10.323;  536.196
420.764;   -1.777;   -8.793;  672.482
421.356;   -3.354;  -11.143;  636.898
421.948;   -4.988;   -8.293;  677.661
422.540;    1.085;   -7.893;  680.027
423.132;   -0.446;   -7.082;  600.641
423.724;   -2.477;   -8.653;  561.267
424.316;   -1.081;  -10.213;  621.345
424.908;    2.591;   -9.762;  591.517
425.500;    2.784;   -5.572;  647.978
426.092;    3.346;   -8.422;  648.268
426.683;    1.988;   -9.283;  684.836
427.275;    5.004;   -7.852;  641.471
427.867;    6.864;   -5.272;  668.948
428.458;    7.054;   -7.682;  732.344
429.050;    5.433;  -10.612;  680.749
429.642;    7.739;   -9.882;  743.124
430.233;    8.466;   -6.962;  569.356
430.825;    9.185;   -6.842;  724.809
431.416;    6.761;   -9.672;  698.241
432.008;   11.019;   -6.552;  651.723
432.599;   10.514;   -6.891;  656.073
433.190;    8.531;  -10.912;  637.670
433.782;    7.879;  -11.172;  590.395
434.373;   14.577;   -6.061;  884.765
434.964;   13.161;   -8.251;  602.920
435.556;   10.571;   -9.722;  634.537
436.147;   13.664;   -9.082;  758.490
436.738;   14.261;   -8.041;  701.099
437.329;   19.670;   -7.341;  721.723
437.920;   11.282;   -8.162;  666.688
438.511;   12.373;  -11.802;  564.526
439.103;   18.547;  -10.191;  623.998
439.694;   20.575;   -7.601;  681.583
440.285;   21.144;   -8.541;  764.432
440.876;   18.870;   -9.751;  845.738
441.466;   19.377;   -9.401;  575.162
442.057;   24.163;   -7.760;  665.814
442.648;   22.986;   -9.971;  746.255
443.239;   21.412;  -11.001;  620.477
443.830;   26.400;   -7.990;  704.958
444.421;   27.869;   -7.910;  655.474
445.011;   23.782;   -8.131;  693.619
445.602;   23.789;   -7.111;  743.126
446.193;   26.243;  -10.920;  488.117
446.783;   30.662;   -6.500;  640.397
447.374;   25.839;   -8.671;  692.759
447.964;   26.500;  -10.781;  713.770
448.555;   34.398;   -9.650;  822.742
449.145;   32.068;   -8.660;  662.853
449.736;   32.424;   -8.990;  803.179
450.326;   32.004;   -9.500;  713.626
450.917;   36.203;   -8.680;  675.324
451.507;   36.571;   -7.520;  600.661
452.097;   36.303;   -8.590;  746.267
452.688;   38.092;  -11.340;  742.160
453.278;   37.897;  -10.100;  566.840
453.868;   41.315;   -6.019;  793.550
454.458;   39.086;   -9.440;  651.141
455.048;   39.611;  -10.560;  711.783
455.639;   42.532;  -11.799;  567.096
456.229;   44.914;   -6.899;  710.694
456.819;   46.761;   -7.389;  751.158
457.409;   47.204;  -11.119;  773.993
457.999;   50.095;   -9.289;  737.505
458.589;   50.064;   -6.139;  686.606
459.179;   49.043;   -8.729;  717.658
459.769;   46.796;   -9.789;  627.099
460.358;   52.778;  -10.259;  797.262
460.948;   52.388;   -7.299;  689.503
461.538;   54.022;  -10.289;  660.677
462.128;   51.480;  -11.269;  664.934
462.717;   59.339;   -9.368;  710.326
463.307;   62.425;   -7.908;  705.846
463.897;   57.792;   -9.599;  656.942
464.486;   57.198;   -9.769;  837.128
465.076;   61.400;   -8.048;  733.776
465.666;   65.386;   -9.358;  652.900
466.255;   62.745;   -7.919;  785.651
466.845;   61.324;  -11.689;  666.749
467.434;   64.828;   -7.818;  725.873
468.023;   66.426;   -7.678;  658.357
468.613;   62.802;  -10.939;  713.946
469.202;   68.956;  -10.118;  646.507
469.791;   71.602;   -9.108;  737.811
470.381;   73.379;   -6.058;  742.813
470.970;   73.320;  -10.428;  711.099
471.559;   72.038;  -10.268;  733.291
472.148;   75.928;   -8.448;  675.737
472.738;   79.572;   -6.917;  765.466
473.327;   78.701;  -11.978;  637.529
473.916;   77.708;  -11.888;  737.446
474.505;   82.256;   -9.437;  751.703
475.094;   85.257;   -6.747;  806.570
475.683;   84.363;   -9.367;  797.699
476.272;   85.227;  -12.637;  730.632
476.861;   88.191;  -10.027;  706.754
477.449;   94.363;   -8.716;  728.487
478.038;   89.205;   -9.577;  692.513
478.627;   90.139;   -9.718;  714.852
479.216;   97.441;   -8.947;  769.441
479.805;  100.166;   -6.256;  783.375
480.393;  100.192;   -7.937; 1008.945
480.982;   99.193;   -7.717;  874.501
481.571;  105.765;   -9.266;  858.333
482.159;  106.452;   -7.636;  705.386
482.748;  105.227;   -9.667;  821.385
483.336;  109.604;  -10.376;  858.209
483.925;  110.989;   -7.147;  774.373
484.513;  118.449;   -7.996;  758.962
485.102;  114.752;  -10.027;  810.965
485.690;  122.783;  -10.446; 1011.050
486.278;  124.364;   -8.446;  979.329
486.867;  126.149;   -6.356;  809.662
487.455;  127.790;   -9.136;  898.229
488.043;  129.772;  -10.646;  748.361
488.631;  138.551;   -7.456; 1005.079
489.220;  142.344;   -6.636;  908.626
489.808;  142.960;  -11.036;  741.415
490.396;  150.382;  -10.246;  914.645
490.984;  155.785;   -8.556;  830.161
491.572;  167.534;   -5.886;  940.315
492.160;  174.555;   -9.486;  919.081
492.748;  184.372;  -10.976;  884.341
493.336;  207.531;   -8.776; 1019.693
493.924;  236.587;   -5.465;  958.077
494.512;  272.292;   -9.986; 1066.638
495.100;  314.084;  -10.636; 1103.280
495.687;  378.813;  -10.885; 1206.373
496.275;  461.902;   -8.126; 1150.796
496.863;  541.543;  -10.586; 1281.171
497.451;  649.693;  -11.926; 1386.805
498.038;  756.415;  -10.885; 1556.729
498.626;  882.129;   -6.315; 1741.407
499.214; 1089.213;   -7.326; 2016.609
499.801; 1323.554;  -11.906; 2220.633
500.389; 1631.742;  -10.466; 2312.494
500.976; 1920.280;   -5.236; 2744.849
501.564; 2379.065;   -8.936; 3148.565
502.151; 3019.962;  -13.176; 3515.999
502.738; 3403.715;  -10.646; 3971.274
503.326; 3806.492;   -9.525; 4403.796
503.913; 4254.035;  -10.856; 5161.749
504.500; 4705.238;  -11.586; 5986.420
505.088; 5273.876;  -10.336; 6381.201
505.675; 6156.272;   -6.355; 6925.547
506.262; 6755.737;   -9.046; 7619.060
506.849; 7162.480;  -10.416; 8733.969
507.436; 7614.307;  -10.305; 9790.121
508.023; 8007.329;   -5.496; 9985.472
508.610; 8106.202;   -7.856;10434.618
509.197; 9088.708;  -10.097;11198.435
509.784;10409.215;  -10.886;12391.194
510.371;11821.618;   -9.315;13603.713
510.958;12860.251;   -9.936;14426.586
511.545;13321.840;   -9.326;15243.775
512.132;13566.219;  -10.075;15945.876
512.719;14108.078;   -7.796;16340.369
513.305;15337.221;  -10.606;18011.766
513.892;16853.238;  -11.486;19754.971
514.479;18193.480;   -9.126;20967.805
515.066;19641.557;   -6.026;22299.793
515.652;19781.109;   -8.466;22908.660
516.239;20200.684;  -10.886;23798.875
516.825;21538.123;  -11.496;25567.275
517.412;23040.148;   -5.796;28154.959
517.998;24231.350;  -10.506;28344.111
518.585;25060.326;  -10.076;27134.219
519.171;24674.559;   -8.315;27268.576
519.758;25227.346;   -8.596;28964.129
520.344;27657.123;   -8.466;30664.494
520.930;26738.480;  -11.006;32550.605
521.516;25160.115;  -10.495;35422.895
522.103;26777.496;   -5.526;38280.004
522.689;28868.711;   -8.746;37835.117
523.275;29758.322;  -11.376;37288.613
523.861;31391.266;  -11.156;37281.395
524.447;30736.125;   -8.135;37846.949
525.033;29973.426;   -7.896;38321.949
525.619;28494.332;  -12.476;38579.285
526.205;27263.371;   -9.516;40622.875
526.791;28765.096;   -6.926;42258.836
527.377;31363.986;   -8.346;42966.902
527.963;34928.402;   -8.717;42018.949
528.549;37340.344;  -11.016;42476.828
529.135;36077.008;   -8.536;41854.852
529.721;35947.973;   -9.666;41237.711
530.306;34861.699;  -10.066;41259.445
530.892;35810.891;  -11.356;41506.047
531.478;37793.336;   -6.596;43559.613
532.063;39778.488;   -8.836;47695.563
532.649;38006.090;  -10.047;50808.324
533.235;37755.578;   -9.746;51787.500
533.820;40092.270;   -6.566;52145.035
534.406;41655.488;  -10.817;51133.488
534.991;43382.441;   -9.416;49996.805
535.576;41984.383;   -9.036;48882.852
536.162;39253.898;   -6.156;46942.285
536.747;39192.180;  -11.607;45711.746
537.333;41779.426;  -11.787;48510.180
537.918;42590.922;  -12.437;50439.891
538.503;41699.289;   -7.196;50863.711
539.088;41389.488;  -10.556;50906.922
539.673;41116.898;   -8.767;52621.965
540.259;36203.754;  -10.026;52368.094
540.844;33020.684;   -7.416;50879.109
541.429;32166.686;   -9.467;52077.777
542.014;34222.457;   -9.527;52716.695
542.599;40974.090;   -9.946;52363.281
543.184;45224.496;   -7.927;53187.137
543.769;46549.477;   -9.297;54697.605
544.354;47291.063;  -10.127;53913.914
544.938;45125.840;   -9.267;49680.164
545.523;42987.109;   -6.506;47386.277
546.108;44699.328;   -9.787;49151.949
546.693;45761.652;  -11.587;51384.637
547.278;45825.637;  -10.986;51853.254
547.862;45964.074;   -8.206;51173.750
548.447;44033.805;  -10.067;51691.395
549.031;43946.508;   -9.637;52456.703
549.616;44559.879;   -9.926;52714.516
550.201;43677.160;   -6.347;52414.598
550.785;44740.023;   -7.917;52355.059
551.370;45685.176;  -10.867;54589.453
551.954;47730.180;   -9.047;58267.348
552.538;47139.023;   -7.827;59062.176
553.123;45093.500;  -10.287;58115.285
553.707;44464.445;  -12.178;56556.285
554.291;41996.777;   -8.717;56201.668
554.876;43170.125;   -7.457;55335.762
555.460;45326.160;  -10.387;54155.703
556.044;46709.730;   -9.618;53721.484
556.628;47518.230;  -11.567;53731.016
557.212;48110.500;   -8.097;54312.531
557.796;49555.965;  -11.077;53797.773
558.380;47509.359;  -11.108;56145.984
558.964;45732.516;   -9.057;57277.930
559.548;43406.645;   -6.977;56459.641
560.132;40224.281;  -11.457;54434.543
560.716;41616.102;  -11.378;54800.617
561.300;44045.363;   -9.577;57606.945
561.884;42809.992;   -7.127;58972.445
562.467;41057.402;   -7.118;57327.570
563.051;39640.453;  -13.358;54962.434
563.635;37687.598;  -10.178;52594.473
564.219;39454.363;   -7.837;50610.410
564.802;43022.863;  -11.398;49551.180
565.386;43374.664;  -12.788;48370.953
565.969;44562.715;   -9.077;48178.871
566.553;43648.504;   -6.207;49957.305
567.136;41958.867;   -8.568;50369.594
567.720;42861.086;  -11.868;49492.004
568.303;44007.410;   -8.268;50616.352
568.887;43337.445;   -8.698;50727.148
569.470;41136.449;   -6.808;51698.379
570.053;38887.863;  -13.188;52122.078
570.637;36585.695;  -12.037;52536.438
571.220;36638.152;   -8.577;51186.098
571.803;36775.211;   -8.498;51032.762
572.386;38890.176;  -10.498;49609.887
572.969;39743.359;   -9.388;48285.926
573.552;40062.496;   -8.338;47624.285
574.135;39502.656;   -8.518;45498.641
574.718;36691.621;  -13.628;41970.434
575.301;36817.395;  -10.893;41447.137
575.884;36943.164;   -8.158;40923.836
576.467;40793.813;  -10.328;45267.723
577.050;40525.496;  -13.058;48175.543
577.633;39115.363;   -9.458;47729.328
578.216;35716.242;   -8.928;47579.793
578.799;33209.941;   -9.358;47820.996
579.381;34657.199;  -11.388;48115.551
579.964;35294.574;  -11.718;47333.766
580.547;34104.789;   -8.588;46668.969
581.129;34600.324;   -8.859;44466.141
581.712;36296.941;  -10.729;44164.922
582.294;36116.598;  -11.118;46477.855
582.877;36891.254;   -5.218;48244.254
583.459;37010.602;   -8.679;47437.895
584.042;38191.648;  -10.709;46943.219
584.624;36069.613;  -11.669;46792.227
585.206;34870.336;   -8.218;46557.250
585.789;36035.324;  -10.569;45793.773
586.371;36531.285;  -11.859;43836.391
586.953;37402.313;  -10.719;42972.492
587.536;38817.277;   -7.198;42487.211
588.118;37741.230;   -8.720;42086.414
588.700;36656.656;  -10.439;43389.930
589.282;34210.914;   -9.198;43646.039
589.864;32103.205;   -9.199;43438.109
590.446;31990.367;  -11.319;43151.926
591.028;31566.166;  -11.159;42781.867
591.610;31846.314;  -11.779;42839.098
592.192;33147.918;   -7.668;42820.402
592.774;32395.363;  -11.949;40724.277
593.356;30464.219;  -12.129;39874.789
593.937;30183.053;  -10.669;39980.648
594.519;32809.828;   -6.509;42069.633
595.101;33060.313;  -10.849;42976.031
595.683;31783.900;  -11.679;44084.441
596.264;30951.527;   -9.049;43478.797
596.846;30630.916;   -8.849;43803.672
597.427;30540.504;   -9.570;42986.934
598.009;32184.363;  -12.620;42832.219
598.591;32286.061;  -10.039;42580.086
599.172;34399.734;  -10.369;43061.805
599.753;36650.844;   -9.140;41691.469
600.335;35989.090;  -11.430;40692.520
600.916;33458.879;   -9.939;39982.422
601.498;30176.184;   -8.479;40318.617
602.079;29623.025;  -10.920;40670.609
602.660;29367.908;  -11.480;41450.898
603.241;30243.682;  -11.699;41137.738
603.823;30534.738;   -9.579;38868.797
604.404;30058.250;  -10.620;38182.785
604.985;33088.766;  -10.450;38078.047
605.566;34070.758;   -9.129;38056.633
606.147;34961.707;   -7.510;37020.418
606.728;33767.422;  -10.660;37883.359
607.309;31880.199;  -11.740;38748.273
607.890;31685.174;   -9.759;38850.230
608.471;30371.271;   -8.250;37457.918
609.051;30545.154;   -9.240;36066.457
609.632;30719.635;  -12.120;35991.074
610.213;30262.490;   -9.110;37402.641
610.794;31391.387;   -8.030;38383.363
611.374;30176.416;   -8.110;40562.387
611.955;29891.436;  -13.560;38533.727
612.536;30987.977;  -11.400;36951.789
613.116;30475.051;   -8.070;37197.891
613.697;31279.260;  -10.830;38411.125
614.277;31088.945;  -11.641;38673.938
614.858;30376.248;  -13.310;37075.863
615.438;30508.338;   -7.460;35092.906
616.019;28603.908;   -7.601;33666.301
616.599;29252.578;  -12.020;34189.023
617.179;29033.568;  -11.780;36952.047
617.760;27858.424;   -8.570;39582.574
618.340;28332.992;  -11.471;38943.977
618.920;28976.404;  -11.170;37594.156
619.500;29947.133;  -11.071;37866.938
620.080;30423.189;   -7.750;37869.043
620.660;30601.344;  -12.711;36868.617
621.241;31306.920;  -10.211;36352.309
621.821;30846.650;  -10.961;35459.520
622.401;30992.025;   -7.720;35207.414
622.980;32846.078;   -8.981;35980.422
623.560;31731.760;   -9.331;37351.328
624.140;27484.795;   -9.850;34388.582
624.720;23464.799;   -7.451;32368.764
625.300;22999.600;   -9.070;32638.629
625.880;27268.908;  -12.601;34599.035
626.459;30488.549;  -11.751;36831.738
627.039;30546.832;   -9.281;38299.098
627.619;29681.879;   -8.801;38289.574
628.198;29751.363;  -12.071;37220.695
628.778;30478.980;   -9.461;37632.563
629.357;31211.949;   -8.491;38003.012
629.937;30840.496;   -9.721;38402.039
630.516;31489.895;   -9.951;37868.801
631.096;32766.520;  -11.731;35760.410
631.675;35219.586;   -8.572;35225.219
632.254;35164.184;  -11.282;35130.289
632.834;33711.449;  -13.322;35794.570
633.413;34432.105;  -10.301;35788.922
633.992;34589.238;   -8.582;34532.863
634.571;35480.430;   -8.352;33590.113
635.151;34848.727;  -11.912;34943.863
635.730;32571.434;  -10.511;35352.523
636.309;32284.777;   -7.731;35366.605
636.888;31657.840;   -9.952;36165.637
637.467;31058.564;  -11.672;37515.902
638.046;29609.023;   -8.901;39288.695
638.625;28915.166;   -7.912;38279.699
639.204;28137.129;  -10.022;37741.598
639.782;29298.344;  -12.252;38364.551
640.361;31404.721;  -10.041;36740.621
640.940;31293.967;  -11.161;34950.082
641.519;30739.014;   -9.701;34137.398
642.097;32032.635;  -11.271;35654.258
642.676;32135.705;   -8.651;35637.957
643.255;31167.309;   -8.711;36567.074
643.833;30717.025;   -9.581;37809.434
644.412;31475.816;  -13.711;37337.293
644.990;32797.332;  -11.811;37018.531
645.569;35577.184;   -9.411;36518.469
646.147;36257.059;  -10.291;36186.430
646.726;34273.230;  -12.401;36267.688
647.304;32680.457;  -10.411;36647.625
647.882;33324.031;   -9.651;39286.742
648.461;33175.109;   -9.631;39157.703
649.039;30794.492;  -11.881;35412.883
649.617;30534.600;   -9.661;34744.918
650.195;31159.398;   -9.301;35403.098
650.773;30479.418;  -10.511;35053.797
651.352;30280.182;  -11.521;33756.816
651.930;29002.449;  -12.211;31868.773
652.508;28014.551;   -9.171;33121.551
653.086;29268.379;   -9.371;33564.793
653.663;31629.145;  -13.161;34054.668
654.241;30665.666;  -13.031;35693.309
654.819;28766.014;   -9.371;36422.906
655.397;29415.160;  -10.511;38213.484
655.975;29549.586;  -10.371;39507.625
656.553;30247.740;  -10.051;39498.223
657.130;31096.426;  -10.061;40395.480
657.708;28036.342;   -9.561;39242.020
658.286;25171.115;  -11.511;38920.020
658.863;25529.961;  -10.261;40202.898
659.441;28345.623;   -7.531;39677.938
660.018;30972.859;   -9.501;40413.355
660.596;31717.270;  -13.301;39931.414
661.173;34480.320;  -11.211;39604.531
661.750;33715.516;   -9.951;39700.070
662.328;30885.002;   -9.390;39292.809
662.905;29611.502;  -11.330;38235.648
663.482;26878.918;   -9.050;36212.305
664.060;24521.934;   -8.240;35944.945
664.637;28444.299;  -10.050;35170.785
665.214;33207.555;  -11.760;34197.523
665.791;32239.984;  -10.530;34549.520
666.368;31958.646;   -9.690;35118.578
666.945;32355.682;   -9.320;36019.418
667.522;33173.855;  -11.860;36048.438
668.099;32228.836;  -10.770;36243.914
668.676;32108.037;   -6.260;35958.875
669.253;34361.625;   -7.000;37384.730
669.830;34861.723;  -10.190;36779.629
670.407;33669.773;   -9.550;35231.289
670.984;33052.535;   -9.260;35544.270
671.560;31359.439;   -9.280;35466.867
672.137;29515.814;  -11.810;34280.863
672.714;29519.277;  -11.490;34632.863
673.290;30296.805;   -7.740;35135.422
673.867;30898.088;  -10.660;36114.480
674.443;30344.611;  -12.230;36152.859
675.020;28838.391;  -10.450;35327.238
675.596;27322.684;   -9.260;35795.176
676.173;28045.398;  -10.780;35430.355
676.749;28766.246;  -13.690;33549.516
677.326;30075.559;  -11.980;32210.012
677.902;28341.445;   -8.630;32068.871
678.478;26257.463;  -10.730;32583.891
679.054;27779.670;  -10.520;32088.928
679.631;29165.797;  -11.920;30978.848
680.207;30272.678;   -7.490;33160.887
680.783;31521.242;   -9.860;35570.363
681.359;32150.498;  -13.380;36125.184
681.935;30790.428;  -12.480;35240.922
682.511;31302.508;   -7.900;34429.961
683.087;32010.639;   -7.710;34463.680
683.663;32907.781;  -11.480;34648.898
684.239;32400.238;  -14.090;34546.457
684.815;33343.125;   -7.560;35586.375
685.390;33490.816;   -9.910;35821.895
685.966;33093.352;  -11.159;35085.871
686.542;33712.785;  -11.169;34198.230
687.118;32199.906;   -5.959;32847.707
687.693;32203.100;  -10.329;32794.027
688.269;31721.199;  -12.059;33072.367
688.844;32366.113;  -10.909;33141.664
689.420;33695.016;   -8.019;33965.742
689.995;30616.936;   -8.399;34655.523
690.571;29815.029;  -10.949;33576.742
691.146;29110.557;   -9.619;32657.219
691.722;26914.549;   -8.999;32526.979
692.297;25896.557;  -11.589;33014.617
692.872;26686.871;  -11.739;34012.254
693.448;27027.590;  -11.059;34237.434
694.023;28940.568;  -10.139;34142.672
694.598;31222.918;   -9.029;34132.031
695.173;31014.246;  -13.319;34205.250
695.748;28395.307;  -10.169;32882.488
696.323;25867.727;   -8.339;32864.906
696.898;25270.203;   -8.169;33170.004
697.473;28470.514;  -12.309;32432.984
698.048;28520.953;  -10.989;31649.303
698.623;27418.043;   -9.329;30778.141
699.198;28986.102;   -9.849;31140.119
699.773;30415.543;  -12.329;31764.299
700.348;30273.141;  -10.389;31780.816
700.922;28439.582;   -9.269;32046.375
701.497;26589.145;   -9.329;32603.574
702.072;28247.404;  -10.789;34799.871
702.646;28230.945;  -10.839;35793.172
703.221;28784.963;   -9.099;35201.590
703.795;29394.195;  -10.939;34764.527
704.370;27925.305;  -12.859;34307.367
704.944;29261.795;  -11.559;33509.887
705.519;30315.109;   -7.939;31388.584
706.093;32159.811;  -10.499;31340.104
706.668;33193.715;  -11.289;32630.281
707.242;32369.529;  -11.509;32728.779
707.816;30903.902;   -9.639;32947.238
708.390;30274.762;  -11.429;33277.855
708.965;31248.133;  -11.869;33834.336
709.539;31278.770;  -11.689;33709.273
710.113;30870.434;  -10.478;33044.313
710.687;28279.533;  -10.228;31953.992
711.261;27461.516;  -13.698;30505.949
711.835;27249.561;  -13.378;30262.369
712.409;26861.000;   -9.698;31254.447
712.983;26452.688;  -11.898;32754.986
713.557;25256.596;  -15.138;34018.824
714.131;26588.850;  -14.098;34579.625
714.704;26772.244;   -9.958;33890.262
715.278;26014.607;  -10.028;33531.102
715.852;25100.611;  -11.148;33601.660
716.425;24571.346;   -9.068;33515.117
716.999;26148.059;  -10.038;33185.555
717.573;26784.076;   -9.798;33905.996
718.146;27721.383;  -12.378;35199.293
718.720;28243.260;  -11.918;35060.551
719.293;27285.563;   -8.088;34973.230
719.867;26248.064;  -10.888;36394.449
720.440;26866.529;  -11.938;36663.008
721.013;28799.486;  -12.818;35102.426
721.587;30398.881;  -10.298;33985.266
722.160;30381.762;  -10.048;33524.965
722.733;28546.211;  -12.108;32987.043
723.306;26252.793;  -10.818;33066.301
723.880;26667.045;   -8.908;33399.500
724.453;25841.639;   -9.878;33468.297
725.026;25535.369;  -11.188;33816.637
725.599;25851.111;  -11.678;32797.996
726.172;25583.977;   -9.618;33187.434
726.745;26576.199;   -8.258;35136.613
727.318;29196.230;  -12.978;35751.730
727.891;31200.119;  -12.148;35890.430
728.463;32391.951;   -8.968;34822.090
729.036;32603.982;  -10.188;32895.086
729.609;30224.170;  -11.788;31823.225
730.182;28367.619;  -11.788;31445.283
730.754;27695.270;  -10.268;32373.223
731.327;27479.229;   -9.998;33676.820
731.900;26492.162;  -12.228;33417.000
732.472;25489.141;  -13.848;31978.498
733.045;25425.906;   -8.698;30368.777
733.617;24955.262;  -10.607;30574.215
734.190;23583.029;  -11.507;31280.975
734.762;23858.545;  -13.647;31674.412
735.334;25221.953;   -9.767;31247.291
735.907;25600.561;   -9.897;29876.211
736.479;23597.578;  -11.637;29808.488
737.051;22839.805;   -9.567;30233.547
737.623;23698.846;   -8.187;31469.086
738.195;25531.787;  -11.187;31784.225
738.768;25958.479;  -12.337;32120.523
739.340;25416.938;  -12.227;32094.342
739.912;24879.668;  -11.057;31312.680
740.484;25606.244;  -10.207;31946.238
741.056;26931.654;  -10.047;32984.059
741.628;26569.494;  -13.627;33897.715
742.199;26976.135;   -7.177;33213.016
742.771;25293.959;  -10.797;31369.113
743.343;23773.797;  -11.997;31865.473
743.915;23928.916;  -12.867;32388.631
744.487;24438.641;   -7.617;31079.568
745.058;25753.607;   -9.557;30570.107
745.630;25737.680;   -9.877;29970.127
746.201;24599.762;  -14.177;29186.766
746.773;24208.617;   -9.237;28805.723
747.344;24273.770;   -9.847;29591.223
747.916;24308.787;  -11.657;31412.201
748.487;23943.131;  -10.587;32194.898
749.059;23843.744;   -8.707;32533.719
749.630;22859.164;  -10.537;32158.518
750.201;23065.143;  -11.687;30855.395
750.773;23276.443;  -11.647;28622.555
751.344;24574.986;   -7.147;28405.732
751.915;24478.545;   -9.757;28461.551
752.486;24126.443;  -12.427;27842.850
753.057;22554.633;  -12.227;27845.008
753.628;22081.662;  -10.417;27728.107
754.199;22229.904;  -11.767;27381.086
754.770;21706.121;  -11.187;25882.203
755.341;21146.174;  -10.507;25886.184
755.912;21410.551;   -9.387;26050.861
756.483;21809.207;  -10.647;26798.779
757.054;21518.475;  -11.837;27048.238
757.625;19817.123;  -12.716;26294.838
758.195;19217.826;   -9.666;26142.076
758.766;20169.313;   -8.656;26392.234
759.337;20024.732;  -12.856;26334.594
759.907;19350.773;  -13.366;27579.652
760.478;18497.719;   -8.576;28352.770
761.048;19123.928;  -10.526;27325.088
761.619;19734.031;  -11.116;26460.428
762.189;19321.045;  -12.136;26029.826
762.760;19382.918;   -9.456;26430.145
763.330;19633.148;   -7.136;26670.902
763.900;19651.096;  -11.786;26603.021
764.471;18893.402;  -11.546;25542.740
765.041;18537.576;   -8.096;24358.459
765.611;18610.883;   -8.876;23991.297
766.181;18663.350;  -12.196;24470.236
766.751;19343.939;  -11.636;24845.975
767.321;19521.576;  -10.156;24533.633
767.891;19293.781;  -11.766;24916.492
768.461;19036.359;  -14.936;24776.771
769.031;18259.336;  -12.356;24757.988
769.601;17987.531;   -7.526;24181.088
770.171;18327.191;  -10.766;23670.387
770.741;18977.383;  -13.176;22960.045
771.311;18608.996;  -10.616;22917.523
771.880;17235.854;   -9.576;23562.941
772.450;16609.379;  -10.336;24216.500
773.020;16821.285;  -13.516;24140.398
773.589;16757.988;  -13.466;24414.857
774.159;16255.627;   -8.686;23858.717
774.729;15633.635;   -9.476;22942.135
775.298;15633.815;  -13.666;22324.033
775.867;15679.960;  -11.716;21140.313
776.437;15113.060;   -9.906;20838.092
777.006;14946.977;  -12.166;20599.510
777.576;16363.179;  -12.356;20508.809
778.145;15814.630;  -11.646;20732.947
778.714;14374.893;   -8.226;21062.465
779.283;13808.045;   -9.556;20949.664
779.853;13504.885;  -14.116;20508.623
780.422;13782.062;  -11.506;20649.082
780.991;14240.332;   -9.556;21527.520
781.560;14931.777;   -9.095;22632.658
782.129;13870.806;  -12.135;23048.277
782.698;12563.367;  -10.865;23438.555
783.267;11950.887;   -9.335;23267.734
783.836;12322.149;  -11.045;22415.133
784.404;13104.555;  -13.865;20443.152
784.973;13364.952;  -13.095;19699.150
785.542;13284.748;  -11.575;19763.828
786.111;13073.958;   -9.705;20341.408
786.679;12901.281;  -12.105;20207.967
787.248;12574.610;  -12.455;19516.465
787.817;12414.719;  -11.535;18900.363
788.385;12223.171;   -9.765;17879.121
788.954;12027.161;  -14.005;17658.301
789.522;11828.794;  -11.955;17788.879
790.090;10985.007;  -10.135;18118.277
790.659;10095.843;  -10.975;18338.736
791.227;10146.321;  -13.375;18508.615
791.795;10532.376;  -12.375;17898.254
792.364;10735.255;  -10.725;17295.133
792.932;11077.140;   -9.715;16822.051
793.500;10825.732;  -12.675;17040.148
794.068;11076.921;  -13.495;17179.787
794.636;11140.124;  -10.885;16664.246
795.204;10748.367;  -11.045;16524.545
795.772;10719.073;  -13.175;17274.564
796.340;10471.803;  -12.445;17891.002
796.908;10644.488;   -9.735;17648.561
797.476;11064.813;   -9.815;17064.080
798.044;10827.969;  -13.985;16672.777
798.612;10387.609;  -13.115;17023.996
799.180; 9562.261;  -10.185;16561.615
799.747; 9151.718;   -9.055;15962.773
800.315; 9361.893;  -12.385;15296.992
800.883; 8796.840;  -15.035;14801.771
801.450; 8081.045;  -10.365;14534.430
802.018; 7794.401;   -9.855;14173.248
802.585; 7726.063;  -11.905;14029.547
803.153; 7877.543;  -11.585;13836.846
803.720; 7665.630;   -9.095;13567.324
804.287; 7562.767;   -9.135;13360.622
804.855; 7729.023;  -11.604;13681.981
805.422; 8058.888;  -11.794;13536.560
805.989; 8300.754;  -10.734;13355.958
806.556; 8244.388;  -10.444;13747.896
807.124; 8497.545;  -12.764;13987.376
807.691; 8973.942;  -12.964;14038.674
808.258; 9034.939;  -11.134;14120.152
808.825; 9024.859;   -9.854;13860.111
809.392; 8637.782;  -10.504;13268.790
809.959; 7917.903;  -13.054;12680.389
810.526; 7175.563;   -8.294;12427.308
811.093; 6506.412;   -8.394;12030.105
811.659; 6258.785;  -12.304;11653.664
812.226; 6412.481;  -13.944;11637.183
812.793; 6786.369;  -10.484;11611.521
813.360; 6907.834;  -10.144;11885.181
813.926; 6910.718;  -11.684;12770.539
814.493; 6809.896;  -13.644;12677.638
815.060; 6669.009;   -9.724;11974.336
815.626; 6831.710;   -9.854;11594.715
816.193; 6920.618;  -13.254;11579.474
816.759; 6340.642;  -13.204;11666.972
817.325; 5918.772;   -9.434;11325.530
817.892; 5819.762;  -10.134;11105.369
818.458; 5961.207;  -13.474;10843.928
819.024; 6401.427;  -11.854;10714.406
819.591; 6544.750;  -10.244;10469.165
820.157; 6338.651;  -10.704;10235.523
820.723; 6311.709;  -12.324;10847.563
821.289; 6204.619;   -9.444;11040.980
821.855; 6216.589;   -8.374;10357.100
822.421; 6513.265;  -10.234; 9978.918
822.987; 6509.489;  -13.294; 9754.177
823.553; 6212.584;  -10.884;10065.755
824.119; 5974.217;   -8.884;10036.294
824.685; 5519.081;   -6.784;10029.192
825.251; 5440.195;  -12.004;10199.230
825.816; 5234.513;  -11.474; 9820.189
826.382; 5043.609;   -9.174; 9297.248
826.948; 5322.413;   -9.214; 9381.347
827.513; 5753.242;  -10.774; 9450.726
828.079; 5873.650;  -11.924; 9472.444
828.645; 5703.211;  -10.543; 9292.643
829.210; 5588.416;  -10.533; 9065.341
829.776; 5495.861;  -10.753; 9132.620
830.341; 5631.839;  -10.173; 9092.878
830.906; 5674.040;  -10.743; 9078.557
831.472; 5452.473;  -11.113; 8534.535
832.037; 5090.317;  -10.603; 8677.874
832.602; 4967.603;  -13.323; 8628.692
833.167; 4761.917;  -10.823; 8879.031
833.733; 4635.746;  -10.113; 9189.790
834.298; 4518.063;  -13.583; 9052.608
834.863; 4719.832;  -12.703; 8895.087
835.428; 4951.342;  -10.523; 8824.266
835.993; 4892.063;   -6.963; 8845.385
836.558; 4868.904;  -10.763; 8888.563
837.123; 5009.328;   -9.903; 8966.582
837.688; 5373.031;   -9.913; 8617.860
838.253; 5435.435;  -10.283; 8590.699
838.817; 5108.651;  -12.963; 8443.797
839.382; 4987.187;  -14.243; 8799.356
839.947; 5123.432;  -10.733; 8810.595
840.511; 5145.037;   -9.383; 8796.394
841.076; 5018.299;  -12.563; 8347.231
841.641; 4854.639;  -12.953; 8224.330
842.205; 4722.577;   -7.043; 8223.349
842.770; 4507.160;   -8.163; 8622.107
843.334; 4638.117;  -12.503; 8410.386
843.898; 4815.128;  -11.693; 8337.465
844.463; 4401.346;  -10.203; 8506.283
845.027; 4072.559;   -9.533; 8280.962
845.591; 4094.667;  -13.443; 8231.141
846.156; 4177.905;  -13.143; 7969.179
846.720; 4011.274;   -9.433; 7768.278
847.284; 3900.077;  -11.033; 7630.957
847.848; 3889.456;  -10.403; 7472.395
848.412; 3727.838;  -11.553; 7437.394
848.976; 3637.905;   -8.393; 7674.592
849.540; 3607.040;   -8.713; 7836.011
850.104; 3582.217;  -12.463; 7913.669
850.668; 3654.610;  -12.973; 7694.508
851.232; 3625.211;  -10.793; 7756.887
851.796; 3637.456;  -10.662; 7926.545
852.359; 3725.728;  -13.082; 7827.844
852.923; 3690.870;  -12.192; 7641.163
853.487; 3690.354;  -11.912; 7342.501
854.050; 3527.822;  -10.892; 7042.820
854.614; 3553.006;  -13.992; 7151.338
855.177; 3626.713;  -11.732; 7105.077
855.741; 3508.242;   -8.962; 6989.675
856.304; 3371.532;   -9.442; 6596.634
856.868; 3252.875;  -14.192; 6356.272
857.431; 3193.809;  -12.702; 6468.571
857.995; 3184.426;   -9.942; 6373.210
858.558; 3265.130;   -9.112; 6324.448
859.121; 3147.915;  -12.932; 6408.327
859.684; 2987.887;  -13.442; 6347.886
860.247; 2937.614;  -10.632; 6321.264
860.810; 2898.254;  -11.272; 6301.903
861.374; 2825.401;   -9.832; 6607.881
861.937; 2740.291;  -11.762; 6408.200
862.500; 2736.045;   -9.722; 6572.639
863.062; 2716.646;  -10.512; 6387.297
863.625; 2706.097;  -11.232; 6190.836
864.188; 2743.211;  -14.112; 5807.254
864.751; 2754.978;  -11.302; 5682.413
865.314; 2643.424;  -10.112; 5547.492
865.876; 2467.640;  -12.182; 5500.150
866.439; 2314.234;  -10.722; 5415.909
867.002; 2208.713;   -9.252; 5501.567
867.564; 2258.326;   -9.572; 5413.946
868.127; 2305.237;  -13.142; 5160.325
868.689; 2381.367;  -12.902; 5133.183
869.252; 2493.242;   -9.732; 5252.382
869.814; 2435.753;   -9.432; 5297.141
870.377; 2330.136;  -11.552; 5390.919
870.939; 2322.828;   -9.052; 5599.898
871.501; 2279.350;  -10.982; 5248.336
872.063; 2176.448;  -12.292; 4854.235
872.626; 2117.801;  -14.912; 4817.074
873.188; 2024.763;  -13.112; 4987.732
873.750; 1993.294;  -13.442; 4868.651
874.312; 1964.602;   -9.402; 4779.330
874.874; 1928.681;  -11.062; 4866.348
875.436; 1842.047;  -13.931; 4718.887
875.998; 1774.819;   -9.561; 4660.005
876.560; 1863.209;  -11.321; 4462.964
877.122; 2051.003;  -12.221; 4145.042
877.683; 2224.822;  -12.191; 4056.481
878.245; 2121.356;  -12.101; 3950.740
878.807; 1823.852;   -8.971; 4058.958
879.369; 1400.768;  -12.071; 3954.677
879.930; 1047.946;  -14.621; 3941.495
880.492;  935.025;  -10.311; 4067.014
881.053; 1005.702;  -10.901; 3859.633
881.615; 1100.415;  -14.411; 3776.071
882.176; 1132.474;  -13.761; 3734.750
882.738; 1126.768;   -9.181; 3678.489
883.299; 1159.199;  -11.791; 3405.407
883.860; 1214.923;  -13.121; 3351.106
884.422; 1207.683;  -11.211; 3394.044
884.983; 1161.824;  -10.091; 3166.443
885.544; 1141.380;   -8.461; 3189.802
886.105; 1102.871;  -12.361; 3160.360
886.666; 1058.454;  -14.141; 3093.059
887.227; 1036.281;  -11.361; 2941.957
887.788;  993.121;  -11.401; 2974.836
888.349;  912.044;  -13.791; 2721.214
888.910;  876.544;  -13.191; 2696.493
889.471;  848.292;   -9.881; 2560.172
890.032;  854.459;   -9.881; 2558.190
890.593;  851.700;  -10.371; 2567.669
891.153;  773.051;  -13.301; 2460.307
891.714;  672.500;  -11.431; 2372.046
892.275;  627.465;  -11.291; 2309.505
892.835;  640.015;  -11.471; 2382.543
893.396;  637.073;  -11.541; 2295.502
893.956;  615.140;  -11.181; 2162.420
894.517;  577.738;  -11.741; 2125.439
895.077;  529.050;  -11.671; 2086.978
895.638;  490.683;  -11.311; 2126.316
896.198;  479.642;   -9.831; 1838.275
896.758;  466.401;   -8.421; 1892.813
897.319;  444.830;  -12.351; 1792.232
897.879;  426.733;  -13.511; 1762.751
898.439;  396.208;  -12.001; 1661.149
898.999;  377.074;  -10.180; 1781.468
899.559;  372.130;  -12.030; 1703.347
900.119;  365.284;  -15.710; 1537.525
900.679;  350.824;   -8.900; 1638.384
901.239;  330.214;   -8.340; 1527.902
901.799;  303.493;  -13.910; 1456.441
902.359;  281.050;  -13.460; 1357.140
902.919;  272.719;  -11.490; 1331.118
903.479;  272.563;  -12.110; 1317.257
904.038;  268.449;  -11.720; 1262.595
904.598;  260.788;  -13.610; 1152.034
905.158;  250.583;  -11.040; 1240.893
905.717;  235.033;  -10.900; 1233.691
906.277;  225.050;  -15.080; 1217.330
906.836;  222.057;  -13.380; 1222.408
907.396;  219.571;  -10.780; 1193.047
907.955;  212.988;   -8.500; 1182.526
908.515;  207.375;  -12.760; 1099.364
909.074;  206.889;  -11.900; 1092.863
909.633;  206.859;   -8.950; 1069.121
910.192;  203.966;   -8.770; 1196.460
910.752;  193.540;  -12.390; 1029.960
911.311;  184.718;  -13.680; 1009.780
911.870;  175.238;  -12.370;  971.460
912.429;  169.275;  -10.900; 1094.080
912.988;  166.423;  -11.690; 1081.060
913.547;  163.599;  -13.240;  940.380
914.106;  160.306;  -11.990;  999.420
914.665;  156.027;   -9.990;  984.020
915.224;  152.274;  -12.880; 1035.760
915.782;  149.701;  -12.350;  922.560
916.341;  150.158;   -9.110; 1049.840
916.900;  148.632;   -9.270;  925.260
917.458;  147.596;  -13.240;  884.220
918.017;  146.673;  -13.550;  942.600
918.576;  145.215;  -12.320;  904.440
919.134;  144.263;  -11.490;  837.980
919.693;  143.597;  -13.670;  893.060
920.251;  142.799;  -15.470;  876.500
920.809;  142.209;  -11.290;  839.580
921.368;  141.669;  -10.210;  885.360
921.926;  139.919;  -12.140;  842.940
922.484;  137.164;  -13.080;  903.360
923.042;  136.853;  -11.720;  880.340
923.601;  136.457;   -7.480;  998.680
924.159;  135.379;  -11.570;  935.560
924.717;  132.456;  -13.840;  841.080
925.275;  132.966;  -10.640;  903.240
925.833;  131.512;  -11.540;  779.320
926.391;  132.988;  -12.960;  938.380
926.949;  133.045;  -14.130;  857.680
927.506;  132.694;  -11.750;  903.500
928.064;  132.170;  -10.250;  877.580
928.622;  132.714;  -13.030;  880.100
929.180;  134.807;  -13.400;  814.180
929.737;  136.816;  -10.700;  808.540
930.295;  140.320;  -10.070;  928.480
930.853;  139.626;  -11.960;  849.100
931.410;  139.488;  -13.120;  821.120
931.968;  141.803;  -10.770;  940.660
932.525;  142.799;  -10.680;  909.380
933.082;  142.017;  -13.130;  811.440
933.640;  142.993;  -13.210;  925.900
934.197;  142.485;  -11.060;  886.360
934.754;  142.656;   -9.580;  897.780
935.312;  143.463;  -14.000;  863.340
935.869;  145.157;  -10.710; 1012.980
936.426;  143.282;   -9.860;  872.800
936.983;  143.710;   -9.710;  889.020
937.540;  145.016;  -13.990;  838.280
938.097;  150.058;  -14.040;  940.120
938.654;  153.741;  -10.310;  898.860
939.211;  154.694;  -10.560;  952.480
939.768;  153.063;  -13.900;  915.420
940.324;  156.091;  -14.760;  904.200
940.881;  158.988;  -10.370;  878.500
941.438;  162.904;   -8.260; 1021.200
941.995;  162.775;  -12.540;  992.560
942.551;  162.285;  -14.670;  875.620
943.108;  163.424;  -10.450;  937.920
943.664;  164.007;  -10.750;  869.340
944.221;  166.848;  -11.550; 1088.140
944.777;  167.546;  -14.770;  869.680
945.334;  165.330;  -12.820;  884.840
945.890;  160.253;  -10.130;  946.480
946.446;  156.357;  -13.470;  947.020
947.003;  158.042;  -12.120;  964.940
947.559;  159.041;   -9.980; 1063.040
948.115;  155.551;   -9.080; 1026.540
948.671;  153.099;  -10.830;  967.300
949.227;  153.028;  -12.440;  859.560
949.783;  151.528;  -12.910;  858.900
950.339;  156.245;  -10.270;  991.000
950.895;  156.692;  -13.630; 1023.840
951.451;  156.609;  -15.100;  925.280
952.007;  154.062;  -11.330;  998.540
952.563;  151.681;  -10.580;  937.780
953.118;  147.749;  -13.440;  904.940
953.674;  147.852;  -12.710;  935.780
954.230;  149.795;  -10.350;  949.640
954.785;  152.456;   -9.190;  936.640
955.341;  154.935;  -11.200;  998.160
955.897;  149.951;  -16.560;  834.660
956.452;  148.432;  -12.570;  953.840
957.008;  146.049;   -7.970; 1083.640
957.563;  141.902;  -11.940; 1009.540
958.118;  137.852;  -13.450;  877.700
958.674;  135.658;  -12.030;  946.780
959.229;  136.171;   -9.410; 1013.980
959.784;  137.089;  -12.000;  832.400
960.339;  136.571;  -14.780; 1001.280
960.894;  135.228;   -9.860;  963.760
961.449;  131.636;   -9.970;  859.960
962.004;  132.062;  -10.900; 1212.840
962.559;  128.883;  -13.150;  860.140
963.114;  128.267;  -13.740;  742.480
963.669;  126.730;   -9.820;  915.500
964.224;  125.342;  -13.890;  874.340
964.779;  125.310;  -12.600;  828.420
965.334;  126.539;  -10.950; 1017.860
965.888;  124.563;  -11.170;  875.360
966.443;  124.903;  -12.540;  972.380
966.998;  122.966;  -15.780;  819.460
967.552;  121.924;   -9.760;  908.380
968.107;  118.541;   -9.060;  868.300
968.661;  118.437;  -11.950;  922.440
969.216;  116.357;  -12.800;  856.280
969.770;  115.016;  -11.210;  917.200
970.324;  114.425;  -11.610;  923.140
970.879;  114.150;  -11.370;  947.180
971.433;  117.060;  -12.540;  952.720
971.987;  115.986;  -11.320;  895.340
972.541;  114.476;  -10.720;  917.100
973.095;  113.092;   -9.680; 1009.460
973.649;  109.284;  -11.440;  809.480
974.203;  107.708;  -11.210;  829.040
974.757;  107.176;  -10.240;  855.220
975.311;  106.790;  -13.720;  872.600
975.865;  105.923;  -13.770;  881.820
976.419;  103.258;  -11.690;  857.400
976.973;  100.908;   -9.510;  849.620
977.526;   99.904;  -12.620;  949.920
978.080;   96.856;  -12.010;  796.780
978.634;   97.636;  -10.170;  921.320
979.187;   96.310;   -9.020;  905.400
979.741;   97.798;   -9.820; 1018.380
980.294;   95.043;  -14.870;  789.160
980.848;   94.242;  -12.380;  717.220
981.401;   94.688;  -10.350;  816.540
981.955;   93.018;  -13.720;  844.300
982.508;   88.883;  -11.490;  746.340
983.061;   90.584;  -10.000;  915.260
983.615;   87.755;  -11.480;  798.800
984.168;   85.756;  -13.220;  770.080
984.721;   84.965;  -13.960;  880.760
985.274;   82.803;  -10.870;  867.500
985.827;   80.967;   -9.790;  834.220
986.380;   79.251;  -13.120;  721.340
986.933;   78.883;  -12.450;  864.800
987.486;   77.557;  -10.210;  861.920
988.039;   78.534;   -8.430;  863.100
988.591;   77.799;  -10.520;  893.260
989.144;   75.421;  -14.860;  737.260
989.697;   73.948;  -13.080;  758.740
990.250;   72.813;  -10.150;  858.100
990.802;   70.669;  -13.430;  755.860
991.355;   70.553;  -12.750;  974.880
991.907;   68.688;  -12.040;  864.320
992.460;   66.824;  -11.330;  753.760
993.012;   66.493;  -13.610;  749.540
993.565;   65.051;  -13.460;  711.360
994.117;   65.300;   -9.360;  950.780
994.669;   62.238;  -11.300;  701.320
995.221;   61.045;  -13.540;  791.920
995.774;   60.848;  -13.430;  787.580
996.326;   58.774;  -12.520;  740.220
996.878;   58.384;  -10.950;  838.420
997.430;   56.021;  -14.300;  699.860
997.982;   55.088;  -13.760;  750.140
998.534;   55.425;  -11.530;  739.060
999.086;   53.465;  -10.310;  738.220
999.638;   53.381;  -12.530;  661.380
1000.190;   51.742;  -11.840;  699.320
1000.741;   50.365;  -10.260;  742.700
1001.293;   51.101;   -8.860;  686.020
1001.845;   49.989;  -13.700;  676.640
1002.396;   49.649;  -12.100;  743.400
1002.948;   48.551;  -12.760;  737.400
1003.500;   47.230;  -10.380;  723.780
1004.051;   47.979;  -11.900;  907.580
1004.603;   46.766;  -12.250;  791.820
1005.154;   44.231;  -13.210;  608.980
1005.705;   43.299;  -10.950;  723.960
1006.257;   42.335;  -13.880;  707.220
1006.808;   41.714;  -12.840;  685.460
1007.359;   41.435;  -10.570;  763.240
1007.910;   40.299;   -9.620;  646.640
1008.461;   40.183;  -13.630;  732.940
1009.013;   39.072;  -17.200;  588.340
1009.564;   40.410;  -10.200;  793.520
1010.115;   37.833;  -12.570;  597.040
1010.665;   37.032;  -15.150;  602.160
1011.216;   37.443;  -14.480;  667.920
1011.767;   37.870;  -11.340;  697.920
1012.318;   37.302;   -9.780;  736.980
1012.869;   35.889;  -12.380;  679.000
1013.419;   36.535;  -15.560;  603.120
1013.970;   36.390;  -11.010;  666.640
1014.521;   36.319;  -11.610;  620.620
1015.071;   35.439;  -13.450;  670.380
1015.622;   35.574;  -13.870;  635.460
1016.172;   35.655;  -11.610;  596.820
1016.723;   34.562;  -12.120;  614.380
1017.273;   33.916;  -13.620;  604.160
1017.823;   33.725;  -14.140;  650.340
1018.374;   33.504;  -12.800;  611.760
1018.924;   33.678;  -12.340;  716.880
1019.474;   34.623;  -11.410;  718.880
1020.024;   32.403;  -14.770;  657.580
1020.574;   33.446;   -9.780;  726.160
1021.124;   33.846;   -8.560;  673.580
1021.674;   31.592;  -15.190;  559.120
1022.224;   32.875;  -13.530;  708.940
1022.774;   33.095;  -13.280;  668.820
1023.324;   33.256;  -10.690;  753.520
1023.874;   33.190;  -10.240;  875.760
1024.423;   31.311;  -12.540;  613.700
1024.973;   31.487;  -10.010;  610.760
1025.523;   30.274;  -10.550;  620.960
1026.072;   30.251;  -13.560;  606.420
1026.622;   29.597;  -15.120;  675.740
1027.172;   30.931;  -11.260;  715.660
1027.721;   29.757;  -11.410;  601.220
1028.270;   30.455;  -13.530;  663.400
1028.820;   29.860;  -13.680;  638.080
1029.369;   29.893;  -13.520;  612.700
1029.918;   29.021;  -10.980;  649.840
1030.468;   29.203;  -13.530;  564.780
1031.017;   29.237;  -13.170;  634.800
1031.566;   28.271;  -12.200;  608.900
1032.115;   28.842;   -9.960;  694.500
1032.664;   27.939;  -13.210;  596.480
1033.213;   28.658;  -12.500;  735.420
1033.762;   28.374;  -11.910;  635.620
1034.311;   27.366;   -9.640;  677.220
1034.860;   27.414;  -13.310;  691.000
1035.408;   27.727;  -11.830;  722.720
1035.957;   27.458;  -12.000;  719.540
1036.506;   26.033;  -11.690;  530.800
1037.055;   27.820;  -10.990;  844.320
1037.603;   26.079;  -15.120;  664.000
1038.152;   25.531;  -12.450;  534.760
1038.700;   25.763;  -10.560;  585.740
1039.249;   25.592;  -11.080;  681.220
1039.797;   25.871;  -12.540;  633.360
1040.345;   26.253;  -11.920;  705.420
1040.894;   25.226;  -11.410;  625.300
1041.442;   24.989;  -14.320;  632.200
1041.990;   24.031;  -16.240;  559.160
1042.538;   24.234;  -11.680;  536.180
1043.087;   24.695;  -10.760;  570.860
1043.635;   24.893;  -11.850;  670.500
1044.183;   24.528;  -15.480;  586.400
1044.731;   24.179;  -11.770;  576.000
1045.279;   23.144;  -13.090;  674.920
1045.827;   25.491;  -12.440;  892.400
1046.374;   23.426;  -13.840;  515.420
1046.922;   22.919;  -13.220;  590.580
1047.470;   24.638;  -10.230;  691.300
1048.018;   23.241;  -14.590;  647.960
1048.565;   24.110;  -12.050;  708.600
1049.113;   22.796;  -11.650;  557.000
1049.660;   21.890;  -10.510;  629.660
1050.208;   23.003;  -13.310;  675.640
1050.755;   22.188;  -15.900;  606.580
1051.303;   22.700;  -11.430;  686.820
1051.850;   22.011;   -8.480;  635.120
1052.397;   20.117;  -15.010;  473.960
1052.945;   21.449;  -13.960;  617.760
1053.492;   22.721;  -13.150;  741.840
1054.039;   22.743;   -9.630;  720.180
1054.586;   20.755;  -13.680;  557.240
1055.133;   21.569;  -14.570;  693.140
1055.680;   21.789;  -13.820;  646.620
1056.227;   20.347;  -11.730;  542.780
1056.774;   21.733;  -12.480;  794.980
1057.321;   20.372;  -13.930;  523.260
1057.868;   20.870;  -11.690;  651.320
1058.415;   20.370;   -9.520;  651.980
1058.961;   20.952;  -13.160;  678.940
1059.508;   20.342;  -12.920;  643.820
1060.055;   20.290;  -11.920;  581.780
1060.601;   20.004;  -11.500;  624.300
1061.148;   19.339;  -14.330;  616.820
1061.694;   19.142;  -16.870;  592.580
1062.241;   19.806;  -10.330;  596.320
1062.787;   19.239;  -10.620;  663.140
1063.334;   20.451;  -10.110;  808.560
1063.880;   19.407;  -13.400;  668.360
1064.426;   19.290;  -10.680;  706.820
1064.972;   18.306;   -9.920;  601.340
1065.518;   16.785;  -10.980;  566.640
1066.065;   19.135;  -14.890;  624.460
1066.611;   17.489;  -12.870;  598.800
1067.157;   18.721;  -12.950;  641.860
1067.703;   18.327;  -13.540;  668.480
1068.249;   17.769;  -13.540;  605.220
1068.794;   18.285;  -12.600;  626.880
1069.340;   16.124;  -10.620;  578.960
1069.886;   16.956;  -12.830;  590.700
1070.432;   16.410;  -14.870;  541.720
1070.977;   16.757;  -11.980;  601.080
1071.523;   16.203;   -8.200;  573.060
1072.068;   16.431;  -12.330;  582.000
1072.614;   17.431;  -16.370;  527.760
1073.160;   17.090;  -11.100;  687.040
1073.705;   15.663;  -10.480;  572.520
1074.250;   15.335;  -14.520;  559.900
1074.796;   16.459;  -11.460;  655.160
1075.341;   16.556;  -11.950;  664.100
1075.886;   15.830;  -11.460;  594.240
1076.431;   15.138;  -13.770;  649.880
1076.976;   15.660;  -12.680;  639.220
1077.521;   15.183;  -13.170;  583.080
1078.067;   14.182;  -10.860;  579.400
1078.612;   15.750;  -13.920;  661.620
1079.156;   15.193;  -13.880;  601.540
1079.701;   15.627;  -13.120;  693.260
1080.246;   15.535;   -9.940;  696.300
1080.791;   14.623;  -14.740;  625.020
1081.336;   14.602;  -13.750;  659.320
1081.880;   13.936;  -13.400;  649.680
1082.425;   14.130;  -12.220;  573.480
1082.970;   15.072;  -11.610;  717.040
1083.514;   14.332;  -13.580;  597.000
1084.059;   13.298;  -12.810;  586.720
1084.603;   13.489;  -12.320;  565.840
1085.147;   13.602;  -13.190;  645.220
1085.692;   14.955;  -12.480;  716.800
1086.236;   13.329;  -13.020;  503.140
1086.780;   14.244;   -9.190;  751.440
1087.325;   13.560;  -12.480;  654.620
1087.869;   13.218;  -12.450;  610.700
1088.413;   14.096;  -12.240;  705.040
1088.957;   11.909;   -9.020;  543.400
1089.501;   13.238;  -10.320;  766.640
1090.045;   13.341;  -12.720;  726.480
1090.589;   11.337;  -13.690;  569.920
1091.133;   12.537;  -10.020;  673.340
1091.676;   12.548;  -12.330;  591.940
1092.220;   12.264;  -14.970;  600.920
1092.764;   13.333;  -12.430;  706.960
1093.307;   12.314;   -9.800;  673.780
1093.851;   10.844;  -14.970;  556.540
1094.395;   11.762;  -15.310;  683.140
1094.938;   11.471;  -10.370;  632.520
1095.482;   11.421;  -11.050;  559.800
1096.025;   12.427;  -11.840;  710.880
1096.568;   12.582;  -12.840;  779.280
1097.112;   10.513;  -14.700;  508.180
1097.655;   11.726;   -8.720;  603.000
1098.198;   10.583;  -13.610;  600.180
1098.741;   10.167;  -13.350;  612.860
1099.285;   11.148;  -11.230;  657.300
1099.828;    9.012;  -11.840;  439.400
1100.371;   10.199;  -10.840;  608.160
1100.914;   11.138;  -14.190;  682.660
1101.457;    9.935;  -11.240;  679.900
1101.999;    9.200;  -11.270;  584.680
1102.542;   10.059;  -11.480;  641.440
1103.085;   10.098;  -11.750;  658.500
1103.628;   10.588;  -11.400;  762.060
1104.170;    9.228;  -10.490;  588.280
1104.713;    9.867;  -10.600;  646.700
1105.256;    8.829;  -14.360;  557.440
1105.798;    8.095;  -13.210;  499.980
1106.341;   10.284;  -10.270;  728.900
1106.883;    8.932;  -12.200;  521.340
1107.425;    8.448;  -13.110;  668.180
1107.968;    8.670;  -12.840;  612.380
1108.510;    9.624;   -6.480;  684.960
1109.052;    7.085;  -13.940;  612.620
1109.594;    8.212;  -13.690;  554.440
1110.136;    8.846;  -11.880;  643.220
1110.679;    8.105;   -9.500;  633.080
1111.221;    8.683;  -14.160;  604.460
1111.763;    7.374;  -13.980;  559.220
1112.304;    7.531;  -13.880;  547.140
1112.846;    8.267;  -12.210;  666.240
1113.388;    9.810;  -11.390;  942.180
1113.930;    7.984;  -14.540;  694.200
1114.472;    7.580;  -12.640;  606.540
1115.013;    5.520;  -11.620;  551.280
1115.555;    6.541;  -13.640;  587.100
1116.097;    6.298;  -15.380;  579.480
1116.638;    8.220;  -12.640;  684.600
1117.180;    8.052;   -9.850;  667.740
1117.721;    7.182;  -13.690;  568.580
1118.262;    7.070;  -12.680;  677.960
1118.804;    8.118;  -12.530;  637.340
1119.345;    6.348;  -11.690;  578.400
1119.886;    6.843;  -13.380;  704.040
1120.427;    6.341;  -14.070;  589.020
1120.969;    5.332;  -13.500;  597.920
1121.510;    5.227;  -11.480;  563.060
1122.051;    6.539;  -12.830;  723.580
1122.592;    5.839;  -14.290;  655.420
1123.133;    5.016;  -12.400;  547.940
1123.673;    6.803;  -10.130;  706.480
1124.214;    5.975;  -12.930;  612.460
1124.755;    5.689;  -14.380;  639.460
1125.296;    5.875;  -14.000;  627.320
1125.836;    6.398;  -10.070;  691.500
1126.377;    5.056;  -12.640;  599.660
1126.918;    5.523;  -12.960;  614.980
1127.458;    5.382;  -13.350;  622.220
1127.999;    5.381;  -10.750;  656.980
1128.539;    5.533;  -12.350;  694.240
1129.079;    4.806;  -14.860;  632.720
1129.620;    4.161;  -13.840;  558.100
1130.160;    4.181;  -12.330;  539.480
1130.700;    4.363;  -14.530;  640.840
1131.240;    5.065;  -12.530;  643.700
1131.781;    4.690;  -14.450;  619.680
1132.321;    4.568;   -9.790;  599.120
1132.861;    3.497;  -14.860;  564.200
1133.401;    3.403;  -14.290;  593.940
1133.941;    3.777;  -11.750;  626.280
1134.481;    3.412;   -9.920;  597.580
1135.020;    4.010;  -12.290;  609.160
1135.560;    4.375;  -11.650;  674.940
1136.100;    3.401;  -16.270;  501.160
1136.640;    2.786;  -10.890;  510.480
1137.179;    2.809;  -14.180;  537.960
1137.719;    2.774;  -16.250;  605.400
1138.258;    3.228;  -14.230;  587.360
1138.798;    3.575;   -9.090;  663.780
1139.337;    1.513;  -15.130;  482.840
1139.877;    3.136;  -13.680;  642.360
1140.416;    5.105;  -11.320;  878.060
1140.955;    2.471;  -10.860;  535.380
1141.494;    2.649;  -12.920;  669.280
1142.034;    2.633;  -13.930;  583.520
1142.573;    3.782;  -11.440;  646.280
1143.112;    2.123;  -12.000;  553.480
1143.651;    2.228;  -13.670;  536.480
1144.190;    3.218;  -12.730;  691.640
1144.729;    2.349;  -14.560;  607.420
1145.267;    1.264;  -11.830;  584.900
1145.806;    2.574;  -12.230;  637.040
1146.345;    1.648;  -14.130;  635.020
1146.884;    1.944;  -11.590;  622.500
1147.422;    1.733;  -12.550;  533.060
1147.961;    2.654;  -11.180;  708.460
1148.500;    2.957;  -11.510;  669.720
1149.038;    2.641;  -11.640;  632.500
1149.577;    2.040;  -10.130;  698.640
1150.115;   -0.121;  -13.970;  452.280
1150.653;    1.507;  -14.520;  607.340
1151.192;    1.830;  -12.810;  552.920
1151.730;    1.595;   -9.100;  652.560
1152.268;    0.689;  -12.220;  589.520
1152.806;    0.441;  -14.140;  571.180
1153.344;    0.074;  -12.350;  577.640
1153.882;    1.091;   -8.980;  600.060
1154.421;   -0.234;  -15.190;  470.620
1154.958;    0.521;  -15.210;  595.240
1155.496;    2.056;  -12.850;  645.280
1156.034;    0.945;   -9.940;  721.880
1156.572;    1.991;  -13.570;  667.060
1157.110;   -0.025;  -14.590;  473.940
1157.647;    0.779;  -13.030;  676.960
1158.185;    0.298;  -12.140;  564.320
1158.723;   -0.531;  -14.390;  509.200
1159.260;    0.164;  -14.090;  701.700
1159.798;    0.971;  -11.920;  658.160
1160.335;    0.440;  -11.110;  631.820

