
Integration time [ms]:   3.276
Averaging Nr. [scans]: 1000
Smoothing Nr. [pixels]: 0
Data measured with spectrometer [name]: 7414430SP
Wave   ;Sample   ;Dark     ;Reference
[nm]   ;[counts] ;[counts] ;[counts] 

288.544;  159.852;    7.793;  793.890
289.143;  163.559;    7.462;  681.602
289.742;  164.162;    8.602;  828.814
290.341;  149.702;    1.321;  789.841
290.940;  139.664;   -0.709;  730.702
291.538;  143.265;    0.881;  881.108
292.137;  142.067;    0.122;  792.581
292.736;  144.041;   -1.929;  975.101
293.335;  139.862;   -8.229;  735.086
293.934;  141.711;   -5.279;  781.677
294.532;  142.135;   -1.369; 1031.958
295.131;  129.283;   -7.641;  834.394
295.730;  129.831;   -8.420;  809.588
296.328;  126.106;   -5.611;  783.442
296.927;  125.374;   -5.781;  779.652
297.525;  125.906;   -6.361;  781.236
298.124;  118.955;  -11.382;  654.009
298.722;  122.502;   -7.641;  761.933
299.321;  118.969;   -6.811;  708.597
299.919;  115.142;   -6.991;  751.918
300.518;  112.104;  -10.362;  689.338
301.116;  115.516;   -9.581;  691.381
301.715;  116.774;   -4.891;  730.222
302.313;  113.869;   -8.801;  704.943
302.911;  109.383;   -8.522;  733.830
303.509;  113.883;   -6.171;  925.627
304.108;  112.488;   -7.311;  760.383
304.706;  111.578;   -8.321;  801.664
305.304;  105.799;  -10.222;  796.707
305.902;  109.637;   -6.021;  784.484
306.500;  105.754;   -4.971;  728.200
307.098;  104.905;   -7.061;  746.560
307.696;  103.459;   -8.801;  780.432
308.294;  104.221;   -6.411;  731.359
308.892;  105.247;   -2.901;  759.769
309.490;  101.517;   -5.041;  712.161
310.088;  100.176;   -5.002;  788.444
310.686;  103.473;   -2.041;  821.749
311.284;   99.916;   -2.351;  766.040
311.882;   97.475;   -4.422;  731.225
312.480;   93.276;   -4.192;  697.167
313.078;   95.099;   -1.172;  808.331
313.675;   95.250;   -2.601;  691.600
314.273;   91.148;   -1.312;  797.837
314.871;   90.299;   -3.942;  589.829
315.468;   87.821;   -2.802;  652.090
316.066;   91.224;   -0.701;  694.427
316.664;   84.134;   -4.362;  656.351
317.261;   88.322;   -2.872;  910.128
317.859;   83.218;   -2.022;  768.735
318.456;   84.078;   -0.531;  830.096
319.054;   79.993;   -3.912;  787.828
319.651;   78.371;   -4.752;  759.928
320.249;   77.723;   -2.602;  810.188
320.846;   75.112;   -0.821;  714.286
321.443;   72.080;   -4.642;  832.135
322.041;   69.220;   -5.002;  812.315
322.638;   67.225;   -3.982;  701.456
323.235;   67.060;   -3.411;  665.683
323.833;   65.227;   -7.361;  740.354
324.430;   59.756;   -8.611;  615.900
325.027;   61.117;   -4.061;  876.855
325.624;   60.928;   -4.031;  644.532
326.221;   57.318;   -7.481;  689.717
326.818;   57.305;   -5.281;  818.332
327.415;   60.018;   -7.460;  748.828
328.012;   59.430;   -5.510;  690.585
328.609;   57.510;   -7.880;  731.389
329.206;   56.274;   -8.331;  778.621
329.803;   56.887;   -5.121;  737.841
330.400;   58.473;   -4.510;  704.260
330.997;   60.101;   -6.441;  817.147
331.594;   57.286;   -8.831;  788.185
332.191;   63.419;   -7.621;  728.722
332.787;   66.612;   -4.591;  844.463
333.384;   66.048;   -7.412;  763.093
333.981;   64.147;   -8.293;  815.687
334.578;   67.016;   -7.052;  708.378
335.174;   70.240;   -3.102;  731.469
335.771;   69.756;   -5.943;  836.456
336.367;   66.735;   -7.393;  710.631
336.964;   71.554;   -4.063;  793.266
337.561;   70.280;   -3.813;  731.112
338.157;   65.060;   -4.654;  911.916
338.754;   63.268;   -7.934;  796.589
339.350;   62.795;   -4.414;  722.493
339.946;   63.191;   -4.664;  773.135
340.543;   54.543;   -6.375;  846.136
341.139;   48.518;   -9.815;  720.836
341.735;   47.500;   -4.526;  772.593
342.332;   46.748;   -4.895;  691.472
342.928;   46.125;   -4.295;  795.394
343.524;   38.168;   -5.476;  761.684
344.120;   36.355;   -5.856;  738.562
344.716;   38.613;   -2.155;  723.717
345.313;   35.059;   -6.275;  795.342
345.909;   30.006;   -8.815;  627.336
346.505;   32.556;   -5.305;  740.247
347.101;   32.010;   -2.674;  827.864
347.697;   32.480;   -4.344;  785.398
348.293;   27.092;   -9.975;  627.244
348.889;   28.531;   -5.774;  745.914
349.485;   27.319;   -5.004;  688.205
350.081;   27.693;   -4.704;  772.592
350.676;   22.873;   -6.635;  691.606
351.272;   27.985;   -4.504;  809.530
351.868;   27.215;   -3.914;  780.497
352.464;   23.957;   -9.044;  723.932
353.059;   20.301;   -8.314;  646.017
353.655;   24.586;   -7.024;  777.063
354.251;   24.551;   -5.343;  759.845
354.846;   18.285;   -8.604;  740.646
355.442;   17.048;   -6.945;  753.071
356.038;   19.161;   -7.564;  751.708
356.633;   18.671;   -5.814;  728.594
357.229;   15.974;   -7.364;  724.757
357.824;   15.127;   -8.024;  703.600
358.420;   14.640;   -9.384;  679.726
359.015;   15.460;   -5.104;  695.357
359.610;   15.405;   -6.854;  763.920
360.206;    9.646;  -10.185;  603.240
360.801;   12.778;   -7.054;  646.503
361.396;   14.429;   -5.034;  725.975
361.992;    8.967;   -8.284;  668.220
362.587;    6.825;   -8.625;  670.160
363.182;    9.901;   -7.674;  689.631
363.777;    9.246;   -5.164;  738.242
364.372;   10.053;   -8.604;  737.314
364.967;    5.238;   -9.055;  680.744
365.563;   10.253;   -6.114;  815.567
366.158;    6.929;   -5.814;  685.161
366.753;    7.108;   -7.854;  649.263
367.348;    5.520;   -7.804;  746.056
367.942;    5.974;   -7.954;  697.298
368.537;    4.481;   -4.984;  754.245
369.132;    4.394;   -8.564;  703.428
369.727;    1.018;   -8.855;  638.079
370.322;    2.107;   -6.245;  580.186
370.917;    1.474;   -6.425;  710.646
371.511;    4.178;   -6.294;  861.834
372.106;    0.602;   -7.685;  776.964
372.701;   -2.805;   -7.335;  585.988
373.296;    2.756;   -4.564;  863.135
373.890;   -2.094;  -10.235;  647.840
374.485;   -3.850;   -7.885;  691.199
375.079;    0.047;   -7.324;  738.685
375.674;    1.827;   -3.494;  812.970
376.268;   -3.317;   -8.525;  691.759
376.863;   -8.923;  -10.086;  580.327
377.457;   -1.586;   -7.025;  662.490
378.052;   -4.510;   -3.585;  764.884
378.646;   -5.510;   -7.595;  741.167
379.240;   -5.548;   -8.335;  721.176
379.835;   -4.231;   -5.785;  636.978
380.429;   -6.936;   -4.335;  562.557
381.023;   -7.503;   -6.805;  779.205
381.617;   -9.603;   -9.195;  680.106
382.212;   -5.923;   -6.905;  685.303
382.806;   -5.438;   -3.745;  760.690
383.400;   -9.452;   -7.745;  672.281
383.994;  -10.347;   -9.765;  664.870
384.588;   -6.555;   -6.564;  697.701
385.182;   -5.566;   -5.344;  726.624
385.776;   -7.887;   -8.514;  706.875
386.370;  -10.257;   -9.555;  681.968
386.964;   -8.960;   -8.715;  684.155
387.558;   -7.405;   -6.174;  598.360
388.152;  -10.315;   -8.725;  681.959
388.745;   -9.789;   -7.965;  814.707
389.339;   -7.084;   -5.924;  747.642
389.933;   -6.517;   -5.524;  695.370
390.527;   -7.910;   -7.114;  859.029
391.120;  -13.983;  -10.725;  595.318
391.714;  -10.626;   -8.035;  711.633
392.308;   -8.129;   -3.574;  780.253
392.901;  -11.778;   -7.245;  642.460
393.495;  -13.141;   -9.285;  595.414
394.089;  -10.914;   -5.895;  760.452
394.682;  -11.734;   -4.295;  697.188
395.275;  -12.560;   -9.875;  719.927
395.869;  -14.033;   -8.485;  667.314
396.462;  -12.142;   -7.455;  616.609
397.056;   -8.526;   -5.424;  776.621
397.649;  -12.775;   -6.605;  731.575
398.242;  -11.055;   -8.224;  712.645
398.836;   -9.580;   -7.474;  766.408
399.429;  -10.526;   -7.094;  631.041
400.022;  -14.349;   -9.475;  665.902
400.615;  -11.667;   -7.145;  805.609
401.208;   -9.327;   -7.174;  691.451
401.802;  -12.086;   -5.515;  699.329
402.395;  -13.477;   -9.875;  683.502
402.988;  -13.890;   -8.845;  696.627
403.581;  -10.566;   -8.874;  646.878
404.174;   -9.176;   -5.324;  686.568
404.767;  -11.541;   -9.575;  638.583
405.360;  -13.762;  -10.965;  621.445
405.953;   -8.342;   -8.764;  759.034
406.545;   -8.123;   -7.514;  725.342
407.138;  -12.566;  -10.025;  618.350
407.731;  -11.664;  -10.034;  613.303
408.324;   -7.134;   -9.374;  660.554
408.917;   -7.963;   -6.534;  681.864
409.509;   -9.911;   -8.004;  740.396
410.102;  -12.389;   -9.875;  643.948
410.695;   -5.737;   -8.604;  665.758
411.287;   -7.232;   -6.794;  599.821
411.880;   -8.085;   -9.334;  585.421
412.472;  -11.211;  -10.254;  613.092
413.065;   -8.050;   -6.714;  629.408
413.657;   -6.604;   -7.234;  576.678
414.250;   -6.590;  -10.544;  646.681
414.842;   -8.995;   -9.744;  676.353
415.434;   -5.828;   -6.994;  570.463
416.027;   -1.957;   -5.893;  652.196
416.619;   -3.944;   -7.264;  713.400
417.211;   -4.297;  -10.374;  599.352
417.804;   -0.907;   -7.993;  628.499
418.396;   -5.128;   -7.234;  607.643
418.988;   -2.917;   -9.443;  659.238
419.580;   -6.117;  -10.724;  568.276
420.172;   -3.890;  -10.323;  536.196
420.764;    0.477;   -8.793;  672.482
421.356;   -1.262;  -11.143;  636.898
421.948;   -1.595;   -8.293;  677.661
422.540;    3.760;   -7.893;  680.027
423.132;    2.605;   -7.082;  600.641
423.724;   -0.538;   -8.653;  561.267
424.316;    1.161;  -10.213;  621.345
424.908;    4.691;   -9.762;  591.517
425.500;    5.874;   -5.572;  647.978
426.092;    5.212;   -8.422;  648.268
426.683;    4.093;   -9.283;  684.836
427.275;    7.062;   -7.852;  641.471
427.867;    9.325;   -5.272;  668.948
428.458;    9.457;   -7.682;  732.344
429.050;    8.167;  -10.612;  680.749
429.642;   10.632;   -9.882;  743.124
430.233;   11.354;   -6.962;  569.356
430.825;   11.854;   -6.842;  724.809
431.416;    9.617;   -9.672;  698.241
432.008;   13.723;   -6.552;  651.723
432.599;   13.966;   -6.891;  656.073
433.190;   10.623;  -10.912;  637.670
433.782;    9.642;  -11.172;  590.395
434.373;   17.741;   -6.061;  884.765
434.964;   15.875;   -8.251;  602.920
435.556;   13.012;   -9.722;  634.537
436.147;   16.208;   -9.082;  758.490
436.738;   16.645;   -8.041;  701.099
437.329;   21.796;   -7.341;  721.723
437.920;   14.758;   -8.162;  666.688
438.511;   14.841;  -11.802;  564.526
439.103;   22.193;  -10.191;  623.998
439.694;   23.284;   -7.601;  681.583
440.285;   23.662;   -8.541;  764.432
440.876;   21.257;   -9.751;  845.738
441.466;   21.779;   -9.401;  575.162
442.057;   26.936;   -7.760;  665.814
442.648;   25.278;   -9.971;  746.255
443.239;   24.096;  -11.001;  620.477
443.830;   29.329;   -7.990;  704.958
444.421;   30.615;   -7.910;  655.474
445.011;   26.810;   -8.131;  693.619
445.602;   26.767;   -7.111;  743.126
446.193;   28.901;  -10.920;  488.117
446.783;   33.019;   -6.500;  640.397
447.374;   28.309;   -8.671;  692.759
447.964;   28.859;  -10.781;  713.770
448.555;   37.288;   -9.650;  822.742
449.145;   33.991;   -8.660;  662.853
449.736;   35.074;   -8.990;  803.179
450.326;   35.066;   -9.500;  713.626
450.917;   39.919;   -8.680;  675.324
451.507;   38.833;   -7.520;  600.661
452.097;   39.309;   -8.590;  746.267
452.688;   40.758;  -11.340;  742.160
453.278;   40.846;  -10.100;  566.840
453.868;   45.801;   -6.019;  793.550
454.458;   42.255;   -9.440;  651.141
455.048;   42.400;  -10.560;  711.783
455.639;   44.693;  -11.799;  567.096
456.229;   48.401;   -6.899;  710.694
456.819;   50.053;   -7.389;  751.158
457.409;   50.270;  -11.119;  773.993
457.999;   53.821;   -9.289;  737.505
458.589;   52.698;   -6.139;  686.606
459.179;   52.511;   -8.729;  717.658
459.769;   50.450;   -9.789;  627.099
460.358;   56.091;  -10.259;  797.262
460.948;   55.003;   -7.299;  689.503
461.538;   56.219;  -10.289;  660.677
462.128;   54.456;  -11.269;  664.934
462.717;   62.279;   -9.368;  710.326
463.307;   65.704;   -7.908;  705.846
463.897;   60.819;   -9.599;  656.942
464.486;   60.614;   -9.769;  837.128
465.076;   65.271;   -8.048;  733.776
465.666;   68.247;   -9.358;  652.900
466.255;   65.026;   -7.919;  785.651
466.845;   63.638;  -11.689;  666.749
467.434;   68.283;   -7.818;  725.873
468.023;   68.997;   -7.678;  658.357
468.613;   66.517;  -10.939;  713.946
469.202;   70.213;  -10.118;  646.507
469.791;   75.452;   -9.108;  737.811
470.381;   76.816;   -6.058;  742.813
470.970;   76.101;  -10.428;  711.099
471.559;   77.149;  -10.268;  733.291
472.148;   79.998;   -8.448;  675.737
472.738;   82.090;   -6.917;  765.466
473.327;   81.561;  -11.978;  637.529
473.916;   81.111;  -11.888;  737.446
474.505;   86.284;   -9.437;  751.703
475.094;   88.322;   -6.747;  806.570
475.683;   88.161;   -9.367;  797.699
476.272;   88.384;  -12.637;  730.632
476.861;   91.884;  -10.027;  706.754
477.449;   97.640;   -8.716;  728.487
478.038;   91.603;   -9.577;  692.513
478.627;   93.159;   -9.718;  714.852
479.216;  100.432;   -8.947;  769.441
479.805;  103.015;   -6.256;  783.375
480.393;  102.639;   -7.937; 1008.945
480.982;  102.354;   -7.717;  874.501
481.571;  108.546;   -9.266;  858.333
482.159;  108.582;   -7.636;  705.386
482.748;  108.319;   -9.667;  821.385
483.336;  113.479;  -10.376;  858.209
483.925;  114.324;   -7.147;  774.373
484.513;  121.287;   -7.996;  758.962
485.102;  118.292;  -10.027;  810.965
485.690;  126.669;  -10.446; 1011.050
486.278;  128.227;   -8.446;  979.329
486.867;  128.998;   -6.356;  809.662
487.455;  130.923;   -9.136;  898.229
488.043;  132.892;  -10.646;  748.361
488.631;  141.972;   -7.456; 1005.079
489.220;  146.466;   -6.636;  908.626
489.808;  146.018;  -11.036;  741.415
490.396;  154.591;  -10.246;  914.645
490.984;  160.729;   -8.556;  830.161
491.572;  172.827;   -5.886;  940.315
492.160;  179.040;   -9.486;  919.081
492.748;  190.897;  -10.976;  884.341
493.336;  214.824;   -8.776; 1019.693
493.924;  239.961;   -5.465;  958.077
494.512;  271.913;   -9.986; 1066.638
495.100;  315.258;  -10.636; 1103.280
495.687;  371.863;  -10.885; 1206.373
496.275;  438.265;   -8.126; 1150.796
496.863;  524.813;  -10.586; 1281.171
497.451;  630.962;  -11.926; 1386.805
498.038;  746.400;  -10.885; 1556.729
498.626;  877.348;   -6.315; 1741.407
499.214; 1029.767;   -7.326; 2016.609
499.801; 1211.415;  -11.906; 2220.633
500.389; 1410.306;  -10.466; 2312.494
500.976; 1658.212;   -5.236; 2744.849
501.564; 2053.291;   -8.936; 3148.565
502.151; 2630.468;  -13.176; 3515.999
502.738; 3213.570;  -10.646; 3971.274
503.326; 3671.903;   -9.525; 4403.796
503.913; 3955.621;  -10.856; 5161.749
504.500; 4397.791;  -11.586; 5986.420
505.088; 5017.987;  -10.336; 6381.201
505.675; 5241.420;   -6.355; 6925.547
506.262; 5669.129;   -9.046; 7619.060
506.849; 6149.162;  -10.416; 8733.969
507.436; 6412.718;  -10.305; 9790.121
508.023; 7177.527;   -5.496; 9985.472
508.610; 7951.395;   -7.856;10434.618
509.197; 9379.389;  -10.097;11198.435
509.784;10817.691;  -10.886;12391.194
510.371;11773.307;   -9.315;13603.713
510.958;12459.087;   -9.936;14426.586
511.545;12457.611;   -9.326;15243.775
512.132;13062.254;  -10.075;15945.876
512.719;14587.447;   -7.796;16340.369
513.305;17050.742;  -10.606;18011.766
513.892;17912.521;  -11.486;19754.971
514.479;18831.473;   -9.126;20967.805
515.066;19652.416;   -6.026;22299.793
515.652;19494.459;   -8.466;22908.660
516.239;20298.695;  -10.886;23798.875
516.825;22145.912;  -11.496;25567.275
517.412;23569.598;   -5.796;28154.959
517.998;23764.203;  -10.506;28344.111
518.585;23475.844;  -10.076;27134.219
519.171;23760.076;   -8.315;27268.576
519.758;24759.895;   -8.596;28964.129
520.344;25911.234;   -8.466;30664.494
520.930;28000.889;  -11.006;32550.605
521.516;29149.375;  -10.495;35422.895
522.103;30107.689;   -5.526;38280.004
522.689;31722.117;   -8.746;37835.117
523.275;32572.949;  -11.376;37288.613
523.861;33473.680;  -11.156;37281.395
524.447;34064.055;   -8.135;37846.949
525.033;34505.648;   -7.896;38321.949
525.619;37048.539;  -12.476;38579.285
526.205;37803.914;   -9.516;40622.875
526.791;37055.738;   -6.926;42258.836
527.377;37784.461;   -8.346;42966.902
527.963;39240.176;   -8.717;42018.949
528.549;39155.965;  -11.016;42476.828
529.135;38629.531;   -8.536;41854.852
529.721;37701.477;   -9.666;41237.711
530.306;37211.371;  -10.066;41259.445
530.892;35942.066;  -11.356;41506.047
531.478;37212.734;   -6.596;43559.613
532.063;39648.859;   -8.836;47695.563
532.649;41451.645;  -10.047;50808.324
533.235;42530.785;   -9.746;51787.500
533.820;44382.047;   -6.566;52145.035
534.406;46297.625;  -10.817;51133.488
534.991;47961.859;   -9.416;49996.805
535.576;43312.645;   -9.036;48882.852
536.162;42157.902;   -6.156;46942.285
536.747;43335.656;  -11.607;45711.746
537.333;44987.434;  -11.787;48510.180
537.918;45492.918;  -12.437;50439.891
538.503;44635.941;   -7.196;50863.711
539.088;45834.402;  -10.556;50906.922
539.673;46923.000;   -8.767;52621.965
540.259;45043.391;  -10.026;52368.094
540.844;43870.695;   -7.416;50879.109
541.429;45227.633;   -9.467;52077.777
542.014;47009.309;   -9.527;52716.695
542.599;48447.344;   -9.946;52363.281
543.184;46869.078;   -7.927;53187.137
543.769;45534.344;   -9.297;54697.605
544.354;43456.387;  -10.127;53913.914
544.938;42246.375;   -9.267;49680.164
545.523;43556.902;   -6.506;47386.277
546.108;45720.938;   -9.787;49151.949
546.693;46073.625;  -11.587;51384.637
547.278;45342.434;  -10.986;51853.254
547.862;43103.586;   -8.206;51173.750
548.447;42895.277;  -10.067;51691.395
549.031;46636.086;   -9.637;52456.703
549.616;47883.305;   -9.926;52714.516
550.201;46382.039;   -6.347;52414.598
550.785;44743.133;   -7.917;52355.059
551.370;39793.930;  -10.867;54589.453
551.954;42512.070;   -9.047;58267.348
552.538;46076.398;   -7.827;59062.176
553.123;45711.031;  -10.287;58115.285
553.707;44616.531;  -12.178;56556.285
554.291;45402.699;   -8.717;56201.668
554.876;45695.430;   -7.457;55335.762
555.460;45348.273;  -10.387;54155.703
556.044;44854.660;   -9.618;53721.484
556.628;43930.480;  -11.567;53731.016
557.212;45940.359;   -8.097;54312.531
557.796;45382.055;  -11.077;53797.773
558.380;43271.934;  -11.108;56145.984
558.964;40552.027;   -9.057;57277.930
559.548;39312.738;   -6.977;56459.641
560.132;39996.984;  -11.457;54434.543
560.716;40500.438;  -11.378;54800.617
561.300;41214.680;   -9.577;57606.945
561.884;42616.285;   -7.127;58972.445
562.467;45231.363;   -7.118;57327.570
563.051;44105.488;  -13.358;54962.434
563.635;43660.801;  -10.178;52594.473
564.219;44153.383;   -7.837;50610.410
564.802;43354.344;  -11.398;49551.180
565.386;42459.109;  -12.788;48370.953
565.969;41170.645;   -9.077;48178.871
566.553;41910.797;   -6.207;49957.305
567.136;42562.109;   -8.568;50369.594
567.720;42701.703;  -11.868;49492.004
568.303;42487.934;   -8.268;50616.352
568.887;40663.574;   -8.698;50727.148
569.470;40252.660;   -6.808;51698.379
570.053;37926.328;  -13.188;52122.078
570.637;35826.238;  -12.037;52536.438
571.220;35524.586;   -8.577;51186.098
571.803;35989.008;   -8.498;51032.762
572.386;34484.203;  -10.498;49609.887
572.969;33643.918;   -9.388;48285.926
573.552;33882.434;   -8.338;47624.285
574.135;35721.453;   -8.518;45498.641
574.718;37018.480;  -13.628;41970.434
575.301;34733.965;  -10.893;41447.137
575.884;32449.447;   -8.158;40923.836
576.467;35465.223;  -10.328;45267.723
577.050;35947.406;  -13.058;48175.543
577.633;36388.391;   -9.458;47729.328
578.216;35547.152;   -8.928;47579.793
578.799;33816.266;   -9.358;47820.996
579.381;33238.457;  -11.388;48115.551
579.964;32655.920;  -11.718;47333.766
580.547;34079.715;   -8.588;46668.969
581.129;35003.074;   -8.859;44466.141
581.712;33334.918;  -10.729;44164.922
582.294;33648.934;  -11.118;46477.855
582.877;34243.188;   -5.218;48244.254
583.459;34681.879;   -8.679;47437.895
584.042;34036.477;  -10.709;46943.219
584.624;33792.398;  -11.669;46792.227
585.206;37081.996;   -8.218;46557.250
585.789;36305.945;  -10.569;45793.773
586.371;34919.039;  -11.859;43836.391
586.953;32202.322;  -10.719;42972.492
587.536;30516.293;   -7.198;42487.211
588.118;32434.438;   -8.720;42086.414
588.700;33765.188;  -10.439;43389.930
589.282;32903.930;   -9.198;43646.039
589.864;32360.486;   -9.199;43438.109
590.446;31660.158;  -11.319;43151.926
591.028;32540.053;  -11.159;42781.867
591.610;32625.088;  -11.779;42839.098
592.192;29374.875;   -7.668;42820.402
592.774;28271.342;  -11.949;40724.277
593.356;27510.633;  -12.129;39874.789
593.937;27238.166;  -10.669;39980.648
594.519;26258.385;   -6.509;42069.633
595.101;27375.785;  -10.849;42976.031
595.683;30002.953;  -11.679;44084.441
596.264;30926.008;   -9.049;43478.797
596.846;33647.875;   -8.849;43803.672
597.427;36111.629;   -9.570;42986.934
598.009;34026.555;  -12.620;42832.219
598.591;31092.961;  -10.039;42580.086
599.172;30347.492;  -10.369;43061.805
599.753;31615.996;   -9.140;41691.469
600.335;31957.943;  -11.430;40692.520
600.916;30710.848;   -9.939;39982.422
601.498;32503.617;   -8.479;40318.617
602.079;32523.580;  -10.920;40670.609
602.660;31949.658;  -11.480;41450.898
603.241;32176.500;  -11.699;41137.738
603.823;32500.918;   -9.579;38868.797
604.404;31560.926;  -10.620;38182.785
604.985;30504.119;  -10.450;38078.047
605.566;30156.203;   -9.129;38056.633
606.147;31558.213;   -7.510;37020.418
606.728;31440.582;  -10.660;37883.359
607.309;30865.994;  -11.740;38748.273
607.890;29847.053;   -9.759;38850.230
608.471;28389.061;   -8.250;37457.918
609.051;29408.916;   -9.240;36066.457
609.632;29613.379;  -12.120;35991.074
610.213;28656.752;   -9.110;37402.641
610.794;29405.332;   -8.030;38383.363
611.374;29999.430;   -8.110;40562.387
611.955;30722.063;  -13.560;38533.727
612.536;30334.396;  -11.400;36951.789
613.116;31208.199;   -8.070;37197.891
613.697;30943.951;  -10.830;38411.125
614.277;29185.244;  -11.641;38673.938
614.858;28188.461;  -13.310;37075.863
615.438;28600.891;   -7.460;35092.906
616.019;28566.211;   -7.601;33666.301
616.599;28677.572;  -12.020;34189.023
617.179;28865.225;  -11.780;36952.047
617.760;31065.434;   -8.570;39582.574
618.340;32903.938;  -11.471;38943.977
618.920;31306.861;  -11.170;37594.156
619.500;30040.828;  -11.071;37866.938
620.080;30616.838;   -7.750;37869.043
620.660;31693.645;  -12.711;36868.617
621.241;29415.605;  -10.211;36352.309
621.821;28178.861;  -10.961;35459.520
622.401;29420.115;   -7.720;35207.414
622.980;30619.559;   -8.981;35980.422
623.560;31626.482;   -9.331;37351.328
624.140;28326.934;   -9.850;34388.582
624.720;24332.252;   -7.451;32368.764
625.300;22706.311;   -9.070;32638.629
625.880;25587.525;  -12.601;34599.035
626.459;29708.305;  -11.751;36831.738
627.039;30963.432;   -9.281;38299.098
627.619;31372.363;   -8.801;38289.574
628.198;31882.871;  -12.071;37220.695
628.778;32830.820;   -9.461;37632.563
629.357;33739.676;   -8.491;38003.012
629.937;32847.000;   -9.721;38402.039
630.516;32650.529;   -9.951;37868.801
631.096;31607.113;  -11.731;35760.410
631.675;31496.193;   -8.572;35225.219
632.254;32257.475;  -11.282;35130.289
632.834;32536.248;  -13.322;35794.570
633.413;33637.723;  -10.301;35788.922
633.992;33971.438;   -8.582;34532.863
634.571;32157.711;   -8.352;33590.113
635.151;31747.195;  -11.912;34943.863
635.730;30900.018;  -10.511;35352.523
636.309;31265.850;   -7.731;35366.605
636.888;31346.438;   -9.952;36165.637
637.467;30883.979;  -11.672;37515.902
638.046;32348.133;   -8.901;39288.695
638.625;31247.008;   -7.912;38279.699
639.204;31843.754;  -10.022;37741.598
639.782;31573.594;  -12.252;38364.551
640.361;28987.346;  -10.041;36740.621
640.940;27042.363;  -11.161;34950.082
641.519;27390.816;   -9.701;34137.398
642.097;29680.027;  -11.271;35654.258
642.676;29673.891;   -8.651;35637.957
643.255;32376.547;   -8.711;36567.074
643.833;34796.566;   -9.581;37809.434
644.412;33638.508;  -13.711;37337.293
644.990;31362.051;  -11.811;37018.531
645.569;31069.293;   -9.411;36518.469
646.147;31606.146;  -10.291;36186.430
646.726;30864.178;  -12.401;36267.688
647.304;29466.104;  -10.411;36647.625
647.882;30862.693;   -9.651;39286.742
648.461;33129.203;   -9.631;39157.703
649.039;33326.035;  -11.881;35412.883
649.617;33272.230;   -9.661;34744.918
650.195;33713.785;   -9.301;35403.098
650.773;32524.641;  -10.511;35053.797
651.352;32027.283;  -11.521;33756.816
651.930;30191.885;  -12.211;31868.773
652.508;24905.396;   -9.171;33121.551
653.086;23939.234;   -9.371;33564.793
653.663;28748.998;  -13.161;34054.668
654.241;30328.090;  -13.031;35693.309
654.819;32493.162;   -9.371;36422.906
655.397;31965.225;  -10.511;38213.484
655.975;31469.197;  -10.371;39507.625
656.553;32598.736;  -10.051;39498.223
657.130;31866.070;  -10.061;40395.480
657.708;30021.223;   -9.561;39242.020
658.286;29470.406;  -11.511;38920.020
658.863;28343.428;  -10.261;40202.898
659.441;29884.133;   -7.531;39677.938
660.018;31484.215;   -9.501;40413.355
660.596;31347.143;  -13.301;39931.414
661.173;29327.502;  -11.211;39604.531
661.750;29160.770;   -9.951;39700.070
662.328;31179.342;   -9.390;39292.809
662.905;30121.084;  -11.330;38235.648
663.482;25893.809;   -9.050;36212.305
664.060;23587.713;   -8.240;35944.945
664.637;27789.756;  -10.050;35170.785
665.214;30984.760;  -11.760;34197.523
665.791;32021.357;  -10.530;34549.520
666.368;32292.941;   -9.690;35118.578
666.945;32607.719;   -9.320;36019.418
667.522;30796.338;  -11.860;36048.438
668.099;30287.283;  -10.770;36243.914
668.676;32720.105;   -6.260;35958.875
669.253;34004.902;   -7.000;37384.730
669.830;34531.145;  -10.190;36779.629
670.407;33752.023;   -9.550;35231.289
670.984;32231.301;   -9.260;35544.270
671.560;29368.928;   -9.280;35466.867
672.137;26189.545;  -11.810;34280.863
672.714;25427.063;  -11.490;34632.863
673.290;29974.359;   -7.740;35135.422
673.867;33645.930;  -10.660;36114.480
674.443;32626.848;  -12.230;36152.859
675.020;30729.053;  -10.450;35327.238
675.596;29430.828;   -9.260;35795.176
676.173;29972.600;  -10.780;35430.355
676.749;30683.846;  -13.690;33549.516
677.326;29456.471;  -11.980;32210.012
677.902;27791.615;   -8.630;32068.871
678.478;27807.514;  -10.730;32583.891
679.054;29166.770;  -10.520;32088.928
679.631;30249.457;  -11.920;30978.848
680.207;30405.010;   -7.490;33160.887
680.783;30542.002;   -9.860;35570.363
681.359;32778.074;  -13.380;36125.184
681.935;32711.682;  -12.480;35240.922
682.511;29953.662;   -7.900;34429.961
683.087;28737.973;   -7.710;34463.680
683.663;29610.988;  -11.480;34648.898
684.239;30401.869;  -14.090;34546.457
684.815;29902.123;   -7.560;35586.375
685.390;28288.631;   -9.910;35821.895
685.966;28588.691;  -11.159;35085.871
686.542;27627.887;  -11.169;34198.230
687.118;28020.059;   -5.959;32847.707
687.693;31388.455;  -10.329;32794.027
688.269;31886.064;  -12.059;33072.367
688.844;31913.867;  -10.909;33141.664
689.420;33869.148;   -8.019;33965.742
689.995;32204.938;   -8.399;34655.523
690.571;29986.248;  -10.949;33576.742
691.146;29379.660;   -9.619;32657.219
691.722;30804.619;   -8.999;32526.979
692.297;30858.563;  -11.589;33014.617
692.872;29752.301;  -11.739;34012.254
693.448;29815.090;  -11.059;34237.434
694.023;29574.818;  -10.139;34142.672
694.598;26899.332;   -9.029;34132.031
695.173;26993.627;  -13.319;34205.250
695.748;29253.041;  -10.169;32882.488
696.323;28607.031;   -8.339;32864.906
696.898;27379.395;   -8.169;33170.004
697.473;27975.141;  -12.309;32432.984
698.048;28202.787;  -10.989;31649.303
698.623;27819.328;   -9.329;30778.141
699.198;27951.525;   -9.849;31140.119
699.773;28664.920;  -12.329;31764.299
700.348;31100.268;  -10.389;31780.816
700.922;30984.756;   -9.269;32046.375
701.497;28497.068;   -9.329;32603.574
702.072;29334.188;  -10.789;34799.871
702.646;28797.750;  -10.839;35793.172
703.221;29886.037;   -9.099;35201.590
703.795;30835.041;  -10.939;34764.527
704.370;31269.293;  -12.859;34307.367
704.944;31395.506;  -11.559;33509.887
705.519;30718.027;   -7.939;31388.584
706.093;32451.074;  -10.499;31340.104
706.668;31516.467;  -11.289;32630.281
707.242;30725.369;  -11.509;32728.779
707.816;29224.887;   -9.639;32947.238
708.390;27384.510;  -11.429;33277.855
708.965;26984.314;  -11.869;33834.336
709.539;28108.553;  -11.689;33709.273
710.113;28482.770;  -10.478;33044.313
710.687;28573.568;  -10.228;31953.992
711.261;28331.693;  -13.698;30505.949
711.835;28372.725;  -13.378;30262.369
712.409;28548.117;   -9.698;31254.447
712.983;27680.721;  -11.898;32754.986
713.557;27389.479;  -15.138;34018.824
714.131;25623.861;  -14.098;34579.625
714.704;24251.764;   -9.958;33890.262
715.278;24847.100;  -10.028;33531.102
715.852;25193.328;  -11.148;33601.660
716.425;26131.203;   -9.068;33515.117
716.999;25550.186;  -10.038;33185.555
717.573;24714.840;   -9.798;33905.996
718.146;25675.008;  -12.378;35199.293
718.720;26886.238;  -11.918;35060.551
719.293;28338.953;   -8.088;34973.230
719.867;29100.393;  -10.888;36394.449
720.440;28761.639;  -11.938;36663.008
721.013;29377.201;  -12.818;35102.426
721.587;28449.715;  -10.298;33985.266
722.160;27369.180;  -10.048;33524.965
722.733;26913.145;  -12.108;32987.043
723.306;26732.914;  -10.818;33066.301
723.880;27827.688;   -8.908;33399.500
724.453;27019.203;   -9.878;33468.297
725.026;25645.469;  -11.188;33816.637
725.599;26445.463;  -11.678;32797.996
726.172;28209.830;   -9.618;33187.434
726.745;27510.527;   -8.258;35136.613
727.318;26617.104;  -12.978;35751.730
727.891;25396.111;  -12.148;35890.430
728.463;24915.773;   -8.968;34822.090
729.036;24963.998;  -10.188;32895.086
729.609;26422.732;  -11.788;31823.225
730.182;26740.338;  -11.788;31445.283
730.754;24816.219;  -10.268;32373.223
731.327;23121.457;   -9.998;33676.820
731.900;22739.164;  -12.228;33417.000
732.472;23884.949;  -13.848;31978.498
733.045;25172.609;   -8.698;30368.777
733.617;24004.641;  -10.607;30574.215
734.190;25072.281;  -11.507;31280.975
734.762;26720.631;  -13.647;31674.412
735.334;24681.496;   -9.767;31247.291
735.907;23717.629;   -9.897;29876.211
736.479;24446.141;  -11.637;29808.488
737.051;25965.197;   -9.567;30233.547
737.623;26196.529;   -8.187;31469.086
738.195;25868.545;  -11.187;31784.225
738.768;25990.193;  -12.337;32120.523
739.340;24831.682;  -12.227;32094.342
739.912;23748.240;  -11.057;31312.680
740.484;23390.186;  -10.207;31946.238
741.056;21663.801;  -10.047;32984.059
741.628;20658.559;  -13.627;33897.715
742.199;21405.945;   -7.177;33213.016
742.771;24282.668;  -10.797;31369.113
743.343;26789.287;  -11.997;31865.473
743.915;26855.166;  -12.867;32388.631
744.487;24968.475;   -7.617;31079.568
745.058;23598.916;   -9.557;30570.107
745.630;23771.244;   -9.877;29970.127
746.201;23440.465;  -14.177;29186.766
746.773;22150.416;   -9.237;28805.723
747.344;22378.682;   -9.847;29591.223
747.916;22885.371;  -11.657;31412.201
748.487;22465.699;  -10.587;32194.898
749.059;22389.840;   -8.707;32533.719
749.630;22396.104;  -10.537;32158.518
750.201;23183.305;  -11.687;30855.395
750.773;23527.086;  -11.647;28622.555
751.344;22791.730;   -7.147;28405.732
751.915;21880.209;   -9.757;28461.551
752.486;21686.084;  -12.427;27842.850
753.057;21228.785;  -12.227;27845.008
753.628;20432.578;  -10.417;27728.107
754.199;19332.764;  -11.767;27381.086
754.770;19240.225;  -11.187;25882.203
755.341;20345.082;  -10.507;25886.184
755.912;20235.633;   -9.387;26050.861
756.483;18496.508;  -10.647;26798.779
757.054;18263.758;  -11.837;27048.238
757.625;19211.336;  -12.716;26294.838
758.195;20062.033;   -9.666;26142.076
758.766;21496.355;   -8.656;26392.234
759.337;21355.570;  -12.856;26334.594
759.907;20835.195;  -13.366;27579.652
760.478;21266.602;   -8.576;28352.770
761.048;20865.656;  -10.526;27325.088
761.619;20933.445;  -11.116;26460.428
762.189;21078.887;  -12.136;26029.826
762.760;20165.938;   -9.456;26430.145
763.330;19349.514;   -7.136;26670.902
763.900;20059.699;  -11.786;26603.021
764.471;19607.432;  -11.546;25542.740
765.041;17822.906;   -8.096;24358.459
765.611;16577.453;   -8.876;23991.297
766.181;16065.709;  -12.196;24470.236
766.751;16343.440;  -11.636;24845.975
767.321;17303.910;  -10.156;24533.633
767.891;17924.734;  -11.766;24916.492
768.461;17597.807;  -14.936;24776.771
769.031;17400.125;  -12.356;24757.988
769.601;17537.389;   -7.526;24181.088
770.171;17889.717;  -10.766;23670.387
770.741;17247.762;  -13.176;22960.045
771.311;16303.476;  -10.616;22917.523
771.880;16048.002;   -9.576;23562.941
772.450;15806.915;  -10.336;24216.500
773.020;16388.355;  -13.516;24140.398
773.589;16647.334;  -13.466;24414.857
774.159;16309.579;   -8.686;23858.717
774.729;16519.955;   -9.476;22942.135
775.298;16116.377;  -13.666;22324.033
775.867;15104.466;  -11.716;21140.313
776.437;14359.185;   -9.906;20838.092
777.006;14523.027;  -12.166;20599.510
777.576;13810.612;  -12.356;20508.809
778.145;13670.395;  -11.646;20732.947
778.714;13617.223;   -8.226;21062.465
779.283;13606.164;   -9.556;20949.664
779.853;14026.250;  -14.116;20508.623
780.422;13874.206;  -11.506;20649.082
780.991;13866.413;   -9.556;21527.520
781.560;13611.210;   -9.095;22632.658
782.129;12243.767;  -12.135;23048.277
782.698;11582.446;  -10.865;23438.555
783.267;11651.710;   -9.335;23267.734
783.836;12300.924;  -11.045;22415.133
784.404;13271.874;  -13.865;20443.152
784.973;13076.541;  -13.095;19699.150
785.542;12466.543;  -11.575;19763.828
786.111;12229.381;   -9.705;20341.408
786.679;12029.635;  -12.105;20207.967
787.248;11755.925;  -12.455;19516.465
787.817;11024.548;  -11.535;18900.363
788.385;11362.857;   -9.765;17879.121
788.954;12402.034;  -14.005;17658.301
789.522;12850.563;  -11.955;17788.879
790.090;12438.287;  -10.135;18118.277
790.659;12427.175;  -10.975;18338.736
791.227;12521.392;  -13.375;18508.615
791.795;12245.822;  -12.375;17898.254
792.364;12129.216;  -10.725;17295.133
792.932;12257.965;   -9.715;16822.051
793.500;12328.570;  -12.675;17040.148
794.068;12172.016;  -13.495;17179.787
794.636;10841.911;  -10.885;16664.246
795.204; 9853.207;  -11.045;16524.545
795.772; 9649.635;  -13.175;17274.564
796.340;10594.271;  -12.445;17891.002
796.908;10913.570;   -9.735;17648.561
797.476;11019.004;   -9.815;17064.080
798.044;11040.989;  -13.985;16672.777
798.612;10784.847;  -13.115;17023.996
799.180;10315.445;  -10.185;16561.615
799.747; 9563.987;   -9.055;15962.773
800.315; 8530.961;  -12.385;15296.992
800.883; 8183.899;  -15.035;14801.771
801.450; 8671.620;  -10.365;14534.430
802.018; 9447.278;   -9.855;14173.248
802.585;10166.260;  -11.905;14029.547
803.153;10019.671;  -11.585;13836.846
803.720; 9316.140;   -9.095;13567.324
804.287; 8979.813;   -9.135;13360.622
804.855; 9310.602;  -11.604;13681.981
805.422; 9780.276;  -11.794;13536.560
805.989; 9062.961;  -10.734;13355.958
806.556; 8822.801;  -10.444;13747.896
807.124; 8950.807;  -12.764;13987.376
807.691; 9053.547;  -12.964;14038.674
808.258; 9365.226;  -11.134;14120.152
808.825; 9491.251;   -9.854;13860.111
809.392; 8887.596;  -10.504;13268.790
809.959; 8423.521;  -13.054;12680.389
810.526; 8174.494;   -8.294;12427.308
811.093; 8247.080;   -8.394;12030.105
811.659; 7978.678;  -12.304;11653.664
812.226; 7375.642;  -13.944;11637.183
812.793; 7238.646;  -10.484;11611.521
813.360; 7412.351;  -10.144;11885.181
813.926; 7330.890;  -11.684;12770.539
814.493; 7131.079;  -13.644;12677.638
815.060; 6759.848;   -9.724;11974.336
815.626; 6332.806;   -9.854;11594.715
816.193; 6366.542;  -13.254;11579.474
816.759; 6392.768;  -13.204;11666.972
817.325; 6710.858;   -9.434;11325.530
817.892; 6763.134;  -10.134;11105.369
818.458; 6396.296;  -13.474;10843.928
819.024; 6058.508;  -11.854;10714.406
819.591; 5926.506;  -10.244;10469.165
820.157; 5777.932;  -10.704;10235.523
820.723; 5894.211;  -12.324;10847.563
821.289; 6324.565;   -9.444;11040.980
821.855; 6604.010;   -8.374;10357.100
822.421; 6567.410;  -10.234; 9978.918
822.987; 6529.339;  -13.294; 9754.177
823.553; 6724.993;  -10.884;10065.755
824.119; 6686.753;   -8.884;10036.294
824.685; 6405.530;   -6.784;10029.192
825.251; 5962.130;  -12.004;10199.230
825.816; 5962.576;  -11.474; 9820.189
826.382; 6139.753;   -9.174; 9297.248
826.948; 6110.936;   -9.214; 9381.347
827.513; 5829.455;  -10.774; 9450.726
828.079; 5505.343;  -11.924; 9472.444
828.645; 5367.360;  -10.543; 9292.643
829.210; 5371.997;  -10.533; 9065.341
829.776; 5221.278;  -10.753; 9132.620
830.341; 5092.666;  -10.173; 9092.878
830.906; 4998.859;  -10.743; 9078.557
831.472; 5093.840;  -11.113; 8534.535
832.037; 5117.130;  -10.603; 8677.874
832.602; 5106.711;  -13.323; 8628.692
833.167; 5162.782;  -10.823; 8879.031
833.733; 4872.109;  -10.113; 9189.790
834.298; 4723.486;  -13.583; 9052.608
834.863; 4877.464;  -12.703; 8895.087
835.428; 4940.933;  -10.523; 8824.266
835.993; 4835.647;   -6.963; 8845.385
836.558; 4623.391;  -10.763; 8888.563
837.123; 4531.017;   -9.903; 8966.582
837.688; 4445.328;   -9.913; 8617.860
838.253; 4493.127;  -10.283; 8590.699
838.817; 4792.473;  -12.963; 8443.797
839.382; 4865.125;  -14.243; 8799.356
839.947; 4753.572;  -10.733; 8810.595
840.511; 4517.834;   -9.383; 8796.394
841.076; 4459.489;  -12.563; 8347.231
841.641; 4456.354;  -12.953; 8224.330
842.205; 4060.514;   -7.043; 8223.349
842.770; 3848.242;   -8.163; 8622.107
843.334; 3956.217;  -12.503; 8410.386
843.898; 4204.576;  -11.693; 8337.465
844.463; 4256.598;  -10.203; 8506.283
845.027; 4124.931;   -9.533; 8280.962
845.591; 3998.018;  -13.443; 8231.141
846.156; 3945.925;  -13.143; 7969.179
846.720; 3845.418;   -9.433; 7768.278
847.284; 3397.411;  -11.033; 7630.957
847.848; 3025.014;  -10.403; 7472.395
848.412; 3119.669;  -11.553; 7437.394
848.976; 3511.284;   -8.393; 7674.592
849.540; 3801.332;   -8.713; 7836.011
850.104; 3791.677;  -12.463; 7913.669
850.668; 3717.928;  -12.973; 7694.508
851.232; 3512.210;  -10.793; 7756.887
851.796; 3363.729;  -10.662; 7926.545
852.359; 3508.667;  -13.082; 7827.844
852.923; 3526.857;  -12.192; 7641.163
853.487; 3495.034;  -11.912; 7342.501
854.050; 3600.715;  -10.892; 7042.820
854.614; 3575.044;  -13.992; 7151.338
855.177; 3361.778;  -11.732; 7105.077
855.741; 3170.271;   -8.962; 6989.675
856.304; 3131.344;   -9.442; 6596.634
856.868; 3123.833;  -14.192; 6356.272
857.431; 3165.109;  -12.702; 6468.571
857.995; 3439.133;   -9.942; 6373.210
858.558; 3567.739;   -9.112; 6324.448
859.121; 3189.886;  -12.932; 6408.327
859.684; 2855.766;  -13.442; 6347.886
860.247; 2763.164;  -10.632; 6321.264
860.810; 2891.749;  -11.272; 6301.903
861.374; 3047.477;   -9.832; 6607.881
861.937; 3065.949;  -11.762; 6408.200
862.500; 3077.923;   -9.722; 6572.639
863.062; 3026.136;  -10.512; 6387.297
863.625; 2906.340;  -11.232; 6190.836
864.188; 2739.401;  -14.112; 5807.254
864.751; 2509.926;  -11.302; 5682.413
865.314; 2402.935;  -10.112; 5547.492
865.876; 2536.087;  -12.182; 5500.150
866.439; 2751.603;  -10.722; 5415.909
867.002; 2792.832;   -9.252; 5501.567
867.564; 2646.786;   -9.572; 5413.946
868.127; 2420.801;  -13.142; 5160.325
868.689; 2291.719;  -12.902; 5133.183
869.252; 2187.450;   -9.732; 5252.382
869.814; 2105.535;   -9.432; 5297.141
870.377; 2185.292;  -11.552; 5390.919
870.939; 2270.861;   -9.052; 5599.898
871.501; 2215.794;  -10.982; 5248.336
872.063; 2217.990;  -12.292; 4854.235
872.626; 2190.402;  -14.912; 4817.074
873.188; 2155.904;  -13.112; 4987.732
873.750; 2121.205;  -13.442; 4868.651
874.312; 2029.008;   -9.402; 4779.330
874.874; 1934.155;  -11.062; 4866.348
875.436; 1943.937;  -13.931; 4718.887
875.998; 1920.061;   -9.561; 4660.005
876.560; 1791.075;  -11.321; 4462.964
877.122; 1681.643;  -12.221; 4145.042
877.683; 1627.225;  -12.191; 4056.481
878.245; 1662.590;  -12.101; 3950.740
878.807; 1752.150;   -8.971; 4058.958
879.369; 1784.540;  -12.071; 3954.677
879.930; 1687.771;  -14.621; 3941.495
880.492; 1629.576;  -10.311; 4067.014
881.053; 1585.566;  -10.901; 3859.633
881.615; 1549.351;  -14.411; 3776.071
882.176; 1525.550;  -13.761; 3734.750
882.738; 1531.305;   -9.181; 3678.489
883.299; 1488.610;  -11.791; 3405.407
883.860; 1394.804;  -13.121; 3351.106
884.422; 1295.922;  -11.211; 3394.044
884.983; 1230.019;  -10.091; 3166.443
885.544; 1196.016;   -8.461; 3189.802
886.105; 1149.524;  -12.361; 3160.360
886.666; 1080.869;  -14.141; 3093.059
887.227; 1049.649;  -11.361; 2941.957
887.788; 1033.234;  -11.401; 2974.836
888.349;  966.622;  -13.791; 2721.214
888.910;  898.337;  -13.191; 2696.493
889.471;  844.570;   -9.881; 2560.172
890.032;  792.668;   -9.881; 2558.190
890.593;  751.578;  -10.371; 2567.669
891.153;  731.542;  -13.301; 2460.307
891.714;  709.397;  -11.431; 2372.046
892.275;  662.719;  -11.291; 2309.505
892.835;  656.155;  -11.471; 2382.543
893.396;  657.531;  -11.541; 2295.502
893.956;  625.132;  -11.181; 2162.420
894.517;  561.878;  -11.741; 2125.439
895.077;  493.332;  -11.671; 2086.978
895.638;  448.634;  -11.311; 2126.316
896.198;  437.314;   -9.831; 1838.275
896.758;  436.861;   -8.421; 1892.813
897.319;  418.806;  -12.351; 1792.232
897.879;  385.434;  -13.511; 1762.751
898.439;  362.690;  -12.001; 1661.149
898.999;  352.159;  -10.180; 1781.468
899.559;  341.413;  -12.030; 1703.347
900.119;  334.378;  -15.710; 1537.525
900.679;  327.780;   -8.900; 1638.384
901.239;  309.977;   -8.340; 1527.902
901.799;  285.928;  -13.910; 1456.441
902.359;  268.576;  -13.460; 1357.140
902.919;  261.144;  -11.490; 1331.118
903.479;  257.523;  -12.110; 1317.257
904.038;  250.051;  -11.720; 1262.595
904.598;  239.717;  -13.610; 1152.034
905.158;  227.338;  -11.040; 1240.893
905.717;  218.537;  -10.900; 1233.691
906.277;  211.973;  -15.080; 1217.330
906.836;  208.665;  -13.380; 1222.408
907.396;  206.156;  -10.780; 1193.047
907.955;  201.817;   -8.500; 1182.526
908.515;  194.216;  -12.760; 1099.364
909.074;  189.993;  -11.900; 1092.863
909.633;  185.545;   -8.950; 1069.121
910.192;  183.535;   -8.770; 1196.460
910.752;  177.629;  -12.390; 1029.960
911.311;  174.756;  -13.680; 1009.780
911.870;  173.099;  -12.370;  971.460
912.429;  170.507;  -10.900; 1094.080
912.988;  166.191;  -11.690; 1081.060
913.547;  161.359;  -13.240;  940.380
914.106;  160.286;  -11.990;  999.420
914.665;  159.153;   -9.990;  984.020
915.224;  155.721;  -12.880; 1035.760
915.782;  153.990;  -12.350;  922.560
916.341;  156.213;   -9.110; 1049.840
916.900;  153.964;   -9.270;  925.260
917.458;  150.837;  -13.240;  884.220
918.017;  148.205;  -13.550;  942.600
918.576;  147.822;  -12.320;  904.440
919.134;  147.598;  -11.490;  837.980
919.693;  146.599;  -13.670;  893.060
920.251;  146.431;  -15.470;  876.500
920.809;  146.383;  -11.290;  839.580
921.368;  144.952;  -10.210;  885.360
921.926;  143.408;  -12.140;  842.940
922.484;  141.588;  -13.080;  903.360
923.042;  139.548;  -11.720;  880.340
923.601;  141.329;   -7.480;  998.680
924.159;  139.217;  -11.570;  935.560
924.717;  137.987;  -13.840;  841.080
925.275;  139.552;  -10.640;  903.240
925.833;  139.101;  -11.540;  779.320
926.391;  140.718;  -12.960;  938.380
926.949;  140.289;  -14.130;  857.680
927.506;  141.469;  -11.750;  903.500
928.064;  141.951;  -10.250;  877.580
928.622;  138.979;  -13.030;  880.100
929.180;  140.836;  -13.400;  814.180
929.737;  141.600;  -10.700;  808.540
930.295;  142.087;  -10.070;  928.480
930.853;  141.883;  -11.960;  849.100
931.410;  144.378;  -13.120;  821.120
931.968;  146.513;  -10.770;  940.660
932.525;  146.162;  -10.680;  909.380
933.082;  147.210;  -13.130;  811.440
933.640;  154.226;  -13.210;  925.900
934.197;  159.632;  -11.060;  886.360
934.754;  161.924;   -9.580;  897.780
935.312;  161.057;  -14.000;  863.340
935.869;  159.824;  -10.710; 1012.980
936.426;  156.516;   -9.860;  872.800
936.983;  157.724;   -9.710;  889.020
937.540;  156.938;  -13.990;  838.280
938.097;  160.369;  -14.040;  940.120
938.654;  161.400;  -10.310;  898.860
939.211;  160.768;  -10.560;  952.480
939.768;  158.657;  -13.900;  915.420
940.324;  158.326;  -14.760;  904.200
940.881;  163.897;  -10.370;  878.500
941.438;  168.842;   -8.260; 1021.200
941.995;  167.554;  -12.540;  992.560
942.551;  166.233;  -14.670;  875.620
943.108;  166.042;  -10.450;  937.920
943.664;  166.801;  -10.750;  869.340
944.221;  170.027;  -11.550; 1088.140
944.777;  173.078;  -14.770;  869.680
945.334;  178.169;  -12.820;  884.840
945.890;  182.016;  -10.130;  946.480
946.446;  182.235;  -13.470;  947.020
947.003;  183.145;  -12.120;  964.940
947.559;  186.214;   -9.980; 1063.040
948.115;  186.409;   -9.080; 1026.540
948.671;  190.037;  -10.830;  967.300
949.227;  187.358;  -12.440;  859.560
949.783;  179.411;  -12.910;  858.900
950.339;  176.018;  -10.270;  991.000
950.895;  172.003;  -13.630; 1023.840
951.451;  171.277;  -15.100;  925.280
952.007;  173.733;  -11.330;  998.540
952.563;  173.429;  -10.580;  937.780
953.118;  172.130;  -13.440;  904.940
953.674;  169.224;  -12.710;  935.780
954.230;  169.307;  -10.350;  949.640
954.785;  170.749;   -9.190;  936.640
955.341;  169.055;  -11.200;  998.160
955.897;  163.192;  -16.560;  834.660
956.452;  157.775;  -12.570;  953.840
957.008;  153.655;   -7.970; 1083.640
957.563;  150.619;  -11.940; 1009.540
958.118;  153.030;  -13.450;  877.700
958.674;  158.064;  -12.030;  946.780
959.229;  160.663;   -9.410; 1013.980
959.784;  162.231;  -12.000;  832.400
960.339;  161.347;  -14.780; 1001.280
960.894;  148.933;   -9.860;  963.760
961.449;  136.691;   -9.970;  859.960
962.004;  127.397;  -10.900; 1212.840
962.559;  113.392;  -13.150;  860.140
963.114;  103.762;  -13.740;  742.480
963.669;  100.939;   -9.820;  915.500
964.224;  100.616;  -13.890;  874.340
964.779;  104.967;  -12.600;  828.420
965.334;  109.298;  -10.950; 1017.860
965.888;  107.732;  -11.170;  875.360
966.443;  107.205;  -12.540;  972.380
966.998;  108.010;  -15.780;  819.460
967.552;  110.834;   -9.760;  908.380
968.107;  108.764;   -9.060;  868.300
968.661;  107.853;  -11.950;  922.440
969.216;  107.603;  -12.800;  856.280
969.770;  108.126;  -11.210;  917.200
970.324;  107.328;  -11.610;  923.140
970.879;  104.926;  -11.370;  947.180
971.433;  105.671;  -12.540;  952.720
971.987;  104.382;  -11.320;  895.340
972.541;  104.078;  -10.720;  917.100
973.095;  105.149;   -9.680; 1009.460
973.649;  105.917;  -11.440;  809.480
974.203;  106.221;  -11.210;  829.040
974.757;  104.442;  -10.240;  855.220
975.311;  103.514;  -13.720;  872.600
975.865;  104.779;  -13.770;  881.820
976.419;  105.553;  -11.690;  857.400
976.973;  106.316;   -9.510;  849.620
977.526;  105.154;  -12.620;  949.920
978.080;  100.457;  -12.010;  796.780
978.634;   98.927;  -10.170;  921.320
979.187;   95.879;   -9.020;  905.400
979.741;   95.269;   -9.820; 1018.380
980.294;   93.250;  -14.870;  789.160
980.848;   92.176;  -12.380;  717.220
981.401;   92.950;  -10.350;  816.540
981.955;   92.795;  -13.720;  844.300
982.508;   91.072;  -11.490;  746.340
983.061;   92.144;  -10.000;  915.260
983.615;   88.710;  -11.480;  798.800
984.168;   86.577;  -13.220;  770.080
984.721;   86.099;  -13.960;  880.760
985.274;   82.547;  -10.870;  867.500
985.827;   81.502;   -9.790;  834.220
986.380;   78.014;  -13.120;  721.340
986.933;   78.440;  -12.450;  864.800
987.486;   77.702;  -10.210;  861.920
988.039;   78.165;   -8.430;  863.100
988.591;   75.980;  -10.520;  893.260
989.144;   73.859;  -14.860;  737.260
989.697;   74.742;  -13.080;  758.740
990.250;   73.757;  -10.150;  858.100
990.802;   71.270;  -13.430;  755.860
991.355;   71.352;  -12.750;  974.880
991.907;   68.719;  -12.040;  864.320
992.460;   66.086;  -11.330;  753.760
993.012;   63.112;  -13.610;  749.540
993.565;   61.052;  -13.460;  711.360
994.117;   63.502;   -9.360;  950.780
994.669;   60.961;  -11.300;  701.320
995.221;   58.989;  -13.540;  791.920
995.774;   59.796;  -13.430;  787.580
996.326;   59.326;  -12.520;  740.220
996.878;   59.348;  -10.950;  838.420
997.430;   56.374;  -14.300;  699.860
997.982;   56.362;  -13.760;  750.140
998.534;   55.914;  -11.530;  739.060
999.086;   54.380;  -10.310;  738.220
999.638;   52.377;  -12.530;  661.380
1000.190;   51.642;  -11.840;  699.320
1000.741;   52.103;  -10.260;  742.700
1001.293;   51.344;   -8.860;  686.020
1001.845;   50.228;  -13.700;  676.640
1002.396;   50.258;  -12.100;  743.400
1002.948;   50.362;  -12.760;  737.400
1003.500;   49.499;  -10.380;  723.780
1004.051;   49.205;  -11.900;  907.580
1004.603;   47.739;  -12.250;  791.820
1005.154;   44.447;  -13.210;  608.980
1005.705;   43.858;  -10.950;  723.960
1006.257;   42.499;  -13.880;  707.220
1006.808;   42.200;  -12.840;  685.460
1007.359;   42.456;  -10.570;  763.240
1007.910;   40.637;   -9.620;  646.640
1008.461;   39.672;  -13.630;  732.940
1009.013;   39.340;  -17.200;  588.340
1009.564;   40.623;  -10.200;  793.520
1010.115;   38.443;  -12.570;  597.040
1010.665;   38.031;  -15.150;  602.160
1011.216;   38.403;  -14.480;  667.920
1011.767;   37.924;  -11.340;  697.920
1012.318;   37.817;   -9.780;  736.980
1012.869;   35.390;  -12.380;  679.000
1013.419;   36.140;  -15.560;  603.120
1013.970;   36.701;  -11.010;  666.640
1014.521;   35.738;  -11.610;  620.620
1015.071;   35.583;  -13.450;  670.380
1015.622;   35.438;  -13.870;  635.460
1016.172;   35.634;  -11.610;  596.820
1016.723;   34.614;  -12.120;  614.380
1017.273;   33.939;  -13.620;  604.160
1017.823;   34.276;  -14.140;  650.340
1018.374;   33.883;  -12.800;  611.760
1018.924;   33.554;  -12.340;  716.880
1019.474;   33.663;  -11.410;  718.880
1020.024;   32.615;  -14.770;  657.580
1020.574;   33.267;   -9.780;  726.160
1021.124;   33.203;   -8.560;  673.580
1021.674;   31.185;  -15.190;  559.120
1022.224;   32.790;  -13.530;  708.940
1022.774;   33.218;  -13.280;  668.820
1023.324;   33.099;  -10.690;  753.520
1023.874;   33.532;  -10.240;  875.760
1024.423;   31.559;  -12.540;  613.700
1024.973;   31.306;  -10.010;  610.760
1025.523;   30.939;  -10.550;  620.960
1026.072;   30.103;  -13.560;  606.420
1026.622;   29.299;  -15.120;  675.740
1027.172;   31.022;  -11.260;  715.660
1027.721;   29.662;  -11.410;  601.220
1028.270;   29.635;  -13.530;  663.400
1028.820;   30.326;  -13.680;  638.080
1029.369;   29.946;  -13.520;  612.700
1029.918;   30.125;  -10.980;  649.840
1030.468;   28.288;  -13.530;  564.780
1031.017;   29.436;  -13.170;  634.800
1031.566;   28.528;  -12.200;  608.900
1032.115;   29.187;   -9.960;  694.500
1032.664;   27.332;  -13.210;  596.480
1033.213;   28.629;  -12.500;  735.420
1033.762;   27.599;  -11.910;  635.620
1034.311;   27.892;   -9.640;  677.220
1034.860;   27.416;  -13.310;  691.000
1035.408;   27.751;  -11.830;  722.720
1035.957;   28.345;  -12.000;  719.540
1036.506;   25.826;  -11.690;  530.800
1037.055;   28.002;  -10.990;  844.320
1037.603;   26.630;  -15.120;  664.000
1038.152;   25.265;  -12.450;  534.760
1038.700;   26.366;  -10.560;  585.740
1039.249;   24.582;  -11.080;  681.220
1039.797;   26.298;  -12.540;  633.360
1040.345;   26.005;  -11.920;  705.420
1040.894;   25.997;  -11.410;  625.300
1041.442;   24.873;  -14.320;  632.200
1041.990;   24.523;  -16.240;  559.160
1042.538;   24.209;  -11.680;  536.180
1043.087;   24.331;  -10.760;  570.860
1043.635;   25.070;  -11.850;  670.500
1044.183;   24.290;  -15.480;  586.400
1044.731;   24.133;  -11.770;  576.000
1045.279;   24.052;  -13.090;  674.920
1045.827;   25.315;  -12.440;  892.400
1046.374;   22.481;  -13.840;  515.420
1046.922;   22.940;  -13.220;  590.580
1047.470;   24.287;  -10.230;  691.300
1048.018;   23.518;  -14.590;  647.960
1048.565;   24.481;  -12.050;  708.600
1049.113;   22.358;  -11.650;  557.000
1049.660;   22.908;  -10.510;  629.660
1050.208;   21.944;  -13.310;  675.640
1050.755;   21.721;  -15.900;  606.580
1051.303;   23.495;  -11.430;  686.820
1051.850;   21.858;   -8.480;  635.120
1052.397;   20.226;  -15.010;  473.960
1052.945;   21.176;  -13.960;  617.760
1053.492;   22.686;  -13.150;  741.840
1054.039;   22.705;   -9.630;  720.180
1054.586;   20.593;  -13.680;  557.240
1055.133;   21.531;  -14.570;  693.140
1055.680;   22.784;  -13.820;  646.620
1056.227;   20.862;  -11.730;  542.780
1056.774;   21.957;  -12.480;  794.980
1057.321;   19.595;  -13.930;  523.260
1057.868;   20.624;  -11.690;  651.320
1058.415;   19.505;   -9.520;  651.980
1058.961;   20.219;  -13.160;  678.940
1059.508;   20.601;  -12.920;  643.820
1060.055;   20.672;  -11.920;  581.780
1060.601;   21.056;  -11.500;  624.300
1061.148;   19.652;  -14.330;  616.820
1061.694;   18.975;  -16.870;  592.580
1062.241;   20.366;  -10.330;  596.320
1062.787;   20.084;  -10.620;  663.140
1063.334;   20.512;  -10.110;  808.560
1063.880;   19.201;  -13.400;  668.360
1064.426;   19.452;  -10.680;  706.820
1064.972;   18.788;   -9.920;  601.340
1065.518;   16.947;  -10.980;  566.640
1066.065;   18.276;  -14.890;  624.460
1066.611;   18.054;  -12.870;  598.800
1067.157;   18.776;  -12.950;  641.860
1067.703;   18.202;  -13.540;  668.480
1068.249;   18.430;  -13.540;  605.220
1068.794;   18.449;  -12.600;  626.880
1069.340;   17.134;  -10.620;  578.960
1069.886;   17.035;  -12.830;  590.700
1070.432;   16.673;  -14.870;  541.720
1070.977;   16.355;  -11.980;  601.080
1071.523;   17.090;   -8.200;  573.060
1072.068;   16.534;  -12.330;  582.000
1072.614;   16.600;  -16.370;  527.760
1073.160;   17.636;  -11.100;  687.040
1073.705;   16.386;  -10.480;  572.520
1074.250;   16.297;  -14.520;  559.900
1074.796;   17.381;  -11.460;  655.160
1075.341;   17.830;  -11.950;  664.100
1075.886;   16.858;  -11.460;  594.240
1076.431;   15.385;  -13.770;  649.880
1076.976;   15.711;  -12.680;  639.220
1077.521;   15.149;  -13.170;  583.080
1078.067;   15.363;  -10.860;  579.400
1078.612;   15.127;  -13.920;  661.620
1079.156;   15.678;  -13.880;  601.540
1079.701;   16.135;  -13.120;  693.260
1080.246;   15.991;   -9.940;  696.300
1080.791;   15.280;  -14.740;  625.020
1081.336;   15.645;  -13.750;  659.320
1081.880;   15.516;  -13.400;  649.680
1082.425;   14.845;  -12.220;  573.480
1082.970;   16.090;  -11.610;  717.040
1083.514;   14.230;  -13.580;  597.000
1084.059;   13.680;  -12.810;  586.720
1084.603;   13.698;  -12.320;  565.840
1085.147;   14.651;  -13.190;  645.220
1085.692;   14.687;  -12.480;  716.800
1086.236;   12.956;  -13.020;  503.140
1086.780;   15.460;   -9.190;  751.440
1087.325;   14.005;  -12.480;  654.620
1087.869;   14.658;  -12.450;  610.700
1088.413;   14.601;  -12.240;  705.040
1088.957;   12.682;   -9.020;  543.400
1089.501;   14.026;  -10.320;  766.640
1090.045;   13.721;  -12.720;  726.480
1090.589;   12.025;  -13.690;  569.920
1091.133;   12.928;  -10.020;  673.340
1091.676;   12.839;  -12.330;  591.940
1092.220;   11.773;  -14.970;  600.920
1092.764;   14.183;  -12.430;  706.960
1093.307;   13.823;   -9.800;  673.780
1093.851;   11.314;  -14.970;  556.540
1094.395;   12.808;  -15.310;  683.140
1094.938;   12.142;  -10.370;  632.520
1095.482;   12.887;  -11.050;  559.800
1096.025;   12.430;  -11.840;  710.880
1096.568;   12.579;  -12.840;  779.280
1097.112;   10.390;  -14.700;  508.180
1097.655;   12.030;   -8.720;  603.000
1098.198;   10.053;  -13.610;  600.180
1098.741;   10.064;  -13.350;  612.860
1099.285;   11.769;  -11.230;  657.300
1099.828;    9.867;  -11.840;  439.400
1100.371;   10.498;  -10.840;  608.160
1100.914;   10.696;  -14.190;  682.660
1101.457;   10.699;  -11.240;  679.900
1101.999;   10.939;  -11.270;  584.680
1102.542;   10.928;  -11.480;  641.440
1103.085;   10.377;  -11.750;  658.500
1103.628;   11.771;  -11.400;  762.060
1104.170;   10.281;  -10.490;  588.280
1104.713;   10.534;  -10.600;  646.700
1105.256;   10.001;  -14.360;  557.440
1105.798;    9.204;  -13.210;  499.980
1106.341;   12.084;  -10.270;  728.900
1106.883;    9.106;  -12.200;  521.340
1107.425;    9.814;  -13.110;  668.180
1107.968;    9.721;  -12.840;  612.380
1108.510;    9.930;   -6.480;  684.960
1109.052;    7.666;  -13.940;  612.620
1109.594;    8.555;  -13.690;  554.440
1110.136;    9.931;  -11.880;  643.220
1110.679;    8.755;   -9.500;  633.080
1111.221;    8.726;  -14.160;  604.460
1111.763;    7.957;  -13.980;  559.220
1112.304;    8.457;  -13.880;  547.140
1112.846;    9.180;  -12.210;  666.240
1113.388;   10.915;  -11.390;  942.180
1113.930;    8.070;  -14.540;  694.200
1114.472;    7.913;  -12.640;  606.540
1115.013;    6.871;  -11.620;  551.280
1115.555;    6.559;  -13.640;  587.100
1116.097;    7.288;  -15.380;  579.480
1116.638;    7.680;  -12.640;  684.600
1117.180;    8.569;   -9.850;  667.740
1117.721;    7.722;  -13.690;  568.580
1118.262;    7.661;  -12.680;  677.960
1118.804;    8.216;  -12.530;  637.340
1119.345;    6.877;  -11.690;  578.400
1119.886;    8.310;  -13.380;  704.040
1120.427;    6.437;  -14.070;  589.020
1120.969;    6.891;  -13.500;  597.920
1121.510;    6.349;  -11.480;  563.060
1122.051;    6.316;  -12.830;  723.580
1122.592;    6.088;  -14.290;  655.420
1123.133;    5.558;  -12.400;  547.940
1123.673;    6.595;  -10.130;  706.480
1124.214;    5.967;  -12.930;  612.460
1124.755;    6.513;  -14.380;  639.460
1125.296;    6.383;  -14.000;  627.320
1125.836;    7.236;  -10.070;  691.500
1126.377;    5.436;  -12.640;  599.660
1126.918;    6.053;  -12.960;  614.980
1127.458;    5.524;  -13.350;  622.220
1127.999;    6.582;  -10.750;  656.980
1128.539;    5.352;  -12.350;  694.240
1129.079;    4.565;  -14.860;  632.720
1129.620;    4.645;  -13.840;  558.100
1130.160;    4.878;  -12.330;  539.480
1130.700;    5.348;  -14.530;  640.840
1131.240;    5.648;  -12.530;  643.700
1131.781;    5.010;  -14.450;  619.680
1132.321;    4.528;   -9.790;  599.120
1132.861;    3.525;  -14.860;  564.200
1133.401;    3.608;  -14.290;  593.940
1133.941;    4.552;  -11.750;  626.280
1134.481;    4.558;   -9.920;  597.580
1135.020;    3.266;  -12.290;  609.160
1135.560;    4.172;  -11.650;  674.940
1136.100;    3.512;  -16.270;  501.160
1136.640;    3.912;  -10.890;  510.480
1137.179;    3.623;  -14.180;  537.960
1137.719;    4.344;  -16.250;  605.400
1138.258;    3.556;  -14.230;  587.360
1138.798;    4.537;   -9.090;  663.780
1139.337;    2.905;  -15.130;  482.840
1139.877;    3.763;  -13.680;  642.360
1140.416;    5.806;  -11.320;  878.060
1140.955;    3.368;  -10.860;  535.380
1141.494;    3.378;  -12.920;  669.280
1142.034;    2.675;  -13.930;  583.520
1142.573;    3.784;  -11.440;  646.280
1143.112;    3.066;  -12.000;  553.480
1143.651;    3.151;  -13.670;  536.480
1144.190;    4.475;  -12.730;  691.640
1144.729;    3.050;  -14.560;  607.420
1145.267;    3.303;  -11.830;  584.900
1145.806;    3.291;  -12.230;  637.040
1146.345;    2.280;  -14.130;  635.020
1146.884;    2.687;  -11.590;  622.500
1147.422;    1.809;  -12.550;  533.060
1147.961;    3.451;  -11.180;  708.460
1148.500;    3.299;  -11.510;  669.720
1149.038;    3.614;  -11.640;  632.500
1149.577;    2.879;  -10.130;  698.640
1150.115;    1.003;  -13.970;  452.280
1150.653;    1.831;  -14.520;  607.340
1151.192;    2.222;  -12.810;  552.920
1151.730;    2.794;   -9.100;  652.560
1152.268;    1.670;  -12.220;  589.520
1152.806;    1.902;  -14.140;  571.180
1153.344;    0.216;  -12.350;  577.640
1153.882;    2.114;   -8.980;  600.060
1154.421;   -0.749;  -15.190;  470.620
1154.958;    0.849;  -15.210;  595.240
1155.496;    2.461;  -12.850;  645.280
1156.034;    2.238;   -9.940;  721.880
1156.572;    2.909;  -13.570;  667.060
1157.110;   -0.241;  -14.590;  473.940
1157.647;    1.791;  -13.030;  676.960
1158.185;    0.915;  -12.140;  564.320
1158.723;   -0.695;  -14.390;  509.200
1159.260;    1.421;  -14.090;  701.700
1159.798;    1.668;  -11.920;  658.160
1160.335;    1.317;  -11.110;  631.820

