
Integration time [ms]:   3.276
Averaging Nr. [scans]: 1000
Smoothing Nr. [pixels]: 0
Data measured with spectrometer [name]: 7414430SP
Wave   ;Sample   ;Dark     ;Reference
[nm]   ;[counts] ;[counts] ;[counts] 

288.544;  158.023;    7.793;  793.890
289.143;  161.351;    7.462;  681.602
289.742;  162.930;    8.602;  828.814
290.341;  149.759;    1.321;  789.841
290.940;  140.216;   -0.709;  730.702
291.538;  141.095;    0.881;  881.108
292.137;  139.036;    0.122;  792.581
292.736;  141.683;   -1.929;  975.101
293.335;  138.940;   -8.229;  735.086
293.934;  138.265;   -5.279;  781.677
294.532;  138.979;   -1.369; 1031.958
295.131;  124.873;   -7.641;  834.394
295.730;  125.266;   -8.420;  809.588
296.328;  123.047;   -5.611;  783.442
296.927;  122.429;   -5.781;  779.652
297.525;  123.505;   -6.361;  781.236
298.124;  114.453;  -11.382;  654.009
298.722;  118.919;   -7.641;  761.933
299.321;  116.685;   -6.811;  708.597
299.919;  113.755;   -6.991;  751.918
300.518;  109.932;  -10.362;  689.338
301.116;  110.978;   -9.581;  691.381
301.715;  112.528;   -4.891;  730.222
302.313;  110.803;   -8.801;  704.943
302.911;  105.886;   -8.522;  733.830
303.509;  110.781;   -6.171;  925.627
304.108;  108.637;   -7.311;  760.383
304.706;  107.522;   -8.321;  801.664
305.304;  101.698;  -10.222;  796.707
305.902;  107.292;   -6.021;  784.484
306.500;  102.387;   -4.971;  728.200
307.098;  100.691;   -7.061;  746.560
307.696;   99.475;   -8.801;  780.432
308.294;   99.559;   -6.411;  731.359
308.892;  101.982;   -2.901;  759.769
309.490;   98.246;   -5.041;  712.161
310.088;   96.130;   -5.002;  788.444
310.686;   99.508;   -2.041;  821.749
311.284;   96.011;   -2.351;  766.040
311.882;   93.573;   -4.422;  731.225
312.480;   90.799;   -4.192;  697.167
313.078;   91.478;   -1.172;  808.331
313.675;   93.015;   -2.601;  691.600
314.273;   86.950;   -1.312;  797.837
314.871;   87.210;   -3.942;  589.829
315.468;   85.187;   -2.802;  652.090
316.066;   87.869;   -0.701;  694.427
316.664;   81.185;   -4.362;  656.351
317.261;   84.692;   -2.872;  910.128
317.859;   79.730;   -2.022;  768.735
318.456;   80.443;   -0.531;  830.096
319.054;   76.515;   -3.912;  787.828
319.651;   75.057;   -4.752;  759.928
320.249;   73.980;   -2.602;  810.188
320.846;   71.666;   -0.821;  714.286
321.443;   69.004;   -4.642;  832.135
322.041;   66.046;   -5.002;  812.315
322.638;   62.930;   -3.982;  701.456
323.235;   64.459;   -3.411;  665.683
323.833;   62.100;   -7.361;  740.354
324.430;   56.784;   -8.611;  615.900
325.027;   57.421;   -4.061;  876.855
325.624;   56.815;   -4.031;  644.532
326.221;   55.425;   -7.481;  689.717
326.818;   53.396;   -5.281;  818.332
327.415;   56.582;   -7.460;  748.828
328.012;   55.430;   -5.510;  690.585
328.609;   54.270;   -7.880;  731.389
329.206;   52.106;   -8.331;  778.621
329.803;   51.268;   -5.121;  737.841
330.400;   54.778;   -4.510;  704.260
330.997;   56.774;   -6.441;  817.147
331.594;   55.428;   -8.831;  788.185
332.191;   60.214;   -7.621;  728.722
332.787;   63.233;   -4.591;  844.463
333.384;   63.040;   -7.412;  763.093
333.981;   61.706;   -8.293;  815.687
334.578;   65.317;   -7.052;  708.378
335.174;   67.544;   -3.102;  731.469
335.771;   67.075;   -5.943;  836.456
336.367;   64.487;   -7.393;  710.631
336.964;   67.348;   -4.063;  793.266
337.561;   65.813;   -3.813;  731.112
338.157;   61.971;   -4.654;  911.916
338.754;   60.254;   -7.934;  796.589
339.350;   58.437;   -4.414;  722.493
339.946;   59.353;   -4.664;  773.135
340.543;   52.163;   -6.375;  846.136
341.139;   45.885;   -9.815;  720.836
341.735;   42.784;   -4.526;  772.593
342.332;   42.045;   -4.895;  691.472
342.928;   41.336;   -4.295;  795.394
343.524;   36.016;   -5.476;  761.684
344.120;   31.454;   -5.856;  738.562
344.716;   34.983;   -2.155;  723.717
345.313;   32.480;   -6.275;  795.342
345.909;   27.647;   -8.815;  627.336
346.505;   28.678;   -5.305;  740.247
347.101;   29.242;   -2.674;  827.864
347.697;   29.419;   -4.344;  785.398
348.293;   23.891;   -9.975;  627.244
348.889;   24.482;   -5.774;  745.914
349.485;   24.053;   -5.004;  688.205
350.081;   24.853;   -4.704;  772.592
350.676;   19.730;   -6.635;  691.606
351.272;   24.276;   -4.504;  809.530
351.868;   24.122;   -3.914;  780.497
352.464;   21.107;   -9.044;  723.932
353.059;   16.912;   -8.314;  646.017
353.655;   20.950;   -7.024;  777.063
354.251;   21.496;   -5.343;  759.845
354.846;   15.870;   -8.604;  740.646
355.442;   14.401;   -6.945;  753.071
356.038;   15.886;   -7.564;  751.708
356.633;   16.092;   -5.814;  728.594
357.229;   13.985;   -7.364;  724.757
357.824;   12.420;   -8.024;  703.600
358.420;   11.292;   -9.384;  679.726
359.015;   12.413;   -5.104;  695.357
359.610;   12.891;   -6.854;  763.920
360.206;    6.644;  -10.185;  603.240
360.801;    9.187;   -7.054;  646.503
361.396;   11.796;   -5.034;  725.975
361.992;    7.300;   -8.284;  668.220
362.587;    3.978;   -8.625;  670.160
363.182;    6.056;   -7.674;  689.631
363.777;    7.104;   -5.164;  738.242
364.372;    6.119;   -8.604;  737.314
364.967;    2.652;   -9.055;  680.744
365.563;    7.441;   -6.114;  815.567
366.158;    3.741;   -5.814;  685.161
366.753;    5.480;   -7.854;  649.263
367.348;    2.740;   -7.804;  746.056
367.942;    2.289;   -7.954;  697.298
368.537;    1.627;   -4.984;  754.245
369.132;    2.310;   -8.564;  703.428
369.727;   -1.773;   -8.855;  638.079
370.322;   -0.632;   -6.245;  580.186
370.917;   -1.463;   -6.425;  710.646
371.511;    0.847;   -6.294;  861.834
372.106;   -2.694;   -7.685;  776.964
372.701;   -5.854;   -7.335;  585.988
373.296;   -0.242;   -4.564;  863.135
373.890;   -4.021;  -10.235;  647.840
374.485;   -7.053;   -7.885;  691.199
375.079;   -3.050;   -7.324;  738.685
375.674;   -1.985;   -3.494;  812.970
376.268;   -5.328;   -8.525;  691.759
376.863;  -11.053;  -10.086;  580.327
377.457;   -5.573;   -7.025;  662.490
378.052;   -7.409;   -3.585;  764.884
378.646;   -8.059;   -7.595;  741.167
379.240;   -8.419;   -8.335;  721.176
379.835;   -7.857;   -5.785;  636.978
380.429;   -9.131;   -4.335;  562.557
381.023;   -9.800;   -6.805;  779.205
381.617;  -11.353;   -9.195;  680.106
382.212;   -8.830;   -6.905;  685.303
382.806;   -8.236;   -3.745;  760.690
383.400;  -11.293;   -7.745;  672.281
383.994;  -12.786;   -9.765;  664.870
384.588;   -9.706;   -6.564;  697.701
385.182;   -8.033;   -5.344;  726.624
385.776;   -9.377;   -8.514;  706.875
386.370;  -12.599;   -9.555;  681.968
386.964;  -12.076;   -8.715;  684.155
387.558;  -10.106;   -6.174;  598.360
388.152;  -13.389;   -8.725;  681.959
388.745;  -11.427;   -7.965;  814.707
389.339;   -9.937;   -5.924;  747.642
389.933;   -9.613;   -5.524;  695.370
390.527;  -10.603;   -7.114;  859.029
391.120;  -16.172;  -10.725;  595.318
391.714;  -13.676;   -8.035;  711.633
392.308;  -10.615;   -3.574;  780.253
392.901;  -13.619;   -7.245;  642.460
393.495;  -15.636;   -9.285;  595.414
394.089;  -13.963;   -5.895;  760.452
394.682;  -14.664;   -4.295;  697.188
395.275;  -14.869;   -9.875;  719.927
395.869;  -16.330;   -8.485;  667.314
396.462;  -14.866;   -7.455;  616.609
397.056;  -10.520;   -5.424;  776.621
397.649;  -15.206;   -6.605;  731.575
398.242;  -12.540;   -8.224;  712.645
398.836;  -12.107;   -7.474;  766.408
399.429;  -13.320;   -7.094;  631.041
400.022;  -16.602;   -9.475;  665.902
400.615;  -14.530;   -7.145;  805.609
401.208;  -12.150;   -7.174;  691.451
401.802;  -14.028;   -5.515;  699.329
402.395;  -15.282;   -9.875;  683.502
402.988;  -17.018;   -8.845;  696.627
403.581;  -13.496;   -8.874;  646.878
404.174;  -10.917;   -5.324;  686.568
404.767;  -14.846;   -9.575;  638.583
405.360;  -16.892;  -10.965;  621.445
405.953;  -11.713;   -8.764;  759.034
406.545;  -10.750;   -7.514;  725.342
407.138;  -14.753;  -10.025;  618.350
407.731;  -13.364;  -10.034;  613.303
408.324;   -9.835;   -9.374;  660.554
408.917;  -10.922;   -6.534;  681.864
409.509;  -12.524;   -8.004;  740.396
410.102;  -14.689;   -9.875;  643.948
410.695;   -8.867;   -8.604;  665.758
411.287;   -9.419;   -6.794;  599.821
411.880;  -11.172;   -9.334;  585.421
412.472;  -14.261;  -10.254;  613.092
413.065;  -11.290;   -6.714;  629.408
413.657;   -8.769;   -7.234;  576.678
414.250;   -9.166;  -10.544;  646.681
414.842;  -10.621;   -9.744;  676.353
415.434;   -9.058;   -6.994;  570.463
416.027;   -4.811;   -5.893;  652.196
416.619;   -6.746;   -7.264;  713.400
417.211;   -7.065;  -10.374;  599.352
417.804;   -4.270;   -7.993;  628.499
418.396;   -7.905;   -7.234;  607.643
418.988;   -5.075;   -9.443;  659.238
419.580;   -8.226;  -10.724;  568.276
420.172;   -7.332;  -10.323;  536.196
420.764;   -2.178;   -8.793;  672.482
421.356;   -3.433;  -11.143;  636.898
421.948;   -4.515;   -8.293;  677.661
422.540;    0.449;   -7.893;  680.027
423.132;    0.145;   -7.082;  600.641
423.724;   -3.620;   -8.653;  561.267
424.316;   -1.094;  -10.213;  621.345
424.908;    2.305;   -9.762;  591.517
425.500;    2.640;   -5.572;  647.978
426.092;    3.322;   -8.422;  648.268
426.683;    1.427;   -9.283;  684.836
427.275;    4.735;   -7.852;  641.471
427.867;    6.404;   -5.272;  668.948
428.458;    7.338;   -7.682;  732.344
429.050;    5.473;  -10.612;  680.749
429.642;    7.690;   -9.882;  743.124
430.233;    8.524;   -6.962;  569.356
430.825;    9.015;   -6.842;  724.809
431.416;    7.298;   -9.672;  698.241
432.008;    9.896;   -6.552;  651.723
432.599;   10.768;   -6.891;  656.073
433.190;    8.400;  -10.912;  637.670
433.782;    7.337;  -11.172;  590.395
434.373;   14.256;   -6.061;  884.765
434.964;   13.664;   -8.251;  602.920
435.556;   11.726;   -9.722;  634.537
436.147;   13.739;   -9.082;  758.490
436.738;   13.588;   -8.041;  701.099
437.329;   18.919;   -7.341;  721.723
437.920;   11.978;   -8.162;  666.688
438.511;   11.902;  -11.802;  564.526
439.103;   18.689;  -10.191;  623.998
439.694;   20.445;   -7.601;  681.583
440.285;   20.806;   -8.541;  764.432
440.876;   19.402;   -9.751;  845.738
441.466;   18.667;   -9.401;  575.162
442.057;   23.621;   -7.760;  665.814
442.648;   22.495;   -9.971;  746.255
443.239;   21.147;  -11.001;  620.477
443.830;   26.557;   -7.990;  704.958
444.421;   27.608;   -7.910;  655.474
445.011;   23.842;   -8.131;  693.619
445.602;   23.956;   -7.111;  743.126
446.193;   25.566;  -10.920;  488.117
446.783;   30.089;   -6.500;  640.397
447.374;   25.268;   -8.671;  692.759
447.964;   26.002;  -10.781;  713.770
448.555;   34.663;   -9.650;  822.742
449.145;   30.901;   -8.660;  662.853
449.736;   31.839;   -8.990;  803.179
450.326;   32.146;   -9.500;  713.626
450.917;   36.788;   -8.680;  675.324
451.507;   35.474;   -7.520;  600.661
452.097;   36.549;   -8.590;  746.267
452.688;   37.477;  -11.340;  742.160
453.278;   37.494;  -10.100;  566.840
453.868;   42.333;   -6.019;  793.550
454.458;   39.579;   -9.440;  651.141
455.048;   40.011;  -10.560;  711.783
455.639;   41.747;  -11.799;  567.096
456.229;   44.701;   -6.899;  710.694
456.819;   46.521;   -7.389;  751.158
457.409;   46.966;  -11.119;  773.993
457.999;   49.696;   -9.289;  737.505
458.589;   49.328;   -6.139;  686.606
459.179;   49.603;   -8.729;  717.658
459.769;   47.332;   -9.789;  627.099
460.358;   52.994;  -10.259;  797.262
460.948;   52.290;   -7.299;  689.503
461.538;   54.786;  -10.289;  660.677
462.128;   52.209;  -11.269;  664.934
462.717;   58.509;   -9.368;  710.326
463.307;   61.229;   -7.908;  705.846
463.897;   57.863;   -9.599;  656.942
464.486;   56.278;   -9.769;  837.128
465.076;   61.757;   -8.048;  733.776
465.666;   64.777;   -9.358;  652.900
466.255;   62.209;   -7.919;  785.651
466.845;   61.585;  -11.689;  666.749
467.434;   64.930;   -7.818;  725.873
468.023;   66.033;   -7.678;  658.357
468.613;   62.705;  -10.939;  713.946
469.202;   68.088;  -10.118;  646.507
469.791;   72.250;   -9.108;  737.811
470.381;   73.485;   -6.058;  742.813
470.970;   73.413;  -10.428;  711.099
471.559;   73.134;  -10.268;  733.291
472.148;   76.437;   -8.448;  675.737
472.738;   78.727;   -6.917;  765.466
473.327;   79.063;  -11.978;  637.529
473.916;   78.717;  -11.888;  737.446
474.505;   82.719;   -9.437;  751.703
475.094;   85.319;   -6.747;  806.570
475.683;   83.744;   -9.367;  797.699
476.272;   85.513;  -12.637;  730.632
476.861;   88.612;  -10.027;  706.754
477.449;   94.801;   -8.716;  728.487
478.038;   88.617;   -9.577;  692.513
478.627;   90.785;   -9.718;  714.852
479.216;   96.133;   -8.947;  769.441
479.805;   98.993;   -6.256;  783.375
480.393;   98.792;   -7.937; 1008.945
480.982;   99.266;   -7.717;  874.501
481.571;  104.678;   -9.266;  858.333
482.159;  105.827;   -7.636;  705.386
482.748;  105.051;   -9.667;  821.385
483.336;  110.843;  -10.376;  858.209
483.925;  111.069;   -7.147;  774.373
484.513;  117.539;   -7.996;  758.962
485.102;  115.059;  -10.027;  810.965
485.690;  122.656;  -10.446; 1011.050
486.278;  124.534;   -8.446;  979.329
486.867;  125.093;   -6.356;  809.662
487.455;  127.781;   -9.136;  898.229
488.043;  128.573;  -10.646;  748.361
488.631;  137.986;   -7.456; 1005.079
489.220;  141.540;   -6.636;  908.626
489.808;  142.179;  -11.036;  741.415
490.396;  150.372;  -10.246;  914.645
490.984;  156.348;   -8.556;  830.161
491.572;  168.149;   -5.886;  940.315
492.160;  174.844;   -9.486;  919.081
492.748;  184.973;  -10.976;  884.341
493.336;  206.988;   -8.776; 1019.693
493.924;  235.180;   -5.465;  958.077
494.512;  270.956;   -9.986; 1066.638
495.100;  310.747;  -10.636; 1103.280
495.687;  372.827;  -10.885; 1206.373
496.275;  451.520;   -8.126; 1150.796
496.863;  534.043;  -10.586; 1281.171
497.451;  640.906;  -11.926; 1386.805
498.038;  746.022;  -10.885; 1556.729
498.626;  862.349;   -6.315; 1741.407
499.214; 1062.255;   -7.326; 2016.609
499.801; 1293.462;  -11.906; 2220.633
500.389; 1594.419;  -10.466; 2312.494
500.976; 1869.862;   -5.236; 2744.849
501.564; 2343.502;   -8.936; 3148.565
502.151; 2982.378;  -13.176; 3515.999
502.738; 3353.589;  -10.646; 3971.274
503.326; 3774.523;   -9.525; 4403.796
503.913; 4232.709;  -10.856; 5161.749
504.500; 4626.336;  -11.586; 5986.420
505.088; 5178.465;  -10.336; 6381.201
505.675; 6024.105;   -6.355; 6925.547
506.262; 6627.135;   -9.046; 7619.060
506.849; 6989.616;  -10.416; 8733.969
507.436; 7444.068;  -10.305; 9790.121
508.023; 7820.967;   -5.496; 9985.472
508.610; 7941.361;   -7.856;10434.618
509.197; 8917.608;  -10.097;11198.435
509.784;10225.638;  -10.886;12391.194
510.371;11694.350;   -9.315;13603.713
510.958;12753.695;   -9.936;14426.586
511.545;13248.656;   -9.326;15243.775
512.132;13472.628;  -10.075;15945.876
512.719;13965.579;   -7.796;16340.369
513.305;15116.343;  -10.606;18011.766
513.892;16736.102;  -11.486;19754.971
514.479;18093.910;   -9.126;20967.805
515.066;19486.244;   -6.026;22299.793
515.652;19699.014;   -8.466;22908.660
516.239;20299.418;  -10.886;23798.875
516.825;21597.277;  -11.496;25567.275
517.412;23087.457;   -5.796;28154.959
517.998;24320.615;  -10.506;28344.111
518.585;25145.340;  -10.076;27134.219
519.171;24718.277;   -8.315;27268.576
519.758;25331.709;   -8.596;28964.129
520.344;27652.105;   -8.466;30664.494
520.930;26664.738;  -11.006;32550.605
521.516;25339.297;  -10.495;35422.895
522.103;27040.129;   -5.526;38280.004
522.689;29165.303;   -8.746;37835.117
523.275;30113.328;  -11.376;37288.613
523.861;31647.023;  -11.156;37281.395
524.447;30971.924;   -8.135;37846.949
525.033;30670.203;   -7.896;38321.949
525.619;30076.479;  -12.476;38579.285
526.205;27983.145;   -9.516;40622.875
526.791;27066.813;   -6.926;42258.836
527.377;29021.158;   -8.346;42966.902
527.963;33640.836;   -8.717;42018.949
528.549;36882.828;  -11.016;42476.828
529.135;35949.609;   -8.536;41854.852
529.721;35863.684;   -9.666;41237.711
530.306;35048.840;  -10.066;41259.445
530.892;36059.961;  -11.356;41506.047
531.478;38324.406;   -6.596;43559.613
532.063;40458.492;   -8.836;47695.563
532.649;38589.703;  -10.047;50808.324
533.235;38280.402;   -9.746;51787.500
533.820;40560.895;   -6.566;52145.035
534.406;41918.160;  -10.817;51133.488
534.991;43480.023;   -9.416;49996.805
535.576;42135.824;   -9.036;48882.852
536.162;39635.563;   -6.156;46942.285
536.747;39902.387;  -11.607;45711.746
537.333;42172.848;  -11.787;48510.180
537.918;42791.445;  -12.437;50439.891
538.503;41824.496;   -7.196;50863.711
539.088;41271.070;  -10.556;50906.922
539.673;40096.570;   -8.767;52621.965
540.259;35175.156;  -10.026;52368.094
540.844;33429.188;   -7.416;50879.109
541.429;34050.855;   -9.467;52077.777
542.014;36459.832;   -9.527;52716.695
542.599;42714.383;   -9.946;52363.281
543.184;46204.688;   -7.927;53187.137
543.769;46974.246;   -9.297;54697.605
544.354;47362.379;  -10.127;53913.914
544.938;45004.852;   -9.267;49680.164
545.523;42970.082;   -6.506;47386.277
546.108;44873.023;   -9.787;49151.949
546.693;45969.453;  -11.587;51384.637
547.278;46526.629;  -10.986;51853.254
547.862;46688.477;   -8.206;51173.750
548.447;44460.875;  -10.067;51691.395
549.031;44491.320;   -9.637;52456.703
549.616;44946.777;   -9.926;52714.516
550.201;44115.066;   -6.347;52414.598
550.785;45254.641;   -7.917;52355.059
551.370;46411.910;  -10.867;54589.453
551.954;48574.184;   -9.047;58267.348
552.538;47776.664;   -7.827;59062.176
553.123;45949.227;  -10.287;58115.285
553.707;45055.273;  -12.178;56556.285
554.291;42252.070;   -8.717;56201.668
554.876;43403.301;   -7.457;55335.762
555.460;45537.539;  -10.387;54155.703
556.044;46971.457;   -9.618;53721.484
556.628;48068.598;  -11.567;53731.016
557.212;48800.496;   -8.097;54312.531
557.796;49991.672;  -11.077;53797.773
558.380;47817.742;  -11.108;56145.984
558.964;46212.117;   -9.057;57277.930
559.548;43841.309;   -6.977;56459.641
560.132;40418.297;  -11.457;54434.543
560.716;41526.590;  -11.378;54800.617
561.300;43534.453;   -9.577;57606.945
561.884;42083.793;   -7.127;58972.445
562.467;40511.160;   -7.118;57327.570
563.051;38966.254;  -13.358;54962.434
563.635;37039.164;  -10.178;52594.473
564.219;39211.977;   -7.837;50610.410
564.802;43114.176;  -11.398;49551.180
565.386;43534.484;  -12.788;48370.953
565.969;44744.262;   -9.077;48178.871
566.553;43412.742;   -6.207;49957.305
567.136;41548.613;   -8.568;50369.594
567.720;42791.168;  -11.868;49492.004
568.303;44002.574;   -8.268;50616.352
568.887;43379.746;   -8.698;50727.148
569.470;41417.645;   -6.808;51698.379
570.053;39196.121;  -13.188;52122.078
570.637;36758.457;  -12.037;52536.438
571.220;36707.176;   -8.577;51186.098
571.803;36880.258;   -8.498;51032.762
572.386;38754.102;  -10.498;49609.887
572.969;39529.438;   -9.388;48285.926
573.552;39970.895;   -8.338;47624.285
574.135;39241.980;   -8.518;45498.641
574.718;36578.973;  -13.628;41970.434
575.301;37004.129;  -10.893;41447.137
575.884;37429.285;   -8.158;40923.836
576.467;41063.348;  -10.328;45267.723
577.050;40654.281;  -13.058;48175.543
577.633;39595.855;   -9.458;47729.328
578.216;36286.395;   -8.928;47579.793
578.799;33865.297;   -9.358;47820.996
579.381;35261.883;  -11.388;48115.551
579.964;35899.934;  -11.718;47333.766
580.547;34575.781;   -8.588;46668.969
581.129;34856.781;   -8.859;44466.141
581.712;36719.434;  -10.729;44164.922
582.294;36607.066;  -11.118;46477.855
582.877;37271.563;   -5.218;48244.254
583.459;37452.555;   -8.679;47437.895
584.042;38706.891;  -10.709;46943.219
584.624;36429.805;  -11.669;46792.227
585.206;35308.414;   -8.218;46557.250
585.789;36725.715;  -10.569;45793.773
586.371;37243.590;  -11.859;43836.391
586.953;37709.996;  -10.719;42972.492
587.536;38950.570;   -7.198;42487.211
588.118;38432.484;   -8.720;42086.414
588.700;37402.102;  -10.439;43389.930
589.282;34728.016;   -9.198;43646.039
589.864;32615.455;   -9.199;43438.109
590.446;32412.689;  -11.319;43151.926
591.028;32005.088;  -11.159;42781.867
591.610;32546.293;  -11.779;42839.098
592.192;33571.371;   -7.668;42820.402
592.774;32494.391;  -11.949;40724.277
593.356;30517.096;  -12.129;39874.789
593.937;30269.738;  -10.669;39980.648
594.519;32925.145;   -6.509;42069.633
595.101;33060.645;  -10.849;42976.031
595.683;31837.566;  -11.679;44084.441
596.264;31133.488;   -9.049;43478.797
596.846;30638.566;   -8.849;43803.672
597.427;30814.584;   -9.570;42986.934
598.009;32729.416;  -12.620;42832.219
598.591;32830.094;  -10.039;42580.086
599.172;34906.508;  -10.369;43061.805
599.753;36761.719;   -9.140;41691.469
600.335;36183.367;  -11.430;40692.520
600.916;33532.508;   -9.939;39982.422
601.498;30547.109;   -8.479;40318.617
602.079;30378.357;  -10.920;40670.609
602.660;30064.330;  -11.480;41450.898
603.241;30700.387;  -11.699;41137.738
603.823;30843.904;   -9.579;38868.797
604.404;30361.084;  -10.620;38182.785
604.985;33195.230;  -10.450;38078.047
605.566;34153.371;   -9.129;38056.633
606.147;34968.285;   -7.510;37020.418
606.728;33601.410;  -10.660;37883.359
607.309;31858.096;  -11.740;38748.273
607.890;31846.303;   -9.759;38850.230
608.471;30461.648;   -8.250;37457.918
609.051;30363.592;   -9.240;36066.457
609.632;30255.428;  -12.120;35991.074
610.213;30026.141;   -9.110;37402.641
610.794;30943.703;   -8.030;38383.363
611.374;29583.342;   -8.110;40562.387
611.955;29427.961;  -13.560;38533.727
612.536;30381.598;  -11.400;36951.789
613.116;29916.273;   -8.070;37197.891
613.697;30648.342;  -10.830;38411.125
614.277;30224.156;  -11.641;38673.938
614.858;29626.900;  -13.310;37075.863
615.438;29596.840;   -7.460;35092.906
616.019;27768.748;   -7.601;33666.301
616.599;28579.723;  -12.020;34189.023
617.179;28463.227;  -11.780;36952.047
617.760;27597.275;   -8.570;39582.574
618.340;28394.906;  -11.471;38943.977
618.920;29137.111;  -11.170;37594.156
619.500;29899.629;  -11.071;37866.938
620.080;30279.705;   -7.750;37869.043
620.660;30508.070;  -12.711;36868.617
621.241;31228.049;  -10.211;36352.309
621.821;30776.502;  -10.961;35459.520
622.401;30848.979;   -7.720;35207.414
622.980;32674.377;   -8.981;35980.422
623.560;31277.277;   -9.331;37351.328
624.140;27056.090;   -9.850;34388.582
624.720;23331.805;   -7.451;32368.764
625.300;23068.160;   -9.070;32638.629
625.880;27142.230;  -12.601;34599.035
626.459;29910.246;  -11.751;36831.738
627.039;29591.209;   -9.281;38299.098
627.619;29033.846;   -8.801;38289.574
628.198;29593.152;  -12.071;37220.695
628.778;30496.814;   -9.461;37632.563
629.357;31267.412;   -8.491;38003.012
629.937;30887.162;   -9.721;38402.039
630.516;31432.313;   -9.951;37868.801
631.096;32234.525;  -11.731;35760.410
631.675;34316.418;   -8.572;35225.219
632.254;34452.785;  -11.282;35130.289
632.834;33434.973;  -13.322;35794.570
633.413;34195.152;  -10.301;35788.922
633.992;34216.352;   -8.582;34532.863
634.571;35203.707;   -8.352;33590.113
635.151;34302.379;  -11.912;34943.863
635.730;32140.576;  -10.511;35352.523
636.309;31811.936;   -7.731;35366.605
636.888;31265.096;   -9.952;36165.637
637.467;30721.172;  -11.672;37515.902
638.046;29245.418;   -8.901;39288.695
638.625;28610.998;   -7.912;38279.699
639.204;28011.900;  -10.022;37741.598
639.782;29463.125;  -12.252;38364.551
640.361;31620.896;  -10.041;36740.621
640.940;31384.570;  -11.161;34950.082
641.519;30738.918;   -9.701;34137.398
642.097;31610.033;  -11.271;35654.258
642.676;31553.375;   -8.651;35637.957
643.255;30608.977;   -8.711;36567.074
643.833;30316.682;   -9.581;37809.434
644.412;31027.977;  -13.711;37337.293
644.990;32288.551;  -11.811;37018.531
645.569;35088.258;   -9.411;36518.469
646.147;35641.344;  -10.291;36186.430
646.726;33790.344;  -12.401;36267.688
647.304;32249.381;  -10.411;36647.625
647.882;32921.250;   -9.651;39286.742
648.461;32756.932;   -9.631;39157.703
649.039;30247.193;  -11.881;35412.883
649.617;30053.992;   -9.661;34744.918
650.195;30649.027;   -9.301;35403.098
650.773;29977.074;  -10.511;35053.797
651.352;29800.828;  -11.521;33756.816
651.930;28567.275;  -12.211;31868.773
652.508;27656.961;   -9.171;33121.551
653.086;29043.436;   -9.371;33564.793
653.663;31293.873;  -13.161;34054.668
654.241;30171.748;  -13.031;35693.309
654.819;28298.082;   -9.371;36422.906
655.397;29004.484;  -10.511;38213.484
655.975;29331.201;  -10.371;39507.625
656.553;30093.096;  -10.051;39498.223
657.130;30871.895;  -10.061;40395.480
657.708;27909.484;   -9.561;39242.020
658.286;25443.135;  -11.511;38920.020
658.863;25818.322;  -10.261;40202.898
659.441;28511.322;   -7.531;39677.938
660.018;31177.412;   -9.501;40413.355
660.596;31855.264;  -13.301;39931.414
661.173;34642.465;  -11.211;39604.531
661.750;33821.199;   -9.951;39700.070
662.328;31070.488;   -9.390;39292.809
662.905;29747.609;  -11.330;38235.648
663.482;27063.811;   -9.050;36212.305
664.060;24685.326;   -8.240;35944.945
664.637;28405.551;  -10.050;35170.785
665.214;32784.402;  -11.760;34197.523
665.791;31724.719;  -10.530;34549.520
666.368;31685.916;   -9.690;35118.578
666.945;31977.104;   -9.320;36019.418
667.522;32549.525;  -11.860;36048.438
668.099;31446.736;  -10.770;36243.914
668.676;31800.344;   -6.260;35958.875
669.253;34178.047;   -7.000;37384.730
669.830;34319.551;  -10.190;36779.629
670.407;32989.820;   -9.550;35231.289
670.984;32260.131;   -9.260;35544.270
671.560;30988.117;   -9.280;35466.867
672.137;29682.412;  -11.810;34280.863
672.714;29785.393;  -11.490;34632.863
673.290;30366.164;   -7.740;35135.422
673.867;30607.475;  -10.660;36114.480
674.443;29927.170;  -12.230;36152.859
675.020;28470.576;  -10.450;35327.238
675.596;27220.859;   -9.260;35795.176
676.173;28259.215;  -10.780;35430.355
676.749;28951.615;  -13.690;33549.516
677.326;29843.313;  -11.980;32210.012
677.902;27957.398;   -8.630;32068.871
678.478;26282.100;  -10.730;32583.891
679.054;28067.680;  -10.520;32088.928
679.631;29444.760;  -11.920;30978.848
680.207;30644.523;   -7.490;33160.887
680.783;31974.533;   -9.860;35570.363
681.359;32449.557;  -13.380;36125.184
681.935;31099.998;  -12.480;35240.922
682.511;31818.227;   -7.900;34429.961
683.087;32599.414;   -7.710;34463.680
683.663;33275.469;  -11.480;34648.898
684.239;32863.543;  -14.090;34546.457
684.815;33761.793;   -7.560;35586.375
685.390;33706.770;   -9.910;35821.895
685.966;33368.047;  -11.159;35085.871
686.542;34120.668;  -11.169;34198.230
687.118;32682.559;   -5.959;32847.707
687.693;32717.775;  -10.329;32794.027
688.269;32254.633;  -12.059;33072.367
688.844;32645.951;  -10.909;33141.664
689.420;33521.879;   -8.019;33965.742
689.995;30259.697;   -8.399;34655.523
690.571;29656.086;  -10.949;33576.742
691.146;28957.520;   -9.619;32657.219
691.722;26916.744;   -8.999;32526.979
692.297;26085.520;  -11.589;33014.617
692.872;26907.609;  -11.739;34012.254
693.448;27145.852;  -11.059;34237.434
694.023;28915.076;  -10.139;34142.672
694.598;31069.516;   -9.029;34132.031
695.173;30891.453;  -13.319;34205.250
695.748;28319.744;  -10.169;32882.488
696.323;25770.838;   -8.339;32864.906
696.898;25483.186;   -8.169;33170.004
697.473;28766.367;  -12.309;32432.984
698.048;28534.041;  -10.989;31649.303
698.623;27506.391;   -9.329;30778.141
699.198;29154.654;   -9.849;31140.119
699.773;30516.941;  -12.329;31764.299
700.348;30573.195;  -10.389;31780.816
700.922;28762.080;   -9.269;32046.375
701.497;26831.707;   -9.329;32603.574
702.072;28263.164;  -10.789;34799.871
702.646;28110.508;  -10.839;35793.172
703.221;28719.320;   -9.099;35201.590
703.795;29197.939;  -10.939;34764.527
704.370;27959.697;  -12.859;34307.367
704.944;29559.232;  -11.559;33509.887
705.519;30707.920;   -7.939;31388.584
706.093;32485.348;  -10.499;31340.104
706.668;33232.809;  -11.289;32630.281
707.242;32185.926;  -11.509;32728.779
707.816;30758.086;   -9.639;32947.238
708.390;30359.070;  -11.429;33277.855
708.965;31455.873;  -11.869;33834.336
709.539;31451.016;  -11.689;33709.273
710.113;31111.494;  -10.478;33044.313
710.687;28623.730;  -10.228;31953.992
711.261;27993.371;  -13.698;30505.949
711.835;27697.889;  -13.378;30262.369
712.409;27045.963;   -9.698;31254.447
712.983;26261.904;  -11.898;32754.986
713.557;25048.982;  -15.138;34018.824
714.131;26542.141;  -14.098;34579.625
714.704;26835.117;   -9.958;33890.262
715.278;26056.803;  -10.028;33531.102
715.852;25101.781;  -11.148;33601.660
716.425;24713.895;   -9.068;33515.117
716.999;26433.076;  -10.038;33185.555
717.573;27041.064;   -9.798;33905.996
718.146;27999.797;  -12.378;35199.293
718.720;28512.242;  -11.918;35060.551
719.293;27669.705;   -8.088;34973.230
719.867;26727.428;  -10.888;36394.449
720.440;27171.240;  -11.938;36663.008
721.013;28717.955;  -12.818;35102.426
721.587;30254.334;  -10.298;33985.266
722.160;30272.215;  -10.048;33524.965
722.733;28536.289;  -12.108;32987.043
723.306;26666.840;  -10.818;33066.301
723.880;27217.217;   -8.908;33399.500
724.453;26064.520;   -9.878;33468.297
725.026;25601.545;  -11.188;33816.637
725.599;25966.059;  -11.678;32797.996
726.172;25829.559;   -9.618;33187.434
726.745;26988.270;   -8.258;35136.613
727.318;29526.873;  -12.978;35751.730
727.891;31299.035;  -12.148;35890.430
728.463;32701.564;   -8.968;34822.090
729.036;32953.785;  -10.188;32895.086
729.609;30555.707;  -11.788;31823.225
730.182;28506.139;  -11.788;31445.283
730.754;27618.682;  -10.268;32373.223
731.327;27329.203;   -9.998;33676.820
731.900;26389.623;  -12.228;33417.000
732.472;25429.018;  -13.848;31978.498
733.045;25219.627;   -8.698;30368.777
733.617;24513.563;  -10.607;30574.215
734.190;23130.145;  -11.507;31280.975
734.762;23761.547;  -13.647;31674.412
735.334;25277.430;   -9.767;31247.291
735.907;25648.229;   -9.897;29876.211
736.479;23437.695;  -11.637;29808.488
737.051;22562.127;   -9.567;30233.547
737.623;23451.289;   -8.187;31469.086
738.195;25375.170;  -11.187;31784.225
738.768;25855.381;  -12.337;32120.523
739.340;25244.236;  -12.227;32094.342
739.912;24838.893;  -11.057;31312.680
740.484;25607.098;  -10.207;31946.238
741.056;26687.865;  -10.047;32984.059
741.628;26342.305;  -13.627;33897.715
742.199;26834.373;   -7.177;33213.016
742.771;25094.848;  -10.797;31369.113
743.343;23772.873;  -11.997;31865.473
743.915;23966.980;  -12.867;32388.631
744.487;24542.906;   -7.617;31079.568
745.058;25747.459;   -9.557;30570.107
745.630;25519.900;   -9.877;29970.127
746.201;24455.889;  -14.177;29186.766
746.773;24117.154;   -9.237;28805.723
747.344;24253.857;   -9.847;29591.223
747.916;24280.113;  -11.657;31412.201
748.487;23960.725;  -10.587;32194.898
749.059;23956.707;   -8.707;32533.719
749.630;23184.451;  -10.537;32158.518
750.201;23417.543;  -11.687;30855.395
750.773;23496.615;  -11.647;28622.555
751.344;24561.490;   -7.147;28405.732
751.915;24324.518;   -9.757;28461.551
752.486;24019.396;  -12.427;27842.850
753.057;22635.570;  -12.227;27845.008
753.628;22252.734;  -10.417;27728.107
754.199;22261.504;  -11.767;27381.086
754.770;21500.342;  -11.187;25882.203
755.341;20846.244;  -10.507;25886.184
755.912;21070.949;   -9.387;26050.861
756.483;21592.225;  -10.647;26798.779
757.054;21425.369;  -11.837;27048.238
757.625;19714.777;  -12.716;26294.838
758.195;19034.047;   -9.666;26142.076
758.766;19950.293;   -8.656;26392.234
759.337;19822.623;  -12.856;26334.594
759.907;19141.330;  -13.366;27579.652
760.478;18292.748;   -8.576;28352.770
761.048;19010.473;  -10.526;27325.088
761.619;19641.434;  -11.116;26460.428
762.189;19222.842;  -12.136;26029.826
762.760;19215.590;   -9.456;26430.145
763.330;19505.160;   -7.136;26670.902
763.900;19534.398;  -11.786;26603.021
764.471;18791.574;  -11.546;25542.740
765.041;18455.154;   -8.096;24358.459
765.611;18498.217;   -8.876;23991.297
766.181;18470.482;  -12.196;24470.236
766.751;19216.730;  -11.636;24845.975
767.321;19436.795;  -10.156;24533.633
767.891;19324.479;  -11.766;24916.492
768.461;19066.793;  -14.936;24776.771
769.031;18278.738;  -12.356;24757.988
769.601;18028.127;   -7.526;24181.088
770.171;18303.977;  -10.766;23670.387
770.741;18727.863;  -13.176;22960.045
771.311;18355.662;  -10.616;22917.523
771.880;17102.947;   -9.576;23562.941
772.450;16598.840;  -10.336;24216.500
773.020;16849.041;  -13.516;24140.398
773.589;16726.307;  -13.466;24414.857
774.159;16268.565;   -8.686;23858.717
774.729;15676.722;   -9.476;22942.135
775.298;15585.451;  -13.666;22324.033
775.867;15500.334;  -11.716;21140.313
776.437;14940.997;   -9.906;20838.092
777.006;14837.021;  -12.166;20599.510
777.576;16171.329;  -12.356;20508.809
778.145;15571.297;  -11.646;20732.947
778.714;14187.009;   -8.226;21062.465
779.283;13614.707;   -9.556;20949.664
779.853;13435.828;  -14.116;20508.623
780.422;13687.202;  -11.506;20649.082
780.991;14149.785;   -9.556;21527.520
781.560;14883.063;   -9.095;22632.658
782.129;13831.412;  -12.135;23048.277
782.698;12544.608;  -10.865;23438.555
783.267;11950.399;   -9.335;23267.734
783.836;12350.775;  -11.045;22415.133
784.404;13097.914;  -13.865;20443.152
784.973;13332.220;  -13.095;19699.150
785.542;13250.669;  -11.575;19763.828
786.111;13034.671;   -9.705;20341.408
786.679;12841.145;  -12.105;20207.967
787.248;12605.974;  -12.455;19516.465
787.817;12537.498;  -11.535;18900.363
788.385;12389.366;   -9.765;17879.121
788.954;12232.911;  -14.005;17658.301
789.522;12109.719;  -11.955;17788.879
790.090;11300.465;  -10.135;18118.277
790.659;10395.438;  -10.975;18338.736
791.227;10423.506;  -13.375;18508.615
791.795;10802.659;  -12.375;17898.254
792.364;11051.733;  -10.725;17295.133
792.932;11393.914;   -9.715;16822.051
793.500;11120.694;  -12.675;17040.148
794.068;11363.018;  -13.495;17179.787
794.636;11356.861;  -10.885;16664.246
795.204;11002.480;  -11.045;16524.545
795.772;11048.404;  -13.175;17274.564
796.340;10834.295;  -12.445;17891.002
796.908;11022.420;   -9.735;17648.561
797.476;11466.131;   -9.815;17064.080
798.044;11245.970;  -13.985;16672.777
798.612;10770.922;  -13.115;17023.996
799.180; 9894.841;  -10.185;16561.615
799.747; 9555.713;   -9.055;15962.773
800.315; 9732.870;  -12.385;15296.992
800.883; 9067.688;  -15.035;14801.771
801.450; 8360.188;  -10.365;14534.430
802.018; 8073.633;   -9.855;14173.248
802.585; 7973.100;  -11.905;14029.547
803.153; 8115.732;  -11.585;13836.846
803.720; 7870.180;   -9.095;13567.324
804.287; 7788.706;   -9.135;13360.622
804.855; 7991.265;  -11.604;13681.981
805.422; 8380.150;  -11.794;13536.560
805.989; 8572.150;  -10.734;13355.958
806.556; 8472.185;  -10.444;13747.896
807.124; 8798.993;  -12.764;13987.376
807.691; 9266.379;  -12.964;14038.674
808.258; 9260.552;  -11.134;14120.152
808.825; 9226.793;   -9.854;13860.111
809.392; 8834.034;  -10.504;13268.790
809.959; 8123.768;  -13.054;12680.389
810.526; 7383.570;   -8.294;12427.308
811.093; 6665.058;   -8.394;12030.105
811.659; 6399.281;  -12.304;11653.664
812.226; 6533.685;  -13.944;11637.183
812.793; 6898.012;  -10.484;11611.521
813.360; 7032.786;  -10.144;11885.181
813.926; 7059.184;  -11.684;12770.539
814.493; 6950.364;  -13.644;12677.638
815.060; 6808.750;   -9.724;11974.336
815.626; 6969.896;   -9.854;11594.715
816.193; 7014.731;  -13.254;11579.474
816.759; 6388.841;  -13.204;11666.972
817.325; 5963.489;   -9.434;11325.530
817.892; 5827.311;  -10.134;11105.369
818.458; 5967.260;  -13.474;10843.928
819.024; 6424.069;  -11.854;10714.406
819.591; 6537.721;  -10.244;10469.165
820.157; 6279.684;  -10.704;10235.523
820.723; 6219.063;  -12.324;10847.563
821.289; 6103.109;   -9.444;11040.980
821.855; 6179.407;   -8.374;10357.100
822.421; 6506.979;  -10.234; 9978.918
822.987; 6458.943;  -13.294; 9754.177
823.553; 6114.341;  -10.884;10065.755
824.119; 5866.785;   -8.884;10036.294
824.685; 5405.982;   -6.784;10029.192
825.251; 5300.314;  -12.004;10199.230
825.816; 5087.088;  -11.474; 9820.189
826.382; 4914.615;   -9.174; 9297.248
826.948; 5185.684;   -9.214; 9381.347
827.513; 5573.918;  -10.774; 9450.726
828.079; 5670.231;  -11.924; 9472.444
828.645; 5500.882;  -10.543; 9292.643
829.210; 5397.969;  -10.533; 9065.341
829.776; 5303.050;  -10.753; 9132.620
830.341; 5439.661;  -10.173; 9092.878
830.906; 5466.059;  -10.743; 9078.557
831.472; 5250.331;  -11.113; 8534.535
832.037; 4931.155;  -10.603; 8677.874
832.602; 4834.718;  -13.323; 8628.692
833.167; 4647.161;  -10.823; 8879.031
833.733; 4545.676;  -10.113; 9189.790
834.298; 4424.822;  -13.583; 9052.608
834.863; 4617.386;  -12.703; 8895.087
835.428; 4863.277;  -10.523; 8824.266
835.993; 4830.048;   -6.963; 8845.385
836.558; 4814.681;  -10.763; 8888.563
837.123; 4975.723;   -9.903; 8966.582
837.688; 5363.120;   -9.913; 8617.860
838.253; 5429.181;  -10.283; 8590.699
838.817; 5104.674;  -12.963; 8443.797
839.382; 5016.266;  -14.243; 8799.356
839.947; 5177.442;  -10.733; 8810.595
840.511; 5193.075;   -9.383; 8796.394
841.076; 5026.546;  -12.563; 8347.231
841.641; 4867.381;  -12.953; 8224.330
842.205; 4716.837;   -7.043; 8223.349
842.770; 4509.948;   -8.163; 8622.107
843.334; 4660.175;  -12.503; 8410.386
843.898; 4820.817;  -11.693; 8337.465
844.463; 4401.467;  -10.203; 8506.283
845.027; 4080.795;   -9.533; 8280.962
845.591; 4116.107;  -13.443; 8231.141
846.156; 4204.470;  -13.143; 7969.179
846.720; 4029.446;   -9.433; 7768.278
847.284; 3907.576;  -11.033; 7630.957
847.848; 3872.491;  -10.403; 7472.395
848.412; 3719.297;  -11.553; 7437.394
848.976; 3652.843;   -8.393; 7674.592
849.540; 3630.049;   -8.713; 7836.011
850.104; 3628.470;  -12.463; 7913.669
850.668; 3721.961;  -12.973; 7694.508
851.232; 3700.921;  -10.793; 7756.887
851.796; 3723.305;  -10.662; 7926.545
852.359; 3810.167;  -13.082; 7827.844
852.923; 3774.330;  -12.192; 7641.163
853.487; 3773.408;  -11.912; 7342.501
854.050; 3629.200;  -10.892; 7042.820
854.614; 3676.375;  -13.992; 7151.338
855.177; 3728.133;  -11.732; 7105.077
855.741; 3592.505;   -8.962; 6989.675
856.304; 3432.149;   -9.442; 6596.634
856.868; 3281.332;  -14.192; 6356.272
857.431; 3222.083;  -12.702; 6468.571
857.995; 3243.976;   -9.942; 6373.210
858.558; 3338.924;   -9.112; 6324.448
859.121; 3247.294;  -12.932; 6408.327
859.684; 3131.887;  -13.442; 6347.886
860.247; 3103.754;  -10.632; 6321.264
860.810; 3057.929;  -11.272; 6301.903
861.374; 2956.328;   -9.832; 6607.881
861.937; 2840.834;  -11.762; 6408.200
862.500; 2824.982;   -9.722; 6572.639
863.062; 2795.194;  -10.512; 6387.297
863.625; 2784.303;  -11.232; 6190.836
864.188; 2824.649;  -14.112; 5807.254
864.751; 2827.701;  -11.302; 5682.413
865.314; 2704.671;  -10.112; 5547.492
865.876; 2521.544;  -12.182; 5500.150
866.439; 2350.117;  -10.722; 5415.909
867.002; 2235.516;   -9.252; 5501.567
867.564; 2285.187;   -9.572; 5413.946
868.127; 2333.022;  -13.142; 5160.325
868.689; 2417.844;  -12.902; 5133.183
869.252; 2525.026;   -9.732; 5252.382
869.814; 2443.720;   -9.432; 5297.141
870.377; 2337.528;  -11.552; 5390.919
870.939; 2330.072;   -9.052; 5599.898
871.501; 2274.295;  -10.982; 5248.336
872.063; 2171.676;  -12.292; 4854.235
872.626; 2113.448;  -14.912; 4817.074
873.188; 2021.641;  -13.112; 4987.732
873.750; 2002.771;  -13.442; 4868.651
874.312; 1987.235;   -9.402; 4779.330
874.874; 1936.667;  -11.062; 4866.348
875.436; 1798.535;  -13.931; 4718.887
875.998; 1659.139;   -9.561; 4660.005
876.560; 1643.330;  -11.321; 4462.964
877.122; 1754.551;  -12.221; 4145.042
877.683; 1992.333;  -12.191; 4056.481
878.245; 2188.287;  -12.101; 3950.740
878.807; 2294.293;   -8.971; 4058.958
879.369; 2076.053;  -12.071; 3954.677
879.930; 1559.306;  -14.621; 3941.495
880.492; 1116.051;  -10.311; 4067.014
881.053;  932.797;  -10.901; 3859.633
881.615;  927.169;  -14.411; 3776.071
882.176;  966.515;  -13.761; 3734.750
882.738;  995.924;   -9.181; 3678.489
883.299; 1044.689;  -11.791; 3405.407
883.860; 1112.977;  -13.121; 3351.106
884.422; 1124.803;  -11.211; 3394.044
884.983; 1099.708;  -10.091; 3166.443
885.544; 1094.043;   -8.461; 3189.802
886.105; 1062.166;  -12.361; 3160.360
886.666; 1016.743;  -14.141; 3093.059
887.227;  994.965;  -11.361; 2941.957
887.788;  960.047;  -11.401; 2974.836
888.349;  881.401;  -13.791; 2721.214
888.910;  848.323;  -13.191; 2696.493
889.471;  822.427;   -9.881; 2560.172
890.032;  833.098;   -9.881; 2558.190
890.593;  829.402;  -10.371; 2567.669
891.153;  752.458;  -13.301; 2460.307
891.714;  656.613;  -11.431; 2372.046
892.275;  614.011;  -11.291; 2309.505
892.835;  626.397;  -11.471; 2382.543
893.396;  621.594;  -11.541; 2295.502
893.956;  599.310;  -11.181; 2162.420
894.517;  565.302;  -11.741; 2125.439
895.077;  518.002;  -11.671; 2086.978
895.638;  482.116;  -11.311; 2126.316
896.198;  472.893;   -9.831; 1838.275
896.758;  460.375;   -8.421; 1892.813
897.319;  437.556;  -12.351; 1792.232
897.879;  420.062;  -13.511; 1762.751
898.439;  392.176;  -12.001; 1661.149
898.999;  372.191;  -10.180; 1781.468
899.559;  369.089;  -12.030; 1703.347
900.119;  360.077;  -15.710; 1537.525
900.679;  344.726;   -8.900; 1638.384
901.239;  323.575;   -8.340; 1527.902
901.799;  298.348;  -13.910; 1456.441
902.359;  277.029;  -13.460; 1357.140
902.919;  269.560;  -11.490; 1331.118
903.479;  271.372;  -12.110; 1317.257
904.038;  267.385;  -11.720; 1262.595
904.598;  258.930;  -13.610; 1152.034
905.158;  247.067;  -11.040; 1240.893
905.717;  233.500;  -10.900; 1233.691
906.277;  224.669;  -15.080; 1217.330
906.836;  221.360;  -13.380; 1222.408
907.396;  218.394;  -10.780; 1193.047
907.955;  211.855;   -8.500; 1182.526
908.515;  207.047;  -12.760; 1099.364
909.074;  206.472;  -11.900; 1092.863
909.633;  206.674;   -8.950; 1069.121
910.192;  203.404;   -8.770; 1196.460
910.752;  194.820;  -12.390; 1029.960
911.311;  185.354;  -13.680; 1009.780
911.870;  175.024;  -12.370;  971.460
912.429;  168.924;  -10.900; 1094.080
912.988;  165.968;  -11.690; 1081.060
913.547;  160.813;  -13.240;  940.380
914.106;  157.726;  -11.990;  999.420
914.665;  154.958;   -9.990;  984.020
915.224;  153.190;  -12.880; 1035.760
915.782;  150.884;  -12.350;  922.560
916.341;  151.080;   -9.110; 1049.840
916.900;  149.302;   -9.270;  925.260
917.458;  148.936;  -13.240;  884.220
918.017;  147.700;  -13.550;  942.600
918.576;  145.514;  -12.320;  904.440
919.134;  144.576;  -11.490;  837.980
919.693;  143.479;  -13.670;  893.060
920.251;  143.047;  -15.470;  876.500
920.809;  142.440;  -11.290;  839.580
921.368;  142.097;  -10.210;  885.360
921.926;  140.112;  -12.140;  842.940
922.484;  137.490;  -13.080;  903.360
923.042;  135.956;  -11.720;  880.340
923.601;  136.801;   -7.480;  998.680
924.159;  134.730;  -11.570;  935.560
924.717;  133.008;  -13.840;  841.080
925.275;  133.166;  -10.640;  903.240
925.833;  131.541;  -11.540;  779.320
926.391;  133.902;  -12.960;  938.380
926.949;  133.746;  -14.130;  857.680
927.506;  132.997;  -11.750;  903.500
928.064;  132.508;  -10.250;  877.580
928.622;  132.422;  -13.030;  880.100
929.180;  135.174;  -13.400;  814.180
929.737;  136.104;  -10.700;  808.540
930.295;  139.664;  -10.070;  928.480
930.853;  139.622;  -11.960;  849.100
931.410;  139.988;  -13.120;  821.120
931.968;  141.591;  -10.770;  940.660
932.525;  142.037;  -10.680;  909.380
933.082;  141.656;  -13.130;  811.440
933.640;  142.018;  -13.210;  925.900
934.197;  141.965;  -11.060;  886.360
934.754;  141.796;   -9.580;  897.780
935.312;  142.873;  -14.000;  863.340
935.869;  145.021;  -10.710; 1012.980
936.426;  142.548;   -9.860;  872.800
936.983;  142.956;   -9.710;  889.020
937.540;  144.521;  -13.990;  838.280
938.097;  148.721;  -14.040;  940.120
938.654;  151.398;  -10.310;  898.860
939.211;  152.340;  -10.560;  952.480
939.768;  152.292;  -13.900;  915.420
940.324;  155.672;  -14.760;  904.200
940.881;  157.742;  -10.370;  878.500
941.438;  163.063;   -8.260; 1021.200
941.995;  162.052;  -12.540;  992.560
942.551;  161.548;  -14.670;  875.620
943.108;  163.638;  -10.450;  937.920
943.664;  163.342;  -10.750;  869.340
944.221;  166.459;  -11.550; 1088.140
944.777;  165.575;  -14.770;  869.680
945.334;  163.894;  -12.820;  884.840
945.890;  158.103;  -10.130;  946.480
946.446;  155.896;  -13.470;  947.020
947.003;  157.132;  -12.120;  964.940
947.559;  158.023;   -9.980; 1063.040
948.115;  154.500;   -9.080; 1026.540
948.671;  151.966;  -10.830;  967.300
949.227;  151.099;  -12.440;  859.560
949.783;  150.856;  -12.910;  858.900
950.339;  154.377;  -10.270;  991.000
950.895;  156.232;  -13.630; 1023.840
951.451;  155.411;  -15.100;  925.280
952.007;  154.397;  -11.330;  998.540
952.563;  150.654;  -10.580;  937.780
953.118;  147.502;  -13.440;  904.940
953.674;  146.405;  -12.710;  935.780
954.230;  149.002;  -10.350;  949.640
954.785;  153.134;   -9.190;  936.640
955.341;  154.955;  -11.200;  998.160
955.897;  149.982;  -16.560;  834.660
956.452;  147.759;  -12.570;  953.840
957.008;  145.039;   -7.970; 1083.640
957.563;  141.894;  -11.940; 1009.540
958.118;  138.010;  -13.450;  877.700
958.674;  135.881;  -12.030;  946.780
959.229;  136.916;   -9.410; 1013.980
959.784;  138.186;  -12.000;  832.400
960.339;  136.764;  -14.780; 1001.280
960.894;  135.186;   -9.860;  963.760
961.449;  131.734;   -9.970;  859.960
962.004;  132.010;  -10.900; 1212.840
962.559;  128.397;  -13.150;  860.140
963.114;  127.273;  -13.740;  742.480
963.669;  126.691;   -9.820;  915.500
964.224;  125.194;  -13.890;  874.340
964.779;  124.936;  -12.600;  828.420
965.334;  126.803;  -10.950; 1017.860
965.888;  125.204;  -11.170;  875.360
966.443;  124.932;  -12.540;  972.380
966.998;  122.206;  -15.780;  819.460
967.552;  121.386;   -9.760;  908.380
968.107;  119.220;   -9.060;  868.300
968.661;  118.907;  -11.950;  922.440
969.216;  116.416;  -12.800;  856.280
969.770;  115.292;  -11.210;  917.200
970.324;  114.973;  -11.610;  923.140
970.879;  115.376;  -11.370;  947.180
971.433;  117.712;  -12.540;  952.720
971.987;  116.224;  -11.320;  895.340
972.541;  114.195;  -10.720;  917.100
973.095;  113.166;   -9.680; 1009.460
973.649;  109.496;  -11.440;  809.480
974.203;  108.138;  -11.210;  829.040
974.757;  108.525;  -10.240;  855.220
975.311;  108.091;  -13.720;  872.600
975.865;  107.175;  -13.770;  881.820
976.419;  104.627;  -11.690;  857.400
976.973;  101.745;   -9.510;  849.620
977.526;  101.032;  -12.620;  949.920
978.080;   98.802;  -12.010;  796.780
978.634;   98.210;  -10.170;  921.320
979.187;   97.375;   -9.020;  905.400
979.741;   99.310;   -9.820; 1018.380
980.294;   96.480;  -14.870;  789.160
980.848;   94.957;  -12.380;  717.220
981.401;   95.420;  -10.350;  816.540
981.955;   93.822;  -13.720;  844.300
982.508;   90.728;  -11.490;  746.340
983.061;   89.140;  -10.000;  915.260
983.615;   87.598;  -11.480;  798.800
984.168;   86.419;  -13.220;  770.080
984.721;   86.003;  -13.960;  880.760
985.274;   83.438;  -10.870;  867.500
985.827;   81.988;   -9.790;  834.220
986.380;   79.795;  -13.120;  721.340
986.933;   79.231;  -12.450;  864.800
987.486;   77.891;  -10.210;  861.920
988.039;   78.701;   -8.430;  863.100
988.591;   77.614;  -10.520;  893.260
989.144;   75.540;  -14.860;  737.260
989.697;   73.121;  -13.080;  758.740
990.250;   74.055;  -10.150;  858.100
990.802;   71.895;  -13.430;  755.860
991.355;   70.965;  -12.750;  974.880
991.907;   69.103;  -12.040;  864.320
992.460;   67.240;  -11.330;  753.760
993.012;   66.794;  -13.610;  749.540
993.565;   64.408;  -13.460;  711.360
994.117;   65.664;   -9.360;  950.780
994.669;   62.753;  -11.300;  701.320
995.221;   61.452;  -13.540;  791.920
995.774;   60.940;  -13.430;  787.580
996.326;   58.601;  -12.520;  740.220
996.878;   58.309;  -10.950;  838.420
997.430;   56.374;  -14.300;  699.860
997.982;   55.833;  -13.760;  750.140
998.534;   54.422;  -11.530;  739.060
999.086;   54.121;  -10.310;  738.220
999.638;   53.517;  -12.530;  661.380
1000.190;   51.734;  -11.840;  699.320
1000.741;   51.321;  -10.260;  742.700
1001.293;   51.461;   -8.860;  686.020
1001.845;   50.654;  -13.700;  676.640
1002.396;   50.201;  -12.100;  743.400
1002.948;   48.893;  -12.760;  737.400
1003.500;   48.020;  -10.380;  723.780
1004.051;   47.737;  -11.900;  907.580
1004.603;   46.481;  -12.250;  791.820
1005.154;   43.051;  -13.210;  608.980
1005.705;   42.666;  -10.950;  723.960
1006.257;   42.846;  -13.880;  707.220
1006.808;   41.067;  -12.840;  685.460
1007.359;   41.544;  -10.570;  763.240
1007.910;   40.252;   -9.620;  646.640
1008.461;   40.298;  -13.630;  732.940
1009.013;   38.461;  -17.200;  588.340
1009.564;   40.080;  -10.200;  793.520
1010.115;   38.056;  -12.570;  597.040
1010.665;   37.043;  -15.150;  602.160
1011.216;   37.367;  -14.480;  667.920
1011.767;   38.100;  -11.340;  697.920
1012.318;   37.214;   -9.780;  736.980
1012.869;   36.368;  -12.380;  679.000
1013.419;   36.126;  -15.560;  603.120
1013.970;   36.444;  -11.010;  666.640
1014.521;   36.216;  -11.610;  620.620
1015.071;   36.206;  -13.450;  670.380
1015.622;   35.288;  -13.870;  635.460
1016.172;   33.634;  -11.610;  596.820
1016.723;   34.160;  -12.120;  614.380
1017.273;   34.137;  -13.620;  604.160
1017.823;   33.705;  -14.140;  650.340
1018.374;   33.171;  -12.800;  611.760
1018.924;   33.656;  -12.340;  716.880
1019.474;   34.458;  -11.410;  718.880
1020.024;   32.266;  -14.770;  657.580
1020.574;   33.269;   -9.780;  726.160
1021.124;   33.801;   -8.560;  673.580
1021.674;   31.960;  -15.190;  559.120
1022.224;   32.968;  -13.530;  708.940
1022.774;   32.556;  -13.280;  668.820
1023.324;   32.821;  -10.690;  753.520
1023.874;   33.582;  -10.240;  875.760
1024.423;   30.919;  -12.540;  613.700
1024.973;   31.033;  -10.010;  610.760
1025.523;   30.728;  -10.550;  620.960
1026.072;   30.010;  -13.560;  606.420
1026.622;   29.642;  -15.120;  675.740
1027.172;   30.840;  -11.260;  715.660
1027.721;   30.224;  -11.410;  601.220
1028.270;   30.138;  -13.530;  663.400
1028.820;   29.824;  -13.680;  638.080
1029.369;   29.997;  -13.520;  612.700
1029.918;   29.721;  -10.980;  649.840
1030.468;   29.683;  -13.530;  564.780
1031.017;   29.357;  -13.170;  634.800
1031.566;   28.879;  -12.200;  608.900
1032.115;   28.129;   -9.960;  694.500
1032.664;   28.071;  -13.210;  596.480
1033.213;   28.547;  -12.500;  735.420
1033.762;   28.122;  -11.910;  635.620
1034.311;   27.263;   -9.640;  677.220
1034.860;   27.873;  -13.310;  691.000
1035.408;   28.151;  -11.830;  722.720
1035.957;   28.096;  -12.000;  719.540
1036.506;   25.697;  -11.690;  530.800
1037.055;   28.730;  -10.990;  844.320
1037.603;   26.262;  -15.120;  664.000
1038.152;   25.107;  -12.450;  534.760
1038.700;   25.615;  -10.560;  585.740
1039.249;   26.784;  -11.080;  681.220
1039.797;   26.014;  -12.540;  633.360
1040.345;   25.692;  -11.920;  705.420
1040.894;   25.722;  -11.410;  625.300
1041.442;   25.893;  -14.320;  632.200
1041.990;   24.035;  -16.240;  559.160
1042.538;   24.123;  -11.680;  536.180
1043.087;   24.478;  -10.760;  570.860
1043.635;   25.246;  -11.850;  670.500
1044.183;   24.086;  -15.480;  586.400
1044.731;   23.626;  -11.770;  576.000
1045.279;   23.668;  -13.090;  674.920
1045.827;   25.925;  -12.440;  892.400
1046.374;   23.400;  -13.840;  515.420
1046.922;   22.008;  -13.220;  590.580
1047.470;   24.095;  -10.230;  691.300
1048.018;   23.843;  -14.590;  647.960
1048.565;   24.336;  -12.050;  708.600
1049.113;   22.361;  -11.650;  557.000
1049.660;   22.096;  -10.510;  629.660
1050.208;   23.206;  -13.310;  675.640
1050.755;   21.925;  -15.900;  606.580
1051.303;   22.436;  -11.430;  686.820
1051.850;   21.725;   -8.480;  635.120
1052.397;   20.217;  -15.010;  473.960
1052.945;   21.440;  -13.960;  617.760
1053.492;   22.483;  -13.150;  741.840
1054.039;   23.007;   -9.630;  720.180
1054.586;   20.987;  -13.680;  557.240
1055.133;   21.497;  -14.570;  693.140
1055.680;   21.209;  -13.820;  646.620
1056.227;   20.031;  -11.730;  542.780
1056.774;   22.322;  -12.480;  794.980
1057.321;   20.130;  -13.930;  523.260
1057.868;   20.483;  -11.690;  651.320
1058.415;   20.730;   -9.520;  651.980
1058.961;   21.482;  -13.160;  678.940
1059.508;   20.024;  -12.920;  643.820
1060.055;   19.907;  -11.920;  581.780
1060.601;   20.278;  -11.500;  624.300
1061.148;   19.510;  -14.330;  616.820
1061.694;   18.389;  -16.870;  592.580
1062.241;   19.494;  -10.330;  596.320
1062.787;   20.306;  -10.620;  663.140
1063.334;   20.892;  -10.110;  808.560
1063.880;   19.715;  -13.400;  668.360
1064.426;   19.172;  -10.680;  706.820
1064.972;   18.416;   -9.920;  601.340
1065.518;   17.500;  -10.980;  566.640
1066.065;   18.942;  -14.890;  624.460
1066.611;   17.545;  -12.870;  598.800
1067.157;   18.484;  -12.950;  641.860
1067.703;   18.122;  -13.540;  668.480
1068.249;   17.724;  -13.540;  605.220
1068.794;   17.525;  -12.600;  626.880
1069.340;   16.493;  -10.620;  578.960
1069.886;   17.734;  -12.830;  590.700
1070.432;   16.170;  -14.870;  541.720
1070.977;   16.648;  -11.980;  601.080
1071.523;   16.227;   -8.200;  573.060
1072.068;   16.473;  -12.330;  582.000
1072.614;   16.952;  -16.370;  527.760
1073.160;   17.584;  -11.100;  687.040
1073.705;   15.744;  -10.480;  572.520
1074.250;   15.180;  -14.520;  559.900
1074.796;   16.354;  -11.460;  655.160
1075.341;   16.075;  -11.950;  664.100
1075.886;   15.881;  -11.460;  594.240
1076.431;   15.690;  -13.770;  649.880
1076.976;   15.344;  -12.680;  639.220
1077.521;   14.965;  -13.170;  583.080
1078.067;   14.146;  -10.860;  579.400
1078.612;   15.597;  -13.920;  661.620
1079.156;   15.550;  -13.880;  601.540
1079.701;   15.620;  -13.120;  693.260
1080.246;   16.055;   -9.940;  696.300
1080.791;   15.051;  -14.740;  625.020
1081.336;   14.917;  -13.750;  659.320
1081.880;   14.568;  -13.400;  649.680
1082.425;   13.795;  -12.220;  573.480
1082.970;   15.557;  -11.610;  717.040
1083.514;   14.085;  -13.580;  597.000
1084.059;   13.337;  -12.810;  586.720
1084.603;   12.844;  -12.320;  565.840
1085.147;   13.933;  -13.190;  645.220
1085.692;   14.609;  -12.480;  716.800
1086.236;   12.888;  -13.020;  503.140
1086.780;   14.524;   -9.190;  751.440
1087.325;   13.837;  -12.480;  654.620
1087.869;   13.313;  -12.450;  610.700
1088.413;   13.320;  -12.240;  705.040
1088.957;   11.637;   -9.020;  543.400
1089.501;   13.572;  -10.320;  766.640
1090.045;   12.946;  -12.720;  726.480
1090.589;   11.361;  -13.690;  569.920
1091.133;   12.747;  -10.020;  673.340
1091.676;   12.600;  -12.330;  591.940
1092.220;   12.298;  -14.970;  600.920
1092.764;   12.587;  -12.430;  706.960
1093.307;   12.127;   -9.800;  673.780
1093.851;   11.253;  -14.970;  556.540
1094.395;   12.038;  -15.310;  683.140
1094.938;   11.378;  -10.370;  632.520
1095.482;   11.451;  -11.050;  559.800
1096.025;   12.142;  -11.840;  710.880
1096.568;   12.513;  -12.840;  779.280
1097.112;    9.728;  -14.700;  508.180
1097.655;   11.266;   -8.720;  603.000
1098.198;   10.682;  -13.610;  600.180
1098.741;   10.161;  -13.350;  612.860
1099.285;   10.968;  -11.230;  657.300
1099.828;    9.595;  -11.840;  439.400
1100.371;   10.674;  -10.840;  608.160
1100.914;   10.228;  -14.190;  682.660
1101.457;    9.753;  -11.240;  679.900
1101.999;    8.640;  -11.270;  584.680
1102.542;    9.972;  -11.480;  641.440
1103.085;    9.353;  -11.750;  658.500
1103.628;   10.436;  -11.400;  762.060
1104.170;    9.917;  -10.490;  588.280
1104.713;   10.302;  -10.600;  646.700
1105.256;    9.227;  -14.360;  557.440
1105.798;    8.739;  -13.210;  499.980
1106.341;   10.235;  -10.270;  728.900
1106.883;    9.033;  -12.200;  521.340
1107.425;    8.498;  -13.110;  668.180
1107.968;    8.438;  -12.840;  612.380
1108.510;    9.335;   -6.480;  684.960
1109.052;    8.081;  -13.940;  612.620
1109.594;    8.228;  -13.690;  554.440
1110.136;    8.739;  -11.880;  643.220
1110.679;    7.789;   -9.500;  633.080
1111.221;    8.976;  -14.160;  604.460
1111.763;    8.115;  -13.980;  559.220
1112.304;    7.705;  -13.880;  547.140
1112.846;    7.762;  -12.210;  666.240
1113.388;   10.842;  -11.390;  942.180
1113.930;    7.704;  -14.540;  694.200
1114.472;    7.350;  -12.640;  606.540
1115.013;    5.672;  -11.620;  551.280
1115.555;    7.404;  -13.640;  587.100
1116.097;    6.309;  -15.380;  579.480
1116.638;    7.647;  -12.640;  684.600
1117.180;    7.245;   -9.850;  667.740
1117.721;    7.016;  -13.690;  568.580
1118.262;    7.971;  -12.680;  677.960
1118.804;    7.114;  -12.530;  637.340
1119.345;    6.353;  -11.690;  578.400
1119.886;    6.989;  -13.380;  704.040
1120.427;    6.370;  -14.070;  589.020
1120.969;    5.049;  -13.500;  597.920
1121.510;    6.112;  -11.480;  563.060
1122.051;    6.318;  -12.830;  723.580
1122.592;    5.460;  -14.290;  655.420
1123.133;    4.622;  -12.400;  547.940
1123.673;    6.384;  -10.130;  706.480
1124.214;    5.736;  -12.930;  612.460
1124.755;    5.980;  -14.380;  639.460
1125.296;    5.653;  -14.000;  627.320
1125.836;    6.041;  -10.070;  691.500
1126.377;    4.844;  -12.640;  599.660
1126.918;    5.292;  -12.960;  614.980
1127.458;    4.894;  -13.350;  622.220
1127.999;    5.405;  -10.750;  656.980
1128.539;    5.337;  -12.350;  694.240
1129.079;    4.689;  -14.860;  632.720
1129.620;    3.717;  -13.840;  558.100
1130.160;    4.120;  -12.330;  539.480
1130.700;    5.247;  -14.530;  640.840
1131.240;    5.385;  -12.530;  643.700
1131.781;    3.322;  -14.450;  619.680
1132.321;    4.252;   -9.790;  599.120
1132.861;    3.408;  -14.860;  564.200
1133.401;    3.291;  -14.290;  593.940
1133.941;    3.162;  -11.750;  626.280
1134.481;    2.613;   -9.920;  597.580
1135.020;    3.836;  -12.290;  609.160
1135.560;    4.060;  -11.650;  674.940
1136.100;    3.122;  -16.270;  501.160
1136.640;    2.940;  -10.890;  510.480
1137.179;    3.069;  -14.180;  537.960
1137.719;    3.751;  -16.250;  605.400
1138.258;    3.396;  -14.230;  587.360
1138.798;    3.587;   -9.090;  663.780
1139.337;    2.477;  -15.130;  482.840
1139.877;    3.679;  -13.680;  642.360
1140.416;    4.307;  -11.320;  878.060
1140.955;    1.741;  -10.860;  535.380
1141.494;    3.686;  -12.920;  669.280
1142.034;    2.337;  -13.930;  583.520
1142.573;    3.124;  -11.440;  646.280
1143.112;    2.572;  -12.000;  553.480
1143.651;    2.882;  -13.670;  536.480
1144.190;    2.647;  -12.730;  691.640
1144.729;    2.037;  -14.560;  607.420
1145.267;    2.093;  -11.830;  584.900
1145.806;    2.694;  -12.230;  637.040
1146.345;    1.791;  -14.130;  635.020
1146.884;    1.087;  -11.590;  622.500
1147.422;    1.700;  -12.550;  533.060
1147.961;    3.151;  -11.180;  708.460
1148.500;    3.232;  -11.510;  669.720
1149.038;    2.021;  -11.640;  632.500
1149.577;    2.233;  -10.130;  698.640
1150.115;    0.510;  -13.970;  452.280
1150.653;    1.608;  -14.520;  607.340
1151.192;    0.996;  -12.810;  552.920
1151.730;    1.403;   -9.100;  652.560
1152.268;    1.430;  -12.220;  589.520
1152.806;    1.056;  -14.140;  571.180
1153.344;   -0.071;  -12.350;  577.640
1153.882;    1.328;   -8.980;  600.060
1154.421;    0.675;  -15.190;  470.620
1154.958;   -0.382;  -15.210;  595.240
1155.496;    1.859;  -12.850;  645.280
1156.034;    0.565;   -9.940;  721.880
1156.572;    2.207;  -13.570;  667.060
1157.110;   -0.691;  -14.590;  473.940
1157.647;    0.547;  -13.030;  676.960
1158.185;   -0.136;  -12.140;  564.320
1158.723;   -0.504;  -14.390;  509.200
1159.260;    0.256;  -14.090;  701.700
1159.798;    1.318;  -11.920;  658.160
1160.335;    0.821;  -11.110;  631.820

