
Integration time [ms]:   3.276
Averaging Nr. [scans]: 1000
Smoothing Nr. [pixels]: 0
Data measured with spectrometer [name]: 7414430SP
Wave   ;Sample   ;Dark     ;Reference
[nm]   ;[counts] ;[counts] ;[counts] 

288.544;  158.285;    7.793;  793.890
289.143;  162.228;    7.462;  681.602
289.742;  162.360;    8.602;  828.814
290.341;  149.545;    1.321;  789.841
290.940;  140.047;   -0.709;  730.702
291.538;  140.669;    0.881;  881.108
292.137;  138.845;    0.122;  792.581
292.736;  142.899;   -1.929;  975.101
293.335;  138.991;   -8.229;  735.086
293.934;  138.771;   -5.279;  781.677
294.532;  139.009;   -1.369; 1031.958
295.131;  125.657;   -7.641;  834.394
295.730;  124.780;   -8.420;  809.588
296.328;  123.648;   -5.611;  783.442
296.927;  123.043;   -5.781;  779.652
297.525;  123.011;   -6.361;  781.236
298.124;  113.813;  -11.382;  654.009
298.722;  118.767;   -7.641;  761.933
299.321;  116.566;   -6.811;  708.597
299.919;  114.359;   -6.991;  751.918
300.518;  109.827;  -10.362;  689.338
301.116;  112.209;   -9.581;  691.381
301.715;  111.910;   -4.891;  730.222
302.313;  111.939;   -8.801;  704.943
302.911;  107.208;   -8.522;  733.830
303.509;  111.825;   -6.171;  925.627
304.108;  109.207;   -7.311;  760.383
304.706;  108.043;   -8.321;  801.664
305.304;  102.842;  -10.222;  796.707
305.902;  108.149;   -6.021;  784.484
306.500;  103.235;   -4.971;  728.200
307.098;  101.832;   -7.061;  746.560
307.696;  100.333;   -8.801;  780.432
308.294;  101.178;   -6.411;  731.359
308.892;  102.538;   -2.901;  759.769
309.490;   97.377;   -5.041;  712.161
310.088;   96.062;   -5.002;  788.444
310.686;  100.356;   -2.041;  821.749
311.284;   96.354;   -2.351;  766.040
311.882;   94.352;   -4.422;  731.225
312.480;   90.744;   -4.192;  697.167
313.078;   92.822;   -1.172;  808.331
313.675;   93.506;   -2.601;  691.600
314.273;   87.788;   -1.312;  797.837
314.871;   87.694;   -3.942;  589.829
315.468;   85.624;   -2.802;  652.090
316.066;   89.075;   -0.701;  694.427
316.664;   81.344;   -4.362;  656.351
317.261;   84.263;   -2.872;  910.128
317.859;   80.403;   -2.022;  768.735
318.456;   81.361;   -0.531;  830.096
319.054;   77.674;   -3.912;  787.828
319.651;   75.936;   -4.752;  759.928
320.249;   73.551;   -2.602;  810.188
320.846;   72.832;   -0.821;  714.286
321.443;   70.217;   -4.642;  832.135
322.041;   66.750;   -5.002;  812.315
322.638;   63.829;   -3.982;  701.456
323.235;   65.573;   -3.411;  665.683
323.833;   62.291;   -7.361;  740.354
324.430;   57.190;   -8.611;  615.900
325.027;   58.408;   -4.061;  876.855
325.624;   58.993;   -4.031;  644.532
326.221;   55.491;   -7.481;  689.717
326.818;   55.027;   -5.281;  818.332
327.415;   57.626;   -7.460;  748.828
328.012;   57.814;   -5.510;  690.585
328.609;   54.832;   -7.880;  731.389
329.206;   53.169;   -8.331;  778.621
329.803;   53.175;   -5.121;  737.841
330.400;   56.109;   -4.510;  704.260
330.997;   59.374;   -6.441;  817.147
331.594;   56.303;   -8.831;  788.185
332.191;   61.292;   -7.621;  728.722
332.787;   64.835;   -4.591;  844.463
333.384;   65.166;   -7.412;  763.093
333.981;   63.289;   -8.293;  815.687
334.578;   66.371;   -7.052;  708.378
335.174;   68.360;   -3.102;  731.469
335.771;   67.876;   -5.943;  836.456
336.367;   65.017;   -7.393;  710.631
336.964;   68.663;   -4.063;  793.266
337.561;   67.912;   -3.813;  731.112
338.157;   62.709;   -4.654;  911.916
338.754;   60.663;   -7.934;  796.589
339.350;   58.877;   -4.414;  722.493
339.946;   60.904;   -4.664;  773.135
340.543;   53.132;   -6.375;  846.136
341.139;   47.952;   -9.815;  720.836
341.735;   43.920;   -4.526;  772.593
342.332;   43.214;   -4.895;  691.472
342.928;   43.293;   -4.295;  795.394
343.524;   37.028;   -5.476;  761.684
344.120;   33.130;   -5.856;  738.562
344.716;   36.731;   -2.155;  723.717
345.313;   34.576;   -6.275;  795.342
345.909;   29.106;   -8.815;  627.336
346.505;   30.667;   -5.305;  740.247
347.101;   31.189;   -2.674;  827.864
347.697;   30.645;   -4.344;  785.398
348.293;   26.276;   -9.975;  627.244
348.889;   27.457;   -5.774;  745.914
349.485;   26.426;   -5.004;  688.205
350.081;   26.489;   -4.704;  772.592
350.676;   21.542;   -6.635;  691.606
351.272;   25.855;   -4.504;  809.530
351.868;   25.638;   -3.914;  780.497
352.464;   23.413;   -9.044;  723.932
353.059;   19.115;   -8.314;  646.017
353.655;   22.937;   -7.024;  777.063
354.251;   23.510;   -5.343;  759.845
354.846;   18.222;   -8.604;  740.646
355.442;   16.362;   -6.945;  753.071
356.038;   17.513;   -7.564;  751.708
356.633;   17.535;   -5.814;  728.594
357.229;   16.396;   -7.364;  724.757
357.824;   14.168;   -8.024;  703.600
358.420;   13.698;   -9.384;  679.726
359.015;   13.366;   -5.104;  695.357
359.610;   14.920;   -6.854;  763.920
360.206;    8.515;  -10.185;  603.240
360.801;   11.664;   -7.054;  646.503
361.396;   13.429;   -5.034;  725.975
361.992;    9.424;   -8.284;  668.220
362.587;    6.120;   -8.625;  670.160
363.182;    8.199;   -7.674;  689.631
363.777;    8.670;   -5.164;  738.242
364.372;    8.553;   -8.604;  737.314
364.967;    5.553;   -9.055;  680.744
365.563;    9.316;   -6.114;  815.567
366.158;    5.925;   -5.814;  685.161
366.753;    5.887;   -7.854;  649.263
367.348;    5.054;   -7.804;  746.056
367.942;    5.013;   -7.954;  697.298
368.537;    3.838;   -4.984;  754.245
369.132;    4.390;   -8.564;  703.428
369.727;    0.406;   -8.855;  638.079
370.322;    0.855;   -6.245;  580.186
370.917;    0.961;   -6.425;  710.646
371.511;    3.860;   -6.294;  861.834
372.106;   -0.060;   -7.685;  776.964
372.701;   -2.832;   -7.335;  585.988
373.296;    2.690;   -4.564;  863.135
373.890;   -1.586;  -10.235;  647.840
374.485;   -3.947;   -7.885;  691.199
375.079;   -0.379;   -7.324;  738.685
375.674;    0.527;   -3.494;  812.970
376.268;   -3.264;   -8.525;  691.759
376.863;   -9.219;  -10.086;  580.327
377.457;   -2.865;   -7.025;  662.490
378.052;   -4.187;   -3.585;  764.884
378.646;   -5.592;   -7.595;  741.167
379.240;   -6.796;   -8.335;  721.176
379.835;   -5.034;   -5.785;  636.978
380.429;   -7.438;   -4.335;  562.557
381.023;   -7.536;   -6.805;  779.205
381.617;  -10.133;   -9.195;  680.106
382.212;   -6.565;   -6.905;  685.303
382.806;   -4.470;   -3.745;  760.690
383.400;   -9.082;   -7.745;  672.281
383.994;   -9.610;   -9.765;  664.870
384.588;   -6.199;   -6.564;  697.701
385.182;   -4.561;   -5.344;  726.624
385.776;   -6.590;   -8.514;  706.875
386.370;  -10.237;   -9.555;  681.968
386.964;   -8.918;   -8.715;  684.155
387.558;   -6.893;   -6.174;  598.360
388.152;  -10.282;   -8.725;  681.959
388.745;   -8.437;   -7.965;  814.707
389.339;   -6.865;   -5.924;  747.642
389.933;   -6.971;   -5.524;  695.370
390.527;   -7.482;   -7.114;  859.029
391.120;  -13.220;  -10.725;  595.318
391.714;  -10.804;   -8.035;  711.633
392.308;   -7.146;   -3.574;  780.253
392.901;  -11.220;   -7.245;  642.460
393.495;  -13.394;   -9.285;  595.414
394.089;  -11.124;   -5.895;  760.452
394.682;  -11.300;   -4.295;  697.188
395.275;  -12.404;   -9.875;  719.927
395.869;  -12.704;   -8.485;  667.314
396.462;  -11.515;   -7.455;  616.609
397.056;   -7.378;   -5.424;  776.621
397.649;  -12.643;   -6.605;  731.575
398.242;   -9.943;   -8.224;  712.645
398.836;   -9.503;   -7.474;  766.408
399.429;  -10.386;   -7.094;  631.041
400.022;  -13.169;   -9.475;  665.902
400.615;  -11.574;   -7.145;  805.609
401.208;   -9.040;   -7.174;  691.451
401.802;  -11.095;   -5.515;  699.329
402.395;  -12.241;   -9.875;  683.502
402.988;  -13.880;   -8.845;  696.627
403.581;  -10.193;   -8.874;  646.878
404.174;   -7.756;   -5.324;  686.568
404.767;  -10.837;   -9.575;  638.583
405.360;  -13.544;  -10.965;  621.445
405.953;   -8.107;   -8.764;  759.034
406.545;   -7.861;   -7.514;  725.342
407.138;  -11.596;  -10.025;  618.350
407.731;  -10.520;  -10.034;  613.303
408.324;   -6.934;   -9.374;  660.554
408.917;   -7.103;   -6.534;  681.864
409.509;   -9.277;   -8.004;  740.396
410.102;  -11.164;   -9.875;  643.948
410.695;   -5.741;   -8.604;  665.758
411.287;   -6.116;   -6.794;  599.821
411.880;   -7.386;   -9.334;  585.421
412.472;  -10.698;  -10.254;  613.092
413.065;   -7.246;   -6.714;  629.408
413.657;   -5.274;   -7.234;  576.678
414.250;   -4.985;  -10.544;  646.681
414.842;   -7.048;   -9.744;  676.353
415.434;   -5.538;   -6.994;  570.463
416.027;   -0.966;   -5.893;  652.196
416.619;   -4.004;   -7.264;  713.400
417.211;   -3.990;  -10.374;  599.352
417.804;    0.166;   -7.993;  628.499
418.396;   -3.686;   -7.234;  607.643
418.988;   -0.999;   -9.443;  659.238
419.580;   -4.942;  -10.724;  568.276
420.172;   -3.313;  -10.323;  536.196
420.764;    1.136;   -8.793;  672.482
421.356;    0.335;  -11.143;  636.898
421.948;   -0.956;   -8.293;  677.661
422.540;    4.682;   -7.893;  680.027
423.132;    3.641;   -7.082;  600.641
423.724;    0.708;   -8.653;  561.267
424.316;    2.333;  -10.213;  621.345
424.908;    5.788;   -9.762;  591.517
425.500;    7.037;   -5.572;  647.978
426.092;    6.852;   -8.422;  648.268
426.683;    5.810;   -9.283;  684.836
427.275;    8.867;   -7.852;  641.471
427.867;   10.365;   -5.272;  668.948
428.458;   11.307;   -7.682;  732.344
429.050;    9.781;  -10.612;  680.749
429.642;   11.483;   -9.882;  743.124
430.233;   11.864;   -6.962;  569.356
430.825;   13.192;   -6.842;  724.809
431.416;   10.872;   -9.672;  698.241
432.008;   14.764;   -6.552;  651.723
432.599;   15.522;   -6.891;  656.073
433.190;   12.726;  -10.912;  637.670
433.782;   11.825;  -11.172;  590.395
434.373;   19.092;   -6.061;  884.765
434.964;   17.980;   -8.251;  602.920
435.556;   15.221;   -9.722;  634.537
436.147;   18.922;   -9.082;  758.490
436.738;   17.990;   -8.041;  701.099
437.329;   24.150;   -7.341;  721.723
437.920;   16.287;   -8.162;  666.688
438.511;   16.548;  -11.802;  564.526
439.103;   23.080;  -10.191;  623.998
439.694;   24.963;   -7.601;  681.583
440.285;   26.045;   -8.541;  764.432
440.876;   23.506;   -9.751;  845.738
441.466;   23.751;   -9.401;  575.162
442.057;   29.018;   -7.760;  665.814
442.648;   27.248;   -9.971;  746.255
443.239;   25.863;  -11.001;  620.477
443.830;   30.740;   -7.990;  704.958
444.421;   32.933;   -7.910;  655.474
445.011;   29.652;   -8.131;  693.619
445.602;   28.866;   -7.111;  743.126
446.193;   31.473;  -10.920;  488.117
446.783;   35.729;   -6.500;  640.397
447.374;   30.686;   -8.671;  692.759
447.964;   31.156;  -10.781;  713.770
448.555;   40.356;   -9.650;  822.742
449.145;   35.759;   -8.660;  662.853
449.736;   36.289;   -8.990;  803.179
450.326;   36.923;   -9.500;  713.626
450.917;   42.062;   -8.680;  675.324
451.507;   41.523;   -7.520;  600.661
452.097;   41.769;   -8.590;  746.267
452.688;   42.674;  -11.340;  742.160
453.278;   42.731;  -10.100;  566.840
453.868;   47.230;   -6.019;  793.550
454.458;   44.602;   -9.440;  651.141
455.048;   45.771;  -10.560;  711.783
455.639;   47.651;  -11.799;  567.096
456.229;   51.213;   -6.899;  710.694
456.819;   53.392;   -7.389;  751.158
457.409;   52.796;  -11.119;  773.993
457.999;   55.457;   -9.289;  737.505
458.589;   55.515;   -6.139;  686.606
459.179;   54.987;   -8.729;  717.658
459.769;   53.126;   -9.789;  627.099
460.358;   58.215;  -10.259;  797.262
460.948;   58.689;   -7.299;  689.503
461.538;   59.874;  -10.289;  660.677
462.128;   58.000;  -11.269;  664.934
462.717;   64.874;   -9.368;  710.326
463.307;   67.438;   -7.908;  705.846
463.897;   64.489;   -9.599;  656.942
464.486;   62.117;   -9.769;  837.128
465.076;   67.594;   -8.048;  733.776
465.666;   70.712;   -9.358;  652.900
466.255;   68.544;   -7.919;  785.651
466.845;   67.569;  -11.689;  666.749
467.434;   71.571;   -7.818;  725.873
468.023;   72.194;   -7.678;  658.357
468.613;   70.000;  -10.939;  713.946
469.202;   74.676;  -10.118;  646.507
469.791;   79.335;   -9.108;  737.811
470.381;   81.124;   -6.058;  742.813
470.970;   80.060;  -10.428;  711.099
471.559;   79.677;  -10.268;  733.291
472.148;   82.575;   -8.448;  675.737
472.738;   86.283;   -6.917;  765.466
473.327;   85.700;  -11.978;  637.529
473.916;   84.902;  -11.888;  737.446
474.505;   89.442;   -9.437;  751.703
475.094;   92.174;   -6.747;  806.570
475.683;   92.069;   -9.367;  797.699
476.272;   92.411;  -12.637;  730.632
476.861;   96.120;  -10.027;  706.754
477.449;  102.203;   -8.716;  728.487
478.038;   97.057;   -9.577;  692.513
478.627;   97.906;   -9.718;  714.852
479.216;  104.982;   -8.947;  769.441
479.805;  107.928;   -6.256;  783.375
480.393;  107.577;   -7.937; 1008.945
480.982;  106.748;   -7.717;  874.501
481.571;  113.389;   -9.266;  858.333
482.159;  114.433;   -7.636;  705.386
482.748;  114.166;   -9.667;  821.385
483.336;  118.622;  -10.376;  858.209
483.925;  120.036;   -7.147;  774.373
484.513;  127.016;   -7.996;  758.962
485.102;  124.324;  -10.027;  810.965
485.690;  132.743;  -10.446; 1011.050
486.278;  133.091;   -8.446;  979.329
486.867;  134.683;   -6.356;  809.662
487.455;  137.236;   -9.136;  898.229
488.043;  139.270;  -10.646;  748.361
488.631;  148.628;   -7.456; 1005.079
489.220;  152.605;   -6.636;  908.626
489.808;  152.793;  -11.036;  741.415
490.396;  162.023;  -10.246;  914.645
490.984;  167.619;   -8.556;  830.161
491.572;  180.261;   -5.886;  940.315
492.160;  188.300;   -9.486;  919.081
492.748;  199.217;  -10.976;  884.341
493.336;  222.193;   -8.776; 1019.693
493.924;  253.089;   -5.465;  958.077
494.512;  292.242;   -9.986; 1066.638
495.100;  336.881;  -10.636; 1103.280
495.687;  402.641;  -10.885; 1206.373
496.275;  488.354;   -8.126; 1150.796
496.863;  573.476;  -10.586; 1281.171
497.451;  689.326;  -11.926; 1386.805
498.038;  799.984;  -10.885; 1556.729
498.626;  928.430;   -6.315; 1741.407
499.214; 1144.342;   -7.326; 2016.609
499.801; 1391.580;  -11.906; 2220.633
500.389; 1713.304;  -10.466; 2312.494
500.976; 2011.072;   -5.236; 2744.849
501.564; 2518.946;   -8.936; 3148.565
502.151; 3204.928;  -13.176; 3515.999
502.738; 3612.738;  -10.646; 3971.274
503.326; 4041.349;   -9.525; 4403.796
503.913; 4512.127;  -10.856; 5161.749
504.500; 4994.412;  -11.586; 5986.420
505.088; 5597.906;  -10.336; 6381.201
505.675; 6508.168;   -6.355; 6925.547
506.262; 7122.795;   -9.046; 7619.060
506.849; 7521.800;  -10.416; 8733.969
507.436; 8006.947;  -10.305; 9790.121
508.023; 8437.259;   -5.496; 9985.472
508.610; 8573.381;   -7.856;10434.618
509.197; 9609.815;  -10.097;11198.435
509.784;11019.733;  -10.886;12391.194
510.371;12567.825;   -9.315;13603.713
510.958;13738.898;   -9.936;14426.586
511.545;14311.434;   -9.326;15243.775
512.132;14547.840;  -10.075;15945.876
512.719;15107.177;   -7.796;16340.369
513.305;16467.617;  -10.606;18011.766
513.892;18144.721;  -11.486;19754.971
514.479;19563.129;   -9.126;20967.805
515.066;21111.082;   -6.026;22299.793
515.652;21318.473;   -8.466;22908.660
516.239;21918.529;  -10.886;23798.875
516.825;23457.602;  -11.496;25567.275
517.412;25165.104;   -5.796;28154.959
517.998;26459.793;  -10.506;28344.111
518.585;27338.291;  -10.076;27134.219
519.171;26960.363;   -8.315;27268.576
519.758;27683.916;   -8.596;28964.129
520.344;30375.520;   -8.466;30664.494
520.930;29428.293;  -11.006;32550.605
521.516;27862.117;  -10.495;35422.895
522.103;29847.121;   -5.526;38280.004
522.689;32443.232;   -8.746;37835.117
523.275;33648.422;  -11.376;37288.613
523.861;35717.984;  -11.156;37281.395
524.447;35251.234;   -8.135;37846.949
525.033;35555.645;   -7.896;38321.949
525.619;36400.574;  -12.476;38579.285
526.205;36457.848;   -9.516;40622.875
526.791;36064.469;   -6.926;42258.836
527.377;35949.449;   -8.346;42966.902
527.963;37934.227;   -8.717;42018.949
528.549;39727.809;  -11.016;42476.828
529.135;38112.422;   -8.536;41854.852
529.721;37887.313;   -9.666;41237.711
530.306;36979.832;  -10.066;41259.445
530.892;38196.078;  -11.356;41506.047
531.478;40425.703;   -6.596;43559.613
532.063;42555.941;   -8.836;47695.563
532.649;40771.891;  -10.047;50808.324
533.235;40614.586;   -9.746;51787.500
533.820;43099.355;   -6.566;52145.035
534.406;44808.512;  -10.817;51133.488
534.991;46843.355;   -9.416;49996.805
535.576;45503.563;   -9.036;48882.852
536.162;42732.383;   -6.156;46942.285
536.747;43156.863;  -11.607;45711.746
537.333;46185.398;  -11.787;48510.180
537.918;47237.277;  -12.437;50439.891
538.503;46699.074;   -7.196;50863.711
539.088;47224.734;  -10.556;50906.922
539.673;48205.637;   -8.767;52621.965
540.259;44956.406;  -10.026;52368.094
540.844;44370.770;   -7.416;50879.109
541.429;43917.254;   -9.467;52077.777
542.014;43239.426;   -9.527;52716.695
542.599;46662.602;   -9.946;52363.281
543.184;48153.199;   -7.927;53187.137
543.769;48223.492;   -9.297;54697.605
544.354;48557.309;  -10.127;53913.914
544.938;46155.129;   -9.267;49680.164
545.523;44145.145;   -6.506;47386.277
546.108;46252.715;   -9.787;49151.949
546.693;47410.738;  -11.587;51384.637
547.278;47783.543;  -10.986;51853.254
547.862;48009.266;   -8.206;51173.750
548.447;45992.668;  -10.067;51691.395
549.031;46040.543;   -9.637;52456.703
549.616;46640.180;   -9.926;52714.516
550.201;45651.531;   -6.347;52414.598
550.785;46693.301;   -7.917;52355.059
551.370;47777.344;  -10.867;54589.453
551.954;50115.121;   -9.047;58267.348
552.538;49361.012;   -7.827;59062.176
553.123;47250.895;  -10.287;58115.285
553.707;46304.738;  -12.178;56556.285
554.291;43412.676;   -8.717;56201.668
554.876;44670.270;   -7.457;55335.762
555.460;47028.918;  -10.387;54155.703
556.044;48538.844;   -9.618;53721.484
556.628;49494.523;  -11.567;53731.016
557.212;50253.777;   -8.097;54312.531
557.796;51762.203;  -11.077;53797.773
558.380;49569.605;  -11.108;56145.984
558.964;47685.789;   -9.057;57277.930
559.548;45281.672;   -6.977;56459.641
560.132;41864.543;  -11.457;54434.543
560.716;43207.375;  -11.378;54800.617
561.300;45386.395;   -9.577;57606.945
561.884;44028.012;   -7.127;58972.445
562.467;42455.406;   -7.118;57327.570
563.051;40888.879;  -13.358;54962.434
563.635;38860.336;  -10.178;52594.473
564.219;40831.285;   -7.837;50610.410
564.802;44638.047;  -11.398;49551.180
565.386;45124.598;  -12.788;48370.953
565.969;46372.742;   -9.077;48178.871
566.553;45254.047;   -6.207;49957.305
567.136;43429.223;   -8.568;50369.594
567.720;44605.445;  -11.868;49492.004
568.303;45738.195;   -8.268;50616.352
568.887;44986.211;   -8.698;50727.148
569.470;42799.527;   -6.808;51698.379
570.053;40515.980;  -13.188;52122.078
570.637;38021.254;  -12.037;52536.438
571.220;37962.613;   -8.577;51186.098
571.803;38069.496;   -8.498;51032.762
572.386;40252.422;  -10.498;49609.887
572.969;41094.953;   -9.388;48285.926
573.552;41536.254;   -8.338;47624.285
574.135;40904.957;   -8.518;45498.641
574.718;37965.383;  -13.628;41970.434
575.301;38102.168;  -10.893;41447.137
575.884;38238.953;   -8.158;40923.836
576.467;42154.656;  -10.328;45267.723
577.050;41977.203;  -13.058;48175.543
577.633;40722.602;   -9.458;47729.328
578.216;37216.176;   -8.928;47579.793
578.799;34674.426;   -9.358;47820.996
579.381;36125.109;  -11.388;48115.551
579.964;36580.480;  -11.718;47333.766
580.547;35308.609;   -8.588;46668.969
581.129;35890.184;   -8.859;44466.141
581.712;37764.746;  -10.729;44164.922
582.294;37506.109;  -11.118;46477.855
582.877;38222.383;   -5.218;48244.254
583.459;38403.961;   -8.679;47437.895
584.042;39602.883;  -10.709;46943.219
584.624;37546.492;  -11.669;46792.227
585.206;36302.141;   -8.218;46557.250
585.789;37411.430;  -10.569;45793.773
586.371;38002.602;  -11.859;43836.391
586.953;38907.598;  -10.719;42972.492
587.536;40321.293;   -7.198;42487.211
588.118;39337.938;   -8.720;42086.414
588.700;38105.695;  -10.439;43389.930
589.282;35467.633;   -9.198;43646.039
589.864;33263.293;   -9.199;43438.109
590.446;33125.680;  -11.319;43151.926
591.028;32646.889;  -11.159;42781.867
591.610;32978.910;  -11.779;42839.098
592.192;34209.340;   -7.668;42820.402
592.774;33340.508;  -11.949;40724.277
593.356;31358.371;  -12.129;39874.789
593.937;31189.801;  -10.669;39980.648
594.519;33858.930;   -6.509;42069.633
595.101;33996.652;  -10.849;42976.031
595.683;32691.693;  -11.679;44084.441
596.264;31848.357;   -9.049;43478.797
596.846;31439.869;   -8.849;43803.672
597.427;31394.887;   -9.570;42986.934
598.009;33254.785;  -12.620;42832.219
598.591;33305.066;  -10.039;42580.086
599.172;35482.125;  -10.369;43061.805
599.753;37668.715;   -9.140;41691.469
600.335;37055.906;  -11.430;40692.520
600.916;34453.688;   -9.939;39982.422
601.498;31269.727;   -8.479;40318.617
602.079;30839.494;  -10.920;40670.609
602.660;30489.082;  -11.480;41450.898
603.241;31241.074;  -11.699;41137.738
603.823;31525.326;   -9.579;38868.797
604.404;31126.414;  -10.620;38182.785
604.985;34057.289;  -10.450;38078.047
605.566;34854.629;   -9.129;38056.633
606.147;35704.906;   -7.510;37020.418
606.728;34458.578;  -10.660;37883.359
607.309;32633.639;  -11.740;38748.273
607.890;32443.422;   -9.759;38850.230
608.471;31041.471;   -8.250;37457.918
609.051;31100.207;   -9.240;36066.457
609.632;30963.197;  -12.120;35991.074
610.213;30539.443;   -9.110;37402.641
610.794;31661.539;   -8.030;38383.363
611.374;30405.656;   -8.110;40562.387
611.955;30304.971;  -13.560;38533.727
612.536;31382.059;  -11.400;36951.789
613.116;30854.359;   -8.070;37197.891
613.697;31589.092;  -10.830;38411.125
614.277;31221.590;  -11.641;38673.938
614.858;30506.963;  -13.310;37075.863
615.438;30535.297;   -7.460;35092.906
616.019;28732.875;   -7.601;33666.301
616.599;29440.396;  -12.020;34189.023
617.179;29236.205;  -11.780;36952.047
617.760;28159.510;   -8.570;39582.574
618.340;28690.111;  -11.471;38943.977
618.920;29252.676;  -11.170;37594.156
619.500;30166.945;  -11.071;37866.938
620.080;30668.920;   -7.750;37869.043
620.660;30899.922;  -12.711;36868.617
621.241;31608.857;  -10.211;36352.309
621.821;31120.219;  -10.961;35459.520
622.401;31233.664;   -7.720;35207.414
622.980;33068.457;   -8.981;35980.422
623.560;31697.229;   -9.331;37351.328
624.140;27375.330;   -9.850;34388.582
624.720;23425.227;   -7.451;32368.764
625.300;23132.475;   -9.070;32638.629
625.880;27344.182;  -12.601;34599.035
626.459;30495.332;  -11.751;36831.738
627.039;30450.057;   -9.281;38299.098
627.619;29640.777;   -8.801;38289.574
628.198;29963.725;  -12.071;37220.695
628.778;30825.959;   -9.461;37632.563
629.357;31526.363;   -8.491;38003.012
629.937;31119.232;   -9.721;38402.039
630.516;31793.895;   -9.951;37868.801
631.096;32837.109;  -11.731;35760.410
631.675;35065.215;   -8.572;35225.219
632.254;35069.730;  -11.282;35130.289
632.834;33882.684;  -13.322;35794.570
633.413;34662.879;  -10.301;35788.922
633.992;34610.867;   -8.582;34532.863
634.571;35366.969;   -8.352;33590.113
635.151;34583.711;  -11.912;34943.863
635.730;32321.834;  -10.511;35352.523
636.309;32038.539;   -7.731;35366.605
636.888;31609.641;   -9.952;36165.637
637.467;30973.135;  -11.672;37515.902
638.046;29461.586;   -8.901;39288.695
638.625;28728.496;   -7.912;38279.699
639.204;28028.482;  -10.022;37741.598
639.782;29393.115;  -12.252;38364.551
640.361;31488.701;  -10.041;36740.621
640.940;31206.271;  -11.161;34950.082
641.519;30669.436;   -9.701;34137.398
642.097;31807.639;  -11.271;35654.258
642.676;31881.037;   -8.651;35637.957
643.255;30868.980;   -8.711;36567.074
643.833;30513.359;   -9.581;37809.434
644.412;31331.801;  -13.711;37337.293
644.990;32720.182;  -11.811;37018.531
645.569;35532.941;   -9.411;36518.469
646.147;36149.867;  -10.291;36186.430
646.726;34157.836;  -12.401;36267.688
647.304;32593.072;  -10.411;36647.625
647.882;33164.211;   -9.651;39286.742
648.461;32944.059;   -9.631;39157.703
649.039;30595.693;  -11.881;35412.883
649.617;30448.561;   -9.661;34744.918
650.195;31025.113;   -9.301;35403.098
650.773;30280.305;  -10.511;35053.797
651.352;30097.150;  -11.521;33756.816
651.930;28915.891;  -12.211;31868.773
652.508;27936.234;   -9.171;33121.551
653.086;29306.980;   -9.371;33564.793
653.663;31620.133;  -13.161;34054.668
654.241;30491.682;  -13.031;35693.309
654.819;28557.721;   -9.371;36422.906
655.397;29287.465;  -10.511;38213.484
655.975;29544.418;  -10.371;39507.625
656.553;30249.301;  -10.051;39498.223
657.130;30930.041;  -10.061;40395.480
657.708;27917.816;   -9.561;39242.020
658.286;25224.717;  -11.511;38920.020
658.863;25758.391;  -10.261;40202.898
659.441;28678.619;   -7.531;39677.938
660.018;31249.625;   -9.501;40413.355
660.596;31973.137;  -13.301;39931.414
661.173;34694.289;  -11.211;39604.531
661.750;33771.266;   -9.951;39700.070
662.328;31008.305;   -9.390;39292.809
662.905;29684.676;  -11.330;38235.648
663.482;26886.611;   -9.050;36212.305
664.060;24514.926;   -8.240;35944.945
664.637;28395.117;  -10.050;35170.785
665.214;33032.563;  -11.760;34197.523
665.791;32008.445;  -10.530;34549.520
666.368;31789.117;   -9.690;35118.578
666.945;32168.695;   -9.320;36019.418
667.522;32928.371;  -11.860;36048.438
668.099;32058.980;  -10.770;36243.914
668.676;32242.883;   -6.260;35958.875
669.253;34492.652;   -7.000;37384.730
669.830;34823.504;  -10.190;36779.629
670.407;33568.023;   -9.550;35231.289
670.984;32817.613;   -9.260;35544.270
671.560;31253.842;   -9.280;35466.867
672.137;29585.402;  -11.810;34280.863
672.714;29636.611;  -11.490;34632.863
673.290;30378.914;   -7.740;35135.422
673.867;30853.473;  -10.660;36114.480
674.443;30244.797;  -12.230;36152.859
675.020;28837.115;  -10.450;35327.238
675.596;27405.811;   -9.260;35795.176
676.173;28194.439;  -10.780;35430.355
676.749;28865.867;  -13.690;33549.516
677.326;29958.709;  -11.980;32210.012
677.902;28070.883;   -8.630;32068.871
678.478;26154.424;  -10.730;32583.891
679.054;27849.883;  -10.520;32088.928
679.631;29281.816;  -11.920;30978.848
680.207;30545.744;   -7.490;33160.887
680.783;31757.980;   -9.860;35570.363
681.359;32281.566;  -13.380;36125.184
681.935;31032.646;  -12.480;35240.922
682.511;31707.908;   -7.900;34429.961
683.087;32303.311;   -7.710;34463.680
683.663;32936.371;  -11.480;34648.898
684.239;32485.275;  -14.090;34546.457
684.815;33339.379;   -7.560;35586.375
685.390;33430.199;   -9.910;35821.895
685.966;33132.977;  -11.159;35085.871
686.542;33749.902;  -11.169;34198.230
687.118;32262.463;   -5.959;32847.707
687.693;32285.842;  -10.329;32794.027
688.269;31644.201;  -12.059;33072.367
688.844;32198.404;  -10.909;33141.664
689.420;33426.496;   -8.019;33965.742
689.995;30289.963;   -8.399;34655.523
690.571;29489.143;  -10.949;33576.742
691.146;28816.021;   -9.619;32657.219
691.722;26735.457;   -8.999;32526.979
692.297;25869.645;  -11.589;33014.617
692.872;26732.322;  -11.739;34012.254
693.448;27002.555;  -11.059;34237.434
694.023;28705.965;  -10.139;34142.672
694.598;30763.008;   -9.029;34132.031
695.173;30452.529;  -13.319;34205.250
695.748;27847.242;  -10.169;32882.488
696.323;25418.721;   -8.339;32864.906
696.898;25094.598;   -8.169;33170.004
697.473;28367.137;  -12.309;32432.984
698.048;28368.807;  -10.989;31649.303
698.623;27391.707;   -9.329;30778.141
699.198;28948.590;   -9.849;31140.119
699.773;30306.385;  -12.329;31764.299
700.348;30280.184;  -10.389;31780.816
700.922;28564.229;   -9.269;32046.375
701.497;26766.455;   -9.329;32603.574
702.072;28300.385;  -10.789;34799.871
702.646;28206.311;  -10.839;35793.172
703.221;28704.820;   -9.099;35201.590
703.795;29192.260;  -10.939;34764.527
704.370;27783.545;  -12.859;34307.367
704.944;29199.793;  -11.559;33509.887
705.519;30388.951;   -7.939;31388.584
706.093;32206.619;  -10.499;31340.104
706.668;33105.551;  -11.289;32630.281
707.242;32091.508;  -11.509;32728.779
707.816;30614.914;   -9.639;32947.238
708.390;30210.293;  -11.429;33277.855
708.965;31237.773;  -11.869;33834.336
709.539;31242.969;  -11.689;33709.273
710.113;30735.834;  -10.478;33044.313
710.687;28056.033;  -10.228;31953.992
711.261;27268.430;  -13.698;30505.949
711.835;26986.096;  -13.378;30262.369
712.409;26538.047;   -9.698;31254.447
712.983;26056.137;  -11.898;32754.986
713.557;24991.887;  -15.138;34018.824
714.131;26437.494;  -14.098;34579.625
714.704;26583.055;   -9.958;33890.262
715.278;25719.061;  -10.028;33531.102
715.852;24732.428;  -11.148;33601.660
716.425;24238.176;   -9.068;33515.117
716.999;25873.486;  -10.038;33185.555
717.573;26559.758;   -9.798;33905.996
718.146;27570.326;  -12.378;35199.293
718.720;28130.266;  -11.918;35060.551
719.293;27284.799;   -8.088;34973.230
719.867;26459.469;  -10.888;36394.449
720.440;27195.646;  -11.938;36663.008
721.013;28895.395;  -12.818;35102.426
721.587;30345.080;  -10.298;33985.266
722.160;30194.025;  -10.048;33524.965
722.733;28195.375;  -12.108;32987.043
723.306;25981.680;  -10.818;33066.301
723.880;26398.848;   -8.908;33399.500
724.453;25462.434;   -9.878;33468.297
725.026;25254.059;  -11.188;33816.637
725.599;25546.014;  -11.678;32797.996
726.172;25193.252;   -9.618;33187.434
726.745;26140.529;   -8.258;35136.613
727.318;28737.906;  -12.978;35751.730
727.891;30731.865;  -12.148;35890.430
728.463;32002.781;   -8.968;34822.090
729.036;32183.711;  -10.188;32895.086
729.609;29775.752;  -11.788;31823.225
730.182;27935.609;  -11.788;31445.283
730.754;27147.902;  -10.268;32373.223
731.327;26809.939;   -9.998;33676.820
731.900;25895.523;  -12.228;33417.000
732.472;25010.875;  -13.848;31978.498
733.045;24887.943;   -8.698;30368.777
733.617;24319.408;  -10.607;30574.215
734.190;22983.338;  -11.507;31280.975
734.762;23406.568;  -13.647;31674.412
735.334;24725.666;   -9.767;31247.291
735.907;24936.150;   -9.897;29876.211
736.479;22831.969;  -11.637;29808.488
737.051;22125.969;   -9.567;30233.547
737.623;23060.740;   -8.187;31469.086
738.195;24921.717;  -11.187;31784.225
738.768;25341.197;  -12.337;32120.523
739.340;24701.645;  -12.227;32094.342
739.912;24201.941;  -11.057;31312.680
740.484;24978.639;  -10.207;31946.238
741.056;26137.545;  -10.047;32984.059
741.628;25802.188;  -13.627;33897.715
742.199;26329.947;   -7.177;33213.016
742.771;24699.428;  -10.797;31369.113
743.343;23306.891;  -11.997;31865.473
743.915;23476.564;  -12.867;32388.631
744.487;24019.162;   -7.617;31079.568
745.058;25249.316;   -9.557;30570.107
745.630;25058.543;   -9.877;29970.127
746.201;23885.529;  -14.177;29186.766
746.773;23525.961;   -9.237;28805.723
747.344;23645.592;   -9.847;29591.223
747.916;23684.090;  -11.657;31412.201
748.487;23328.586;  -10.587;32194.898
749.059;23289.893;   -8.707;32533.719
749.630;22432.479;  -10.537;32158.518
750.201;22631.750;  -11.687;30855.395
750.773;22679.307;  -11.647;28622.555
751.344;23871.752;   -7.147;28405.732
751.915;23779.359;   -9.757;28461.551
752.486;23501.066;  -12.427;27842.850
753.057;22114.979;  -12.227;27845.008
753.628;21662.201;  -10.417;27728.107
754.199;21728.807;  -11.767;27381.086
754.770;21157.889;  -11.187;25882.203
755.341;20699.102;  -10.507;25886.184
755.912;21018.016;   -9.387;26050.861
756.483;21388.016;  -10.647;26798.779
757.054;21008.768;  -11.837;27048.238
757.625;19274.348;  -12.716;26294.838
758.195;18640.551;   -9.666;26142.076
758.766;19535.871;   -8.656;26392.234
759.337;19383.602;  -12.856;26334.594
759.907;18750.381;  -13.366;27579.652
760.478;17958.207;   -8.576;28352.770
761.048;18559.279;  -10.526;27325.088
761.619;19123.818;  -11.116;26460.428
762.189;18669.879;  -12.136;26029.826
762.760;18627.943;   -9.456;26430.145
763.330;18873.422;   -7.136;26670.902
763.900;18917.875;  -11.786;26603.021
764.471;18245.654;  -11.546;25542.740
765.041;17995.514;   -8.096;24358.459
765.611;18116.576;   -8.876;23991.297
766.181;18126.676;  -12.196;24470.236
766.751;18799.877;  -11.636;24845.975
767.321;19005.775;  -10.156;24533.633
767.891;18840.617;  -11.766;24916.492
768.461;18523.152;  -14.936;24776.771
769.031;17671.168;  -12.356;24757.988
769.601;17367.893;   -7.526;24181.088
770.171;17717.533;  -10.766;23670.387
770.741;18302.898;  -13.176;22960.045
771.311;18003.449;  -10.616;22917.523
771.880;16705.670;   -9.576;23562.941
772.450;16131.446;  -10.336;24216.500
773.020;16383.817;  -13.516;24140.398
773.589;16326.838;  -13.466;24414.857
774.159;15849.422;   -8.686;23858.717
774.729;15215.596;   -9.476;22942.135
775.298;15148.089;  -13.666;22324.033
775.867;15145.823;  -11.716;21140.313
776.437;14625.361;   -9.906;20838.092
777.006;14516.791;  -12.166;20599.510
777.576;15867.766;  -12.356;20508.809
778.145;15296.327;  -11.646;20732.947
778.714;13912.500;   -8.226;21062.465
779.283;13346.525;   -9.556;20949.664
779.853;13152.600;  -14.116;20508.623
780.422;13486.966;  -11.506;20649.082
780.991;13944.499;   -9.556;21527.520
781.560;14628.195;   -9.095;22632.658
782.129;13580.762;  -12.135;23048.277
782.698;12309.718;  -10.865;23438.555
783.267;11701.442;   -9.335;23267.734
783.836;12051.787;  -11.045;22415.133
784.404;12797.707;  -13.865;20443.152
784.973;13051.107;  -13.095;19699.150
785.542;13010.269;  -11.575;19763.828
786.111;12840.435;   -9.705;20341.408
786.679;12648.489;  -12.105;20207.967
787.248;12335.038;  -12.455;19516.465
787.817;12198.677;  -11.535;18900.363
788.385;12063.939;   -9.765;17879.121
788.954;11917.442;  -14.005;17658.301
789.522;11760.760;  -11.955;17788.879
790.090;10896.514;  -10.135;18118.277
790.659;10030.856;  -10.975;18338.736
791.227;10100.804;  -13.375;18508.615
791.795;10495.079;  -12.375;17898.254
792.364;10734.040;  -10.725;17295.133
792.932;11089.846;   -9.715;16822.051
793.500;10861.440;  -12.675;17040.148
794.068;11147.043;  -13.495;17179.787
794.636;11196.285;  -10.885;16664.246
795.204;10817.870;  -11.045;16524.545
795.772;10795.354;  -13.175;17274.564
796.340;10539.751;  -12.445;17891.002
796.908;10718.930;   -9.735;17648.561
797.476;11140.519;   -9.815;17064.080
798.044;10919.438;  -13.985;16672.777
798.612;10458.359;  -13.115;17023.996
799.180; 9597.381;  -10.185;16561.615
799.747; 9217.704;   -9.055;15962.773
800.315; 9417.023;  -12.385;15296.992
800.883; 8818.927;  -15.035;14801.771
801.450; 8120.240;  -10.365;14534.430
802.018; 7821.700;   -9.855;14173.248
802.585; 7737.366;  -11.905;14029.547
803.153; 7900.277;  -11.585;13836.846
803.720; 7678.360;   -9.095;13567.324
804.287; 7576.306;   -9.135;13360.622
804.855; 7755.164;  -11.604;13681.981
805.422; 8127.948;  -11.794;13536.560
805.989; 8338.365;  -10.734;13355.958
806.556; 8237.822;  -10.444;13747.896
807.124; 8487.219;  -12.764;13987.376
807.691; 8915.706;  -12.964;14038.674
808.258; 8934.888;  -11.134;14120.152
808.825; 8907.591;   -9.854;13860.111
809.392; 8502.621;  -10.504;13268.790
809.959; 7796.411;  -13.054;12680.389
810.526; 7079.146;   -8.294;12427.308
811.093; 6396.672;   -8.394;12030.105
811.659; 6132.733;  -12.304;11653.664
812.226; 6266.367;  -13.944;11637.183
812.793; 6610.019;  -10.484;11611.521
813.360; 6727.941;  -10.144;11885.181
813.926; 6735.227;  -11.684;12770.539
814.493; 6640.334;  -13.644;12677.638
815.060; 6500.392;   -9.724;11974.336
815.626; 6634.784;   -9.854;11594.715
816.193; 6665.013;  -13.254;11579.474
816.759; 6076.306;  -13.204;11666.972
817.325; 5666.275;   -9.434;11325.530
817.892; 5543.913;  -10.134;11105.369
818.458; 5671.997;  -13.474;10843.928
819.024; 6088.176;  -11.854;10714.406
819.591; 6196.590;  -10.244;10469.165
820.157; 5977.200;  -10.704;10235.523
820.723; 5935.958;  -12.324;10847.563
821.289; 5829.571;   -9.444;11040.980
821.855; 5858.430;   -8.374;10357.100
822.421; 6126.797;  -10.234; 9978.918
822.987; 6102.467;  -13.294; 9754.177
823.553; 5824.315;  -10.884;10065.755
824.119; 5606.130;   -8.884;10036.294
824.685; 5172.032;   -6.784;10029.192
825.251; 5082.952;  -12.004;10199.230
825.816; 4867.047;  -11.474; 9820.189
826.382; 4691.280;   -9.174; 9297.248
826.948; 4943.122;   -9.214; 9381.347
827.513; 5328.107;  -10.774; 9450.726
828.079; 5431.497;  -11.924; 9472.444
828.645; 5278.375;  -10.543; 9292.643
829.210; 5164.998;  -10.533; 9065.341
829.776; 5069.313;  -10.753; 9132.620
830.341; 5201.297;  -10.173; 9092.878
830.906; 5250.338;  -10.743; 9078.557
831.472; 5057.698;  -11.113; 8534.535
832.037; 4750.248;  -10.603; 8677.874
832.602; 4657.278;  -13.323; 8628.692
833.167; 4481.008;  -10.823; 8879.031
833.733; 4378.219;  -10.113; 9189.790
834.298; 4260.844;  -13.583; 9052.608
834.863; 4442.022;  -12.703; 8895.087
835.428; 4666.278;  -10.523; 8824.266
835.993; 4613.891;   -6.963; 8845.385
836.558; 4591.944;  -10.763; 8888.563
837.123; 4754.848;   -9.903; 8966.582
837.688; 5133.705;   -9.913; 8617.860
838.253; 5195.441;  -10.283; 8590.699
838.817; 4875.389;  -12.963; 8443.797
839.382; 4779.130;  -14.243; 8799.356
839.947; 4920.430;  -10.733; 8810.595
840.511; 4929.474;   -9.383; 8796.394
841.076; 4794.703;  -12.563; 8347.231
841.641; 4661.066;  -12.953; 8224.330
842.205; 4542.235;   -7.043; 8223.349
842.770; 4347.507;   -8.163; 8622.107
843.334; 4499.508;  -12.503; 8410.386
843.898; 4659.660;  -11.693; 8337.465
844.463; 4247.573;  -10.203; 8506.283
845.027; 3934.072;   -9.533; 8280.962
845.591; 3965.386;  -13.443; 8231.141
846.156; 4035.184;  -13.143; 7969.179
846.720; 3869.236;   -9.433; 7768.278
847.284; 3755.768;  -11.033; 7630.957
847.848; 3741.512;  -10.403; 7472.395
848.412; 3600.860;  -11.553; 7437.394
848.976; 3541.629;   -8.393; 7674.592
849.540; 3523.399;   -8.713; 7836.011
850.104; 3507.884;  -12.463; 7913.669
850.668; 3583.224;  -12.973; 7694.508
851.232; 3556.845;  -10.793; 7756.887
851.796; 3582.420;  -10.662; 7926.545
852.359; 3668.234;  -13.082; 7827.844
852.923; 3630.938;  -12.192; 7641.163
853.487; 3619.830;  -11.912; 7342.501
854.050; 3471.683;  -10.892; 7042.820
854.614; 3507.339;  -13.992; 7151.338
855.177; 3569.750;  -11.732; 7105.077
855.741; 3444.529;   -8.962; 6989.675
856.304; 3303.189;   -9.442; 6596.634
856.868; 3170.760;  -14.192; 6356.272
857.431; 3118.518;  -12.702; 6468.571
857.995; 3120.927;   -9.942; 6373.210
858.558; 3204.765;   -9.112; 6324.448
859.121; 3103.013;  -12.932; 6408.327
859.684; 2960.935;  -13.442; 6347.886
860.247; 2918.775;  -10.632; 6321.264
860.810; 2872.371;  -11.272; 6301.903
861.374; 2781.744;   -9.832; 6607.881
861.937; 2679.455;  -11.762; 6408.200
862.500; 2668.866;   -9.722; 6572.639
863.062; 2648.487;  -10.512; 6387.297
863.625; 2634.360;  -11.232; 6190.836
864.188; 2669.804;  -14.112; 5807.254
864.751; 2677.083;  -11.302; 5682.413
865.314; 2567.446;  -10.112; 5547.492
865.876; 2392.529;  -12.182; 5500.150
866.439; 2231.654;  -10.722; 5415.909
867.002; 2123.516;   -9.252; 5501.567
867.564; 2168.853;   -9.572; 5413.946
868.127; 2208.104;  -13.142; 5160.325
868.689; 2283.982;  -12.902; 5133.183
869.252; 2384.551;   -9.732; 5252.382
869.814; 2312.869;   -9.432; 5297.141
870.377; 2210.514;  -11.552; 5390.919
870.939; 2201.276;   -9.052; 5599.898
871.501; 2151.904;  -10.982; 5248.336
872.063; 2050.231;  -12.292; 4854.235
872.626; 1990.017;  -14.912; 4817.074
873.188; 1898.488;  -13.112; 4987.732
873.750; 1863.279;  -13.442; 4868.651
874.312; 1831.374;   -9.402; 4779.330
874.874; 1787.947;  -11.062; 4866.348
875.436; 1683.241;  -13.931; 4718.887
875.998; 1569.790;   -9.561; 4660.005
876.560; 1555.135;  -11.321; 4462.964
877.122; 1610.439;  -12.221; 4145.042
877.683; 1718.999;  -12.191; 4056.481
878.245; 1757.884;  -12.101; 3950.740
878.807; 1787.105;   -8.971; 4058.958
879.369; 1735.620;  -12.071; 3954.677
879.930; 1607.528;  -14.621; 3941.495
880.492; 1520.807;  -10.311; 4067.014
881.053; 1517.262;  -10.901; 3859.633
881.615; 1507.013;  -14.411; 3776.071
882.176; 1448.094;  -13.761; 3734.750
882.738; 1373.807;   -9.181; 3678.489
883.299; 1353.961;  -11.791; 3405.407
883.860; 1362.942;  -13.121; 3351.106
884.422; 1316.558;  -11.211; 3394.044
884.983; 1241.849;  -10.091; 3166.443
885.544; 1201.280;   -8.461; 3189.802
886.105; 1146.180;  -12.361; 3160.360
886.666; 1086.461;  -14.141; 3093.059
887.227; 1053.944;  -11.361; 2941.957
887.788; 1005.675;  -11.401; 2974.836
888.349;  917.173;  -13.791; 2721.214
888.910;  879.780;  -13.191; 2696.493
889.471;  847.509;   -9.881; 2560.172
890.032;  854.223;   -9.881; 2558.190
890.593;  848.767;  -10.371; 2567.669
891.153;  769.230;  -13.301; 2460.307
891.714;  666.588;  -11.431; 2372.046
892.275;  621.704;  -11.291; 2309.505
892.835;  631.298;  -11.471; 2382.543
893.396;  623.867;  -11.541; 2295.502
893.956;  599.382;  -11.181; 2162.420
894.517;  563.554;  -11.741; 2125.439
895.077;  515.834;  -11.671; 2086.978
895.638;  479.635;  -11.311; 2126.316
896.198;  469.094;   -9.831; 1838.275
896.758;  455.081;   -8.421; 1892.813
897.319;  433.838;  -12.351; 1792.232
897.879;  415.064;  -13.511; 1762.751
898.439;  386.192;  -12.001; 1661.149
898.999;  366.059;  -10.180; 1781.468
899.559;  361.971;  -12.030; 1703.347
900.119;  352.844;  -15.710; 1537.525
900.679;  339.281;   -8.900; 1638.384
901.239;  318.975;   -8.340; 1527.902
901.799;  293.192;  -13.910; 1456.441
902.359;  272.304;  -13.460; 1357.140
902.919;  265.559;  -11.490; 1331.118
903.479;  265.499;  -12.110; 1317.257
904.038;  259.911;  -11.720; 1262.595
904.598;  252.742;  -13.610; 1152.034
905.158;  243.319;  -11.040; 1240.893
905.717;  228.072;  -10.900; 1233.691
906.277;  217.635;  -15.080; 1217.330
906.836;  215.971;  -13.380; 1222.408
907.396;  213.225;  -10.780; 1193.047
907.955;  207.133;   -8.500; 1182.526
908.515;  202.124;  -12.760; 1099.364
909.074;  201.663;  -11.900; 1092.863
909.633;  200.047;   -8.950; 1069.121
910.192;  197.461;   -8.770; 1196.460
910.752;  186.866;  -12.390; 1029.960
911.311;  178.186;  -13.680; 1009.780
911.870;  169.235;  -12.370;  971.460
912.429;  163.956;  -10.900; 1094.080
912.988;  162.339;  -11.690; 1081.060
913.547;  159.715;  -13.240;  940.380
914.106;  158.177;  -11.990;  999.420
914.665;  157.075;   -9.990;  984.020
915.224;  154.114;  -12.880; 1035.760
915.782;  152.866;  -12.350;  922.560
916.341;  152.096;   -9.110; 1049.840
916.900;  148.724;   -9.270;  925.260
917.458;  147.578;  -13.240;  884.220
918.017;  146.253;  -13.550;  942.600
918.576;  144.414;  -12.320;  904.440
919.134;  142.631;  -11.490;  837.980
919.693;  140.790;  -13.670;  893.060
920.251;  139.792;  -15.470;  876.500
920.809;  139.533;  -11.290;  839.580
921.368;  139.181;  -10.210;  885.360
921.926;  136.791;  -12.140;  842.940
922.484;  133.878;  -13.080;  903.360
923.042;  133.517;  -11.720;  880.340
923.601;  134.179;   -7.480;  998.680
924.159;  132.008;  -11.570;  935.560
924.717;  130.550;  -13.840;  841.080
925.275;  130.491;  -10.640;  903.240
925.833;  128.576;  -11.540;  779.320
926.391;  129.909;  -12.960;  938.380
926.949;  130.200;  -14.130;  857.680
927.506;  130.219;  -11.750;  903.500
928.064;  129.579;  -10.250;  877.580
928.622;  130.097;  -13.030;  880.100
929.180;  132.080;  -13.400;  814.180
929.737;  134.480;  -10.700;  808.540
930.295;  136.441;  -10.070;  928.480
930.853;  136.524;  -11.960;  849.100
931.410;  136.723;  -13.120;  821.120
931.968;  139.291;  -10.770;  940.660
932.525;  139.192;  -10.680;  909.380
933.082;  138.332;  -13.130;  811.440
933.640;  139.529;  -13.210;  925.900
934.197;  139.221;  -11.060;  886.360
934.754;  138.615;   -9.580;  897.780
935.312;  140.194;  -14.000;  863.340
935.869;  141.032;  -10.710; 1012.980
936.426;  140.498;   -9.860;  872.800
936.983;  140.753;   -9.710;  889.020
937.540;  141.852;  -13.990;  838.280
938.097;  145.902;  -14.040;  940.120
938.654;  149.365;  -10.310;  898.860
939.211;  149.363;  -10.560;  952.480
939.768;  149.587;  -13.900;  915.420
940.324;  151.820;  -14.760;  904.200
940.881;  154.693;  -10.370;  878.500
941.438;  159.015;   -8.260; 1021.200
941.995;  158.593;  -12.540;  992.560
942.551;  158.354;  -14.670;  875.620
943.108;  159.792;  -10.450;  937.920
943.664;  159.519;  -10.750;  869.340
944.221;  163.396;  -11.550; 1088.140
944.777;  162.348;  -14.770;  869.680
945.334;  161.525;  -12.820;  884.840
945.890;  155.676;  -10.130;  946.480
946.446;  152.761;  -13.470;  947.020
947.003;  154.379;  -12.120;  964.940
947.559;  155.525;   -9.980; 1063.040
948.115;  150.997;   -9.080; 1026.540
948.671;  148.799;  -10.830;  967.300
949.227;  148.927;  -12.440;  859.560
949.783;  148.310;  -12.910;  858.900
950.339;  152.568;  -10.270;  991.000
950.895;  153.450;  -13.630; 1023.840
951.451;  152.493;  -15.100;  925.280
952.007;  151.001;  -11.330;  998.540
952.563;  147.337;  -10.580;  937.780
953.118;  144.494;  -13.440;  904.940
953.674;  143.634;  -12.710;  935.780
954.230;  145.453;  -10.350;  949.640
954.785;  150.185;   -9.190;  936.640
955.341;  151.095;  -11.200;  998.160
955.897;  145.398;  -16.560;  834.660
956.452;  144.288;  -12.570;  953.840
957.008;  141.862;   -7.970; 1083.640
957.563;  139.098;  -11.940; 1009.540
958.118;  133.922;  -13.450;  877.700
958.674;  132.187;  -12.030;  946.780
959.229;  133.604;   -9.410; 1013.980
959.784;  133.557;  -12.000;  832.400
960.339;  133.468;  -14.780; 1001.280
960.894;  131.432;   -9.860;  963.760
961.449;  128.508;   -9.970;  859.960
962.004;  128.809;  -10.900; 1212.840
962.559;  125.491;  -13.150;  860.140
963.114;  124.535;  -13.740;  742.480
963.669;  123.553;   -9.820;  915.500
964.224;  122.067;  -13.890;  874.340
964.779;  121.605;  -12.600;  828.420
965.334;  124.107;  -10.950; 1017.860
965.888;  122.095;  -11.170;  875.360
966.443;  122.216;  -12.540;  972.380
966.998;  119.165;  -15.780;  819.460
967.552;  118.393;   -9.760;  908.380
968.107;  116.227;   -9.060;  868.300
968.661;  115.339;  -11.950;  922.440
969.216;  113.289;  -12.800;  856.280
969.770;  111.862;  -11.210;  917.200
970.324;  111.580;  -11.610;  923.140
970.879;  111.769;  -11.370;  947.180
971.433;  113.626;  -12.540;  952.720
971.987;  114.099;  -11.320;  895.340
972.541;  111.543;  -10.720;  917.100
973.095;  110.910;   -9.680; 1009.460
973.649;  106.395;  -11.440;  809.480
974.203;  104.443;  -11.210;  829.040
974.757;  104.545;  -10.240;  855.220
975.311;  103.675;  -13.720;  872.600
975.865;  103.948;  -13.770;  881.820
976.419;  101.886;  -11.690;  857.400
976.973;   99.010;   -9.510;  849.620
977.526;   97.706;  -12.620;  949.920
978.080;   95.614;  -12.010;  796.780
978.634;   95.589;  -10.170;  921.320
979.187;   94.958;   -9.020;  905.400
979.741;   95.696;   -9.820; 1018.380
980.294;   93.485;  -14.870;  789.160
980.848;   92.752;  -12.380;  717.220
981.401;   92.200;  -10.350;  816.540
981.955;   91.925;  -13.720;  844.300
982.508;   87.167;  -11.490;  746.340
983.061;   86.968;  -10.000;  915.260
983.615;   85.272;  -11.480;  798.800
984.168;   84.029;  -13.220;  770.080
984.721;   82.824;  -13.960;  880.760
985.274;   81.128;  -10.870;  867.500
985.827;   79.166;   -9.790;  834.220
986.380;   76.628;  -13.120;  721.340
986.933;   77.661;  -12.450;  864.800
987.486;   76.250;  -10.210;  861.920
988.039;   76.771;   -8.430;  863.100
988.591;   75.443;  -10.520;  893.260
989.144;   73.311;  -14.860;  737.260
989.697;   72.112;  -13.080;  758.740
990.250;   71.512;  -10.150;  858.100
990.802;   69.483;  -13.430;  755.860
991.355;   69.460;  -12.750;  974.880
991.907;   67.365;  -12.040;  864.320
992.460;   65.270;  -11.330;  753.760
993.012;   65.182;  -13.610;  749.540
993.565;   62.932;  -13.460;  711.360
994.117;   63.890;   -9.360;  950.780
994.669;   61.119;  -11.300;  701.320
995.221;   59.810;  -13.540;  791.920
995.774;   59.485;  -13.430;  787.580
996.326;   57.566;  -12.520;  740.220
996.878;   57.072;  -10.950;  838.420
997.430;   55.370;  -14.300;  699.860
997.982;   53.517;  -13.760;  750.140
998.534;   53.232;  -11.530;  739.060
999.086;   52.201;  -10.310;  738.220
999.638;   51.136;  -12.530;  661.380
1000.190;   49.947;  -11.840;  699.320
1000.741;   49.896;  -10.260;  742.700
1001.293;   49.839;   -8.860;  686.020
1001.845;   48.641;  -13.700;  676.640
1002.396;   48.727;  -12.100;  743.400
1002.948;   48.156;  -12.760;  737.400
1003.500;   46.608;  -10.380;  723.780
1004.051;   46.728;  -11.900;  907.580
1004.603;   44.963;  -12.250;  791.820
1005.154;   42.518;  -13.210;  608.980
1005.705;   41.628;  -10.950;  723.960
1006.257;   40.790;  -13.880;  707.220
1006.808;   40.895;  -12.840;  685.460
1007.359;   39.906;  -10.570;  763.240
1007.910;   39.087;   -9.620;  646.640
1008.461;   38.963;  -13.630;  732.940
1009.013;   38.284;  -17.200;  588.340
1009.564;   39.237;  -10.200;  793.520
1010.115;   36.253;  -12.570;  597.040
1010.665;   36.856;  -15.150;  602.160
1011.216;   36.495;  -14.480;  667.920
1011.767;   36.263;  -11.340;  697.920
1012.318;   36.937;   -9.780;  736.980
1012.869;   35.069;  -12.380;  679.000
1013.419;   34.543;  -15.560;  603.120
1013.970;   36.074;  -11.010;  666.640
1014.521;   34.753;  -11.610;  620.620
1015.071;   34.413;  -13.450;  670.380
1015.622;   34.417;  -13.870;  635.460
1016.172;   34.013;  -11.610;  596.820
1016.723;   32.397;  -12.120;  614.380
1017.273;   32.244;  -13.620;  604.160
1017.823;   33.458;  -14.140;  650.340
1018.374;   32.625;  -12.800;  611.760
1018.924;   32.579;  -12.340;  716.880
1019.474;   32.920;  -11.410;  718.880
1020.024;   31.341;  -14.770;  657.580
1020.574;   33.090;   -9.780;  726.160
1021.124;   32.518;   -8.560;  673.580
1021.674;   31.440;  -15.190;  559.120
1022.224;   32.216;  -13.530;  708.940
1022.774;   31.490;  -13.280;  668.820
1023.324;   31.932;  -10.690;  753.520
1023.874;   32.884;  -10.240;  875.760
1024.423;   30.453;  -12.540;  613.700
1024.973;   29.888;  -10.010;  610.760
1025.523;   29.274;  -10.550;  620.960
1026.072;   29.607;  -13.560;  606.420
1026.622;   29.742;  -15.120;  675.740
1027.172;   30.434;  -11.260;  715.660
1027.721;   29.409;  -11.410;  601.220
1028.270;   30.088;  -13.530;  663.400
1028.820;   28.722;  -13.680;  638.080
1029.369;   28.951;  -13.520;  612.700
1029.918;   27.793;  -10.980;  649.840
1030.468;   28.014;  -13.530;  564.780
1031.017;   28.669;  -13.170;  634.800
1031.566;   27.968;  -12.200;  608.900
1032.115;   28.336;   -9.960;  694.500
1032.664;   26.635;  -13.210;  596.480
1033.213;   27.944;  -12.500;  735.420
1033.762;   27.525;  -11.910;  635.620
1034.311;   27.108;   -9.640;  677.220
1034.860;   27.392;  -13.310;  691.000
1035.408;   27.254;  -11.830;  722.720
1035.957;   27.536;  -12.000;  719.540
1036.506;   25.505;  -11.690;  530.800
1037.055;   27.578;  -10.990;  844.320
1037.603;   25.572;  -15.120;  664.000
1038.152;   24.706;  -12.450;  534.760
1038.700;   24.854;  -10.560;  585.740
1039.249;   24.998;  -11.080;  681.220
1039.797;   25.550;  -12.540;  633.360
1040.345;   25.208;  -11.920;  705.420
1040.894;   24.364;  -11.410;  625.300
1041.442;   24.946;  -14.320;  632.200
1041.990;   23.535;  -16.240;  559.160
1042.538;   22.658;  -11.680;  536.180
1043.087;   23.110;  -10.760;  570.860
1043.635;   24.669;  -11.850;  670.500
1044.183;   23.652;  -15.480;  586.400
1044.731;   23.294;  -11.770;  576.000
1045.279;   22.758;  -13.090;  674.920
1045.827;   25.061;  -12.440;  892.400
1046.374;   22.465;  -13.840;  515.420
1046.922;   22.228;  -13.220;  590.580
1047.470;   24.107;  -10.230;  691.300
1048.018;   22.928;  -14.590;  647.960
1048.565;   23.485;  -12.050;  708.600
1049.113;   21.730;  -11.650;  557.000
1049.660;   21.646;  -10.510;  629.660
1050.208;   21.817;  -13.310;  675.640
1050.755;   20.382;  -15.900;  606.580
1051.303;   23.048;  -11.430;  686.820
1051.850;   21.150;   -8.480;  635.120
1052.397;   19.844;  -15.010;  473.960
1052.945;   20.842;  -13.960;  617.760
1053.492;   22.192;  -13.150;  741.840
1054.039;   21.589;   -9.630;  720.180
1054.586;   20.268;  -13.680;  557.240
1055.133;   20.920;  -14.570;  693.140
1055.680;   20.950;  -13.820;  646.620
1056.227;   18.884;  -11.730;  542.780
1056.774;   20.798;  -12.480;  794.980
1057.321;   19.819;  -13.930;  523.260
1057.868;   20.311;  -11.690;  651.320
1058.415;   19.939;   -9.520;  651.980
1058.961;   20.140;  -13.160;  678.940
1059.508;   19.246;  -12.920;  643.820
1060.055;   19.287;  -11.920;  581.780
1060.601;   19.501;  -11.500;  624.300
1061.148;   18.785;  -14.330;  616.820
1061.694;   17.938;  -16.870;  592.580
1062.241;   17.804;  -10.330;  596.320
1062.787;   19.126;  -10.620;  663.140
1063.334;   19.706;  -10.110;  808.560
1063.880;   18.473;  -13.400;  668.360
1064.426;   18.472;  -10.680;  706.820
1064.972;   17.792;   -9.920;  601.340
1065.518;   17.350;  -10.980;  566.640
1066.065;   18.371;  -14.890;  624.460
1066.611;   17.490;  -12.870;  598.800
1067.157;   17.912;  -12.950;  641.860
1067.703;   17.193;  -13.540;  668.480
1068.249;   16.608;  -13.540;  605.220
1068.794;   16.914;  -12.600;  626.880
1069.340;   15.873;  -10.620;  578.960
1069.886;   17.033;  -12.830;  590.700
1070.432;   15.035;  -14.870;  541.720
1070.977;   15.973;  -11.980;  601.080
1071.523;   16.259;   -8.200;  573.060
1072.068;   16.060;  -12.330;  582.000
1072.614;   15.341;  -16.370;  527.760
1073.160;   16.481;  -11.100;  687.040
1073.705;   15.653;  -10.480;  572.520
1074.250;   14.959;  -14.520;  559.900
1074.796;   15.687;  -11.460;  655.160
1075.341;   15.918;  -11.950;  664.100
1075.886;   15.641;  -11.460;  594.240
1076.431;   14.644;  -13.770;  649.880
1076.976;   14.524;  -12.680;  639.220
1077.521;   14.787;  -13.170;  583.080
1078.067;   13.725;  -10.860;  579.400
1078.612;   14.986;  -13.920;  661.620
1079.156;   14.398;  -13.880;  601.540
1079.701;   15.226;  -13.120;  693.260
1080.246;   15.286;   -9.940;  696.300
1080.791;   14.508;  -14.740;  625.020
1081.336;   13.732;  -13.750;  659.320
1081.880;   13.967;  -13.400;  649.680
1082.425;   13.129;  -12.220;  573.480
1082.970;   13.950;  -11.610;  717.040
1083.514;   13.484;  -13.580;  597.000
1084.059;   12.505;  -12.810;  586.720
1084.603;   13.092;  -12.320;  565.840
1085.147;   13.698;  -13.190;  645.220
1085.692;   13.647;  -12.480;  716.800
1086.236;   12.380;  -13.020;  503.140
1086.780;   14.708;   -9.190;  751.440
1087.325;   13.841;  -12.480;  654.620
1087.869;   12.484;  -12.450;  610.700
1088.413;   13.473;  -12.240;  705.040
1088.957;   10.720;   -9.020;  543.400
1089.501;   13.420;  -10.320;  766.640
1090.045;   12.721;  -12.720;  726.480
1090.589;   10.904;  -13.690;  569.920
1091.133;   12.567;  -10.020;  673.340
1091.676;   12.653;  -12.330;  591.940
1092.220;   11.496;  -14.970;  600.920
1092.764;   12.740;  -12.430;  706.960
1093.307;   11.852;   -9.800;  673.780
1093.851;   10.139;  -14.970;  556.540
1094.395;   11.161;  -15.310;  683.140
1094.938;   10.838;  -10.370;  632.520
1095.482;   11.199;  -11.050;  559.800
1096.025;   11.304;  -11.840;  710.880
1096.568;   11.782;  -12.840;  779.280
1097.112;    9.536;  -14.700;  508.180
1097.655;   10.582;   -8.720;  603.000
1098.198;    9.606;  -13.610;  600.180
1098.741;    9.792;  -13.350;  612.860
1099.285;   10.886;  -11.230;  657.300
1099.828;    8.028;  -11.840;  439.400
1100.371;    9.703;  -10.840;  608.160
1100.914;   10.151;  -14.190;  682.660
1101.457;   10.138;  -11.240;  679.900
1101.999;    9.030;  -11.270;  584.680
1102.542;    9.580;  -11.480;  641.440
1103.085;    9.171;  -11.750;  658.500
1103.628;    9.802;  -11.400;  762.060
1104.170;    8.910;  -10.490;  588.280
1104.713;    9.195;  -10.600;  646.700
1105.256;    8.669;  -14.360;  557.440
1105.798;    8.245;  -13.210;  499.980
1106.341;    9.623;  -10.270;  728.900
1106.883;    7.836;  -12.200;  521.340
1107.425;    8.676;  -13.110;  668.180
1107.968;    8.365;  -12.840;  612.380
1108.510;    8.264;   -6.480;  684.960
1109.052;    7.729;  -13.940;  612.620
1109.594;    7.570;  -13.690;  554.440
1110.136;    8.330;  -11.880;  643.220
1110.679;    8.188;   -9.500;  633.080
1111.221;    8.538;  -14.160;  604.460
1111.763;    7.114;  -13.980;  559.220
1112.304;    7.307;  -13.880;  547.140
1112.846;    7.727;  -12.210;  666.240
1113.388;   10.206;  -11.390;  942.180
1113.930;    7.513;  -14.540;  694.200
1114.472;    6.857;  -12.640;  606.540
1115.013;    6.049;  -11.620;  551.280
1115.555;    6.606;  -13.640;  587.100
1116.097;    5.218;  -15.380;  579.480
1116.638;    6.810;  -12.640;  684.600
1117.180;    7.105;   -9.850;  667.740
1117.721;    6.105;  -13.690;  568.580
1118.262;    7.172;  -12.680;  677.960
1118.804;    7.925;  -12.530;  637.340
1119.345;    5.697;  -11.690;  578.400
1119.886;    6.200;  -13.380;  704.040
1120.427;    5.588;  -14.070;  589.020
1120.969;    5.465;  -13.500;  597.920
1121.510;    5.557;  -11.480;  563.060
1122.051;    6.280;  -12.830;  723.580
1122.592;    5.145;  -14.290;  655.420
1123.133;    4.648;  -12.400;  547.940
1123.673;    5.852;  -10.130;  706.480
1124.214;    5.359;  -12.930;  612.460
1124.755;    5.379;  -14.380;  639.460
1125.296;    5.234;  -14.000;  627.320
1125.836;    5.916;  -10.070;  691.500
1126.377;    4.882;  -12.640;  599.660
1126.918;    4.925;  -12.960;  614.980
1127.458;    4.635;  -13.350;  622.220
1127.999;    4.895;  -10.750;  656.980
1128.539;    4.917;  -12.350;  694.240
1129.079;    4.185;  -14.860;  632.720
1129.620;    4.919;  -13.840;  558.100
1130.160;    3.690;  -12.330;  539.480
1130.700;    4.028;  -14.530;  640.840
1131.240;    5.028;  -12.530;  643.700
1131.781;    4.428;  -14.450;  619.680
1132.321;    4.593;   -9.790;  599.120
1132.861;    2.750;  -14.860;  564.200
1133.401;    2.631;  -14.290;  593.940
1133.941;    3.850;  -11.750;  626.280
1134.481;    2.770;   -9.920;  597.580
1135.020;    3.423;  -12.290;  609.160
1135.560;    3.828;  -11.650;  674.940
1136.100;    2.806;  -16.270;  501.160
1136.640;    2.683;  -10.890;  510.480
1137.179;    2.242;  -14.180;  537.960
1137.719;    2.503;  -16.250;  605.400
1138.258;    3.001;  -14.230;  587.360
1138.798;    3.645;   -9.090;  663.780
1139.337;    2.001;  -15.130;  482.840
1139.877;    2.541;  -13.680;  642.360
1140.416;    4.502;  -11.320;  878.060
1140.955;    1.884;  -10.860;  535.380
1141.494;    2.740;  -12.920;  669.280
1142.034;    1.885;  -13.930;  583.520
1142.573;    3.351;  -11.440;  646.280
1143.112;    1.891;  -12.000;  553.480
1143.651;    2.270;  -13.670;  536.480
1144.190;    2.487;  -12.730;  691.640
1144.729;    2.392;  -14.560;  607.420
1145.267;    1.779;  -11.830;  584.900
1145.806;    2.535;  -12.230;  637.040
1146.345;    1.604;  -14.130;  635.020
1146.884;    1.610;  -11.590;  622.500
1147.422;    0.736;  -12.550;  533.060
1147.961;    3.172;  -11.180;  708.460
1148.500;    2.770;  -11.510;  669.720
1149.038;    2.396;  -11.640;  632.500
1149.577;    2.553;  -10.130;  698.640
1150.115;   -0.596;  -13.970;  452.280
1150.653;    0.841;  -14.520;  607.340
1151.192;    1.134;  -12.810;  552.920
1151.730;    1.504;   -9.100;  652.560
1152.268;    1.011;  -12.220;  589.520
1152.806;   -0.015;  -14.140;  571.180
1153.344;   -0.091;  -12.350;  577.640
1153.882;    0.221;   -8.980;  600.060
1154.421;   -0.993;  -15.190;  470.620
1154.958;    0.013;  -15.210;  595.240
1155.496;    1.861;  -12.850;  645.280
1156.034;    0.664;   -9.940;  721.880
1156.572;    1.311;  -13.570;  667.060
1157.110;   -0.483;  -14.590;  473.940
1157.647;    1.084;  -13.030;  676.960
1158.185;   -0.240;  -12.140;  564.320
1158.723;   -1.875;  -14.390;  509.200
1159.260;    0.121;  -14.090;  701.700
1159.798;    0.270;  -11.920;  658.160
1160.335;   -0.616;  -11.110;  631.820

