
Integration time [ms]:   3.276
Averaging Nr. [scans]: 1000
Smoothing Nr. [pixels]: 0
Data measured with spectrometer [name]: 7414430SP
Wave   ;Sample   ;Dark     ;Reference
[nm]   ;[counts] ;[counts] ;[counts] 

288.544;  159.241;    7.793;  793.890
289.143;  161.946;    7.462;  681.602
289.742;  162.318;    8.602;  828.814
290.341;  148.175;    1.321;  789.841
290.940;  139.366;   -0.709;  730.702
291.538;  141.372;    0.881;  881.108
292.137;  140.742;    0.122;  792.581
292.736;  144.433;   -1.929;  975.101
293.335;  139.891;   -8.229;  735.086
293.934;  140.201;   -5.279;  781.677
294.532;  140.606;   -1.369; 1031.958
295.131;  127.684;   -7.641;  834.394
295.730;  128.066;   -8.420;  809.588
296.328;  125.928;   -5.611;  783.442
296.927;  124.159;   -5.781;  779.652
297.525;  125.691;   -6.361;  781.236
298.124;  118.087;  -11.382;  654.009
298.722;  121.345;   -7.641;  761.933
299.321;  117.986;   -6.811;  708.597
299.919;  114.678;   -6.991;  751.918
300.518;  112.038;  -10.362;  689.338
301.116;  114.163;   -9.581;  691.381
301.715;  115.354;   -4.891;  730.222
302.313;  113.419;   -8.801;  704.943
302.911;  108.022;   -8.522;  733.830
303.509;  112.617;   -6.171;  925.627
304.108;  111.326;   -7.311;  760.383
304.706;  110.666;   -8.321;  801.664
305.304;  105.176;  -10.222;  796.707
305.902;  109.493;   -6.021;  784.484
306.500;  104.781;   -4.971;  728.200
307.098;  104.565;   -7.061;  746.560
307.696;  101.926;   -8.801;  780.432
308.294;  101.494;   -6.411;  731.359
308.892;  104.588;   -2.901;  759.769
309.490;  101.639;   -5.041;  712.161
310.088;   99.669;   -5.002;  788.444
310.686;  101.972;   -2.041;  821.749
311.284;   98.873;   -2.351;  766.040
311.882;   97.587;   -4.422;  731.225
312.480;   93.706;   -4.192;  697.167
313.078;   94.400;   -1.172;  808.331
313.675;   95.038;   -2.601;  691.600
314.273;   91.357;   -1.312;  797.837
314.871;   89.989;   -3.942;  589.829
315.468;   87.354;   -2.802;  652.090
316.066;   90.834;   -0.701;  694.427
316.664;   83.660;   -4.362;  656.351
317.261;   88.251;   -2.872;  910.128
317.859;   82.822;   -2.022;  768.735
318.456;   82.758;   -0.531;  830.096
319.054;   79.763;   -3.912;  787.828
319.651;   78.534;   -4.752;  759.928
320.249;   75.770;   -2.602;  810.188
320.846;   74.260;   -0.821;  714.286
321.443;   72.471;   -4.642;  832.135
322.041;   69.345;   -5.002;  812.315
322.638;   66.499;   -3.982;  701.456
323.235;   67.360;   -3.411;  665.683
323.833;   64.444;   -7.361;  740.354
324.430;   59.686;   -8.611;  615.900
325.027;   61.036;   -4.061;  876.855
325.624;   59.439;   -4.031;  644.532
326.221;   57.024;   -7.481;  689.717
326.818;   56.707;   -5.281;  818.332
327.415;   58.957;   -7.460;  748.828
328.012;   58.946;   -5.510;  690.585
328.609;   57.529;   -7.880;  731.389
329.206;   57.172;   -8.331;  778.621
329.803;   56.642;   -5.121;  737.841
330.400;   58.316;   -4.510;  704.260
330.997;   59.796;   -6.441;  817.147
331.594;   57.519;   -8.831;  788.185
332.191;   62.108;   -7.621;  728.722
332.787;   66.717;   -4.591;  844.463
333.384;   66.053;   -7.412;  763.093
333.981;   63.650;   -8.293;  815.687
334.578;   66.763;   -7.052;  708.378
335.174;   69.758;   -3.102;  731.469
335.771;   70.240;   -5.943;  836.456
336.367;   66.160;   -7.393;  710.631
336.964;   70.545;   -4.063;  793.266
337.561;   70.389;   -3.813;  731.112
338.157;   64.742;   -4.654;  911.916
338.754;   62.076;   -7.934;  796.589
339.350;   61.005;   -4.414;  722.493
339.946;   63.076;   -4.664;  773.135
340.543;   54.825;   -6.375;  846.136
341.139;   49.463;   -9.815;  720.836
341.735;   45.977;   -4.526;  772.593
342.332;   45.437;   -4.895;  691.472
342.928;   44.859;   -4.295;  795.394
343.524;   39.061;   -5.476;  761.684
344.120;   35.609;   -5.856;  738.562
344.716;   37.842;   -2.155;  723.717
345.313;   35.764;   -6.275;  795.342
345.909;   31.212;   -8.815;  627.336
346.505;   31.774;   -5.305;  740.247
347.101;   32.422;   -2.674;  827.864
347.697;   31.955;   -4.344;  785.398
348.293;   27.140;   -9.975;  627.244
348.889;   27.778;   -5.774;  745.914
349.485;   27.086;   -5.004;  688.205
350.081;   28.144;   -4.704;  772.592
350.676;   23.175;   -6.635;  691.606
351.272;   27.069;   -4.504;  809.530
351.868;   26.768;   -3.914;  780.497
352.464;   23.739;   -9.044;  723.932
353.059;   20.175;   -8.314;  646.017
353.655;   23.264;   -7.024;  777.063
354.251;   24.292;   -5.343;  759.845
354.846;   19.383;   -8.604;  740.646
355.442;   17.375;   -6.945;  753.071
356.038;   18.597;   -7.564;  751.708
356.633;   18.904;   -5.814;  728.594
357.229;   16.136;   -7.364;  724.757
357.824;   14.908;   -8.024;  703.600
358.420;   14.612;   -9.384;  679.726
359.015;   14.056;   -5.104;  695.357
359.610;   15.031;   -6.854;  763.920
360.206;    9.830;  -10.185;  603.240
360.801;   12.432;   -7.054;  646.503
361.396;   13.867;   -5.034;  725.975
361.992;    9.640;   -8.284;  668.220
362.587;    6.556;   -8.625;  670.160
363.182;    8.627;   -7.674;  689.631
363.777;    9.279;   -5.164;  738.242
364.372;    9.864;   -8.604;  737.314
364.967;    6.045;   -9.055;  680.744
365.563;    8.926;   -6.114;  815.567
366.158;    6.749;   -5.814;  685.161
366.753;    6.941;   -7.854;  649.263
367.348;    5.696;   -7.804;  746.056
367.942;    4.961;   -7.954;  697.298
368.537;    3.733;   -4.984;  754.245
369.132;    3.836;   -8.564;  703.428
369.727;    0.678;   -8.855;  638.079
370.322;    2.023;   -6.245;  580.186
370.917;    0.744;   -6.425;  710.646
371.511;    4.527;   -6.294;  861.834
372.106;    0.650;   -7.685;  776.964
372.701;   -3.088;   -7.335;  585.988
373.296;    2.299;   -4.564;  863.135
373.890;   -2.453;  -10.235;  647.840
374.485;   -4.695;   -7.885;  691.199
375.079;   -0.880;   -7.324;  738.685
375.674;    1.143;   -3.494;  812.970
376.268;   -3.101;   -8.525;  691.759
376.863;   -8.973;  -10.086;  580.327
377.457;   -2.768;   -7.025;  662.490
378.052;   -4.640;   -3.585;  764.884
378.646;   -5.120;   -7.595;  741.167
379.240;   -5.446;   -8.335;  721.176
379.835;   -5.329;   -5.785;  636.978
380.429;   -6.720;   -4.335;  562.557
381.023;   -7.053;   -6.805;  779.205
381.617;   -9.358;   -9.195;  680.106
382.212;   -6.953;   -6.905;  685.303
382.806;   -5.188;   -3.745;  760.690
383.400;   -9.304;   -7.745;  672.281
383.994;  -10.902;   -9.765;  664.870
384.588;   -6.930;   -6.564;  697.701
385.182;   -6.331;   -5.344;  726.624
385.776;   -7.181;   -8.514;  706.875
386.370;  -10.795;   -9.555;  681.968
386.964;   -9.579;   -8.715;  684.155
387.558;   -8.237;   -6.174;  598.360
388.152;  -11.211;   -8.725;  681.959
388.745;   -9.212;   -7.965;  814.707
389.339;   -7.345;   -5.924;  747.642
389.933;   -6.741;   -5.524;  695.370
390.527;   -7.336;   -7.114;  859.029
391.120;  -13.878;  -10.725;  595.318
391.714;  -11.237;   -8.035;  711.633
392.308;   -8.213;   -3.574;  780.253
392.901;  -11.639;   -7.245;  642.460
393.495;  -13.770;   -9.285;  595.414
394.089;  -11.906;   -5.895;  760.452
394.682;  -12.299;   -4.295;  697.188
395.275;  -12.955;   -9.875;  719.927
395.869;  -13.889;   -8.485;  667.314
396.462;  -12.157;   -7.455;  616.609
397.056;   -8.343;   -5.424;  776.621
397.649;  -12.813;   -6.605;  731.575
398.242;  -10.813;   -8.224;  712.645
398.836;  -10.070;   -7.474;  766.408
399.429;  -11.299;   -7.094;  631.041
400.022;  -14.283;   -9.475;  665.902
400.615;  -11.773;   -7.145;  805.609
401.208;  -10.166;   -7.174;  691.451
401.802;  -12.013;   -5.515;  699.329
402.395;  -13.245;   -9.875;  683.502
402.988;  -14.015;   -8.845;  696.627
403.581;  -11.101;   -8.874;  646.878
404.174;   -9.038;   -5.324;  686.568
404.767;  -12.023;   -9.575;  638.583
405.360;  -14.482;  -10.965;  621.445
405.953;   -9.673;   -8.764;  759.034
406.545;   -8.423;   -7.514;  725.342
407.138;  -13.150;  -10.025;  618.350
407.731;  -11.394;  -10.034;  613.303
408.324;   -8.088;   -9.374;  660.554
408.917;   -9.548;   -6.534;  681.864
409.509;  -10.261;   -8.004;  740.396
410.102;  -11.972;   -9.875;  643.948
410.695;   -6.872;   -8.604;  665.758
411.287;   -7.607;   -6.794;  599.821
411.880;   -8.862;   -9.334;  585.421
412.472;  -11.616;  -10.254;  613.092
413.065;   -8.439;   -6.714;  629.408
413.657;   -6.818;   -7.234;  576.678
414.250;   -6.420;  -10.544;  646.681
414.842;   -8.548;   -9.744;  676.353
415.434;   -6.429;   -6.994;  570.463
416.027;   -2.821;   -5.893;  652.196
416.619;   -4.349;   -7.264;  713.400
417.211;   -4.369;  -10.374;  599.352
417.804;   -1.206;   -7.993;  628.499
418.396;   -5.710;   -7.234;  607.643
418.988;   -2.348;   -9.443;  659.238
419.580;   -5.711;  -10.724;  568.276
420.172;   -4.129;  -10.323;  536.196
420.764;    0.224;   -8.793;  672.482
421.356;   -0.648;  -11.143;  636.898
421.948;   -2.662;   -8.293;  677.661
422.540;    2.867;   -7.893;  680.027
423.132;    2.021;   -7.082;  600.641
423.724;   -1.085;   -8.653;  561.267
424.316;    0.879;  -10.213;  621.345
424.908;    4.672;   -9.762;  591.517
425.500;    4.622;   -5.572;  647.978
426.092;    5.366;   -8.422;  648.268
426.683;    3.680;   -9.283;  684.836
427.275;    7.102;   -7.852;  641.471
427.867;    8.600;   -5.272;  668.948
428.458;    8.839;   -7.682;  732.344
429.050;    7.802;  -10.612;  680.749
429.642;   10.049;   -9.882;  743.124
430.233;   10.322;   -6.962;  569.356
430.825;   11.752;   -6.842;  724.809
431.416;    9.325;   -9.672;  698.241
432.008;   12.798;   -6.552;  651.723
432.599;   13.076;   -6.891;  656.073
433.190;   10.907;  -10.912;  637.670
433.782;    9.976;  -11.172;  590.395
434.373;   16.426;   -6.061;  884.765
434.964;   15.878;   -8.251;  602.920
435.556;   13.869;   -9.722;  634.537
436.147;   16.195;   -9.082;  758.490
436.738;   16.781;   -8.041;  701.099
437.329;   21.611;   -7.341;  721.723
437.920;   14.935;   -8.162;  666.688
438.511;   14.848;  -11.802;  564.526
439.103;   21.141;  -10.191;  623.998
439.694;   23.165;   -7.601;  681.583
440.285;   23.628;   -8.541;  764.432
440.876;   21.183;   -9.751;  845.738
441.466;   20.441;   -9.401;  575.162
442.057;   25.609;   -7.760;  665.814
442.648;   24.857;   -9.971;  746.255
443.239;   23.323;  -11.001;  620.477
443.830;   29.010;   -7.990;  704.958
444.421;   30.353;   -7.910;  655.474
445.011;   27.589;   -8.131;  693.619
445.602;   26.459;   -7.111;  743.126
446.193;   27.872;  -10.920;  488.117
446.783;   32.239;   -6.500;  640.397
447.374;   28.115;   -8.671;  692.759
447.964;   28.533;  -10.781;  713.770
448.555;   36.560;   -9.650;  822.742
449.145;   33.705;   -8.660;  662.853
449.736;   34.298;   -8.990;  803.179
450.326;   34.229;   -9.500;  713.626
450.917;   39.331;   -8.680;  675.324
451.507;   38.071;   -7.520;  600.661
452.097;   39.757;   -8.590;  746.267
452.688;   40.659;  -11.340;  742.160
453.278;   40.783;  -10.100;  566.840
453.868;   44.486;   -6.019;  793.550
454.458;   42.716;   -9.440;  651.141
455.048;   42.627;  -10.560;  711.783
455.639;   43.913;  -11.799;  567.096
456.229;   47.621;   -6.899;  710.694
456.819;   49.747;   -7.389;  751.158
457.409;   49.643;  -11.119;  773.993
457.999;   52.014;   -9.289;  737.505
458.589;   52.217;   -6.139;  686.606
459.179;   52.284;   -8.729;  717.658
459.769;   50.687;   -9.789;  627.099
460.358;   55.061;  -10.259;  797.262
460.948;   55.060;   -7.299;  689.503
461.538;   56.207;  -10.289;  660.677
462.128;   54.868;  -11.269;  664.934
462.717;   61.325;   -9.368;  710.326
463.307;   64.177;   -7.908;  705.846
463.897;   60.961;   -9.599;  656.942
464.486;   59.977;   -9.769;  837.128
465.076;   63.970;   -8.048;  733.776
465.666;   67.193;   -9.358;  652.900
466.255;   65.573;   -7.919;  785.651
466.845;   64.040;  -11.689;  666.749
467.434;   67.433;   -7.818;  725.873
468.023;   67.922;   -7.678;  658.357
468.613;   66.095;  -10.939;  713.946
469.202;   71.314;  -10.118;  646.507
469.791;   74.496;   -9.108;  737.811
470.381;   76.224;   -6.058;  742.813
470.970;   76.064;  -10.428;  711.099
471.559;   76.275;  -10.268;  733.291
472.148;   78.939;   -8.448;  675.737
472.738;   81.818;   -6.917;  765.466
473.327;   80.388;  -11.978;  637.529
473.916;   81.438;  -11.888;  737.446
474.505;   84.109;   -9.437;  751.703
475.094;   88.052;   -6.747;  806.570
475.683;   87.547;   -9.367;  797.699
476.272;   88.518;  -12.637;  730.632
476.861;   91.233;  -10.027;  706.754
477.449;   97.524;   -8.716;  728.487
478.038;   92.359;   -9.577;  692.513
478.627;   93.552;   -9.718;  714.852
479.216;   99.427;   -8.947;  769.441
479.805;  102.939;   -6.256;  783.375
480.393;  102.695;   -7.937; 1008.945
480.982;  101.482;   -7.717;  874.501
481.571;  107.628;   -9.266;  858.333
482.159;  108.266;   -7.636;  705.386
482.748;  108.345;   -9.667;  821.385
483.336;  112.216;  -10.376;  858.209
483.925;  113.498;   -7.147;  774.373
484.513;  120.328;   -7.996;  758.962
485.102;  117.279;  -10.027;  810.965
485.690;  125.630;  -10.446; 1011.050
486.278;  127.718;   -8.446;  979.329
486.867;  127.969;   -6.356;  809.662
487.455;  129.813;   -9.136;  898.229
488.043;  132.231;  -10.646;  748.361
488.631;  140.649;   -7.456; 1005.079
489.220;  144.895;   -6.636;  908.626
489.808;  144.613;  -11.036;  741.415
490.396;  153.103;  -10.246;  914.645
490.984;  158.463;   -8.556;  830.161
491.572;  169.184;   -5.886;  940.315
492.160;  176.348;   -9.486;  919.081
492.748;  187.253;  -10.976;  884.341
493.336;  209.621;   -8.776; 1019.693
493.924;  234.070;   -5.465;  958.077
494.512;  259.843;   -9.986; 1066.638
495.100;  300.015;  -10.636; 1103.280
495.687;  355.182;  -10.885; 1206.373
496.275;  415.866;   -8.126; 1150.796
496.863;  501.971;  -10.586; 1281.171
497.451;  596.406;  -11.926; 1386.805
498.038;  697.574;  -10.885; 1556.729
498.626;  820.123;   -6.315; 1741.407
499.214;  988.107;   -7.326; 2016.609
499.801; 1154.741;  -11.906; 2220.633
500.389; 1358.685;  -10.466; 2312.494
500.976; 1635.924;   -5.236; 2744.849
501.564; 1961.729;   -8.936; 3148.565
502.151; 2493.979;  -13.176; 3515.999
502.738; 3064.653;  -10.646; 3971.274
503.326; 3474.914;   -9.525; 4403.796
503.913; 3669.568;  -10.856; 5161.749
504.500; 3997.796;  -11.586; 5986.420
505.088; 4492.286;  -10.336; 6381.201
505.675; 4952.623;   -6.355; 6925.547
506.262; 5464.625;   -9.046; 7619.060
506.849; 5974.732;  -10.416; 8733.969
507.436; 6185.610;  -10.305; 9790.121
508.023; 6728.689;   -5.496; 9985.472
508.610; 7524.892;   -7.856;10434.618
509.197; 8587.719;  -10.097;11198.435
509.784; 9821.080;  -10.886;12391.194
510.371;11230.056;   -9.315;13603.713
510.958;12127.097;   -9.936;14426.586
511.545;12410.555;   -9.326;15243.775
512.132;12902.912;  -10.075;15945.876
512.719;14286.096;   -7.796;16340.369
513.305;16627.092;  -10.606;18011.766
513.892;17374.057;  -11.486;19754.971
514.479;18057.451;   -9.126;20967.805
515.066;19263.576;   -6.026;22299.793
515.652;19156.971;   -8.466;22908.660
516.239;19717.129;  -10.886;23798.875
516.825;21574.533;  -11.496;25567.275
517.412;22919.301;   -5.796;28154.959
517.998;22794.879;  -10.506;28344.111
518.585;22438.369;  -10.076;27134.219
519.171;23187.396;   -8.315;27268.576
519.758;24919.826;   -8.596;28964.129
520.344;26828.723;   -8.466;30664.494
520.930;27912.191;  -11.006;32550.605
521.516;28250.734;  -10.495;35422.895
522.103;30111.881;   -5.526;38280.004
522.689;31448.816;   -8.746;37835.117
523.275;31627.967;  -11.376;37288.613
523.861;32223.422;  -11.156;37281.395
524.447;33472.305;   -8.135;37846.949
525.033;34705.336;   -7.896;38321.949
525.619;36664.637;  -12.476;38579.285
526.205;37448.703;   -9.516;40622.875
526.791;38236.500;   -6.926;42258.836
527.377;36815.313;   -8.346;42966.902
527.963;36155.434;   -8.717;42018.949
528.549;38142.758;  -11.016;42476.828
529.135;39362.934;   -8.536;41854.852
529.721;37748.047;   -9.666;41237.711
530.306;36956.059;  -10.066;41259.445
530.892;36840.316;  -11.356;41506.047
531.478;37429.715;   -6.596;43559.613
532.063;39484.344;   -8.836;47695.563
532.649;40224.750;  -10.047;50808.324
533.235;42047.762;   -9.746;51787.500
533.820;44511.203;   -6.566;52145.035
534.406;44697.832;  -10.817;51133.488
534.991;45328.539;   -9.416;49996.805
535.576;42666.047;   -9.036;48882.852
536.162;41929.359;   -6.156;46942.285
536.747;43231.121;  -11.607;45711.746
537.333;45822.621;  -11.787;48510.180
537.918;47811.594;  -12.437;50439.891
538.503;46760.113;   -7.196;50863.711
539.088;46801.906;  -10.556;50906.922
539.673;46755.219;   -8.767;52621.965
540.259;45053.547;  -10.026;52368.094
540.844;43527.563;   -7.416;50879.109
541.429;45933.832;   -9.467;52077.777
542.014;48185.121;   -9.527;52716.695
542.599;49164.035;   -9.946;52363.281
543.184;47266.230;   -7.927;53187.137
543.769;46166.430;   -9.297;54697.605
544.354;45003.879;  -10.127;53913.914
544.938;43060.680;   -9.267;49680.164
545.523;44600.004;   -6.506;47386.277
546.108;47558.238;   -9.787;49151.949
546.693;47647.441;  -11.587;51384.637
547.278;45497.805;  -10.986;51853.254
547.862;43503.707;   -8.206;51173.750
548.447;43496.258;  -10.067;51691.395
549.031;46229.387;   -9.637;52456.703
549.616;46614.406;   -9.926;52714.516
550.201;44683.777;   -6.347;52414.598
550.785;44138.676;   -7.917;52355.059
551.370;39742.332;  -10.867;54589.453
551.954;41109.211;   -9.047;58267.348
552.538;45065.676;   -7.827;59062.176
553.123;47015.820;  -10.287;58115.285
553.707;46558.625;  -12.178;56556.285
554.291;45660.660;   -8.717;56201.668
554.876;45844.059;   -7.457;55335.762
555.460;44767.492;  -10.387;54155.703
556.044;44447.820;   -9.618;53721.484
556.628;43644.891;  -11.567;53731.016
557.212;45255.375;   -8.097;54312.531
557.796;44543.531;  -11.077;53797.773
558.380;42802.313;  -11.108;56145.984
558.964;39986.191;   -9.057;57277.930
559.548;39080.680;   -6.977;56459.641
560.132;40140.840;  -11.457;54434.543
560.716;41455.086;  -11.378;54800.617
561.300;41912.699;   -9.577;57606.945
561.884;40539.895;   -7.127;58972.445
562.467;42711.172;   -7.118;57327.570
563.051;42886.742;  -13.358;54962.434
563.635;44006.461;  -10.178;52594.473
564.219;43633.098;   -7.837;50610.410
564.802;43331.316;  -11.398;49551.180
565.386;42692.645;  -12.788;48370.953
565.969;41372.090;   -9.077;48178.871
566.553;41884.066;   -6.207;49957.305
567.136;42795.223;   -8.568;50369.594
567.720;43219.680;  -11.868;49492.004
568.303;41913.711;   -8.268;50616.352
568.887;40086.027;   -8.698;50727.148
569.470;39416.523;   -6.808;51698.379
570.053;36225.848;  -13.188;52122.078
570.637;33942.879;  -12.037;52536.438
571.220;34840.035;   -8.577;51186.098
571.803;36484.863;   -8.498;51032.762
572.386;35138.316;  -10.498;49609.887
572.969;33909.059;   -9.388;48285.926
573.552;36022.660;   -8.338;47624.285
574.135;37578.539;   -8.518;45498.641
574.718;37537.203;  -13.628;41970.434
575.301;35258.781;  -10.893;41447.137
575.884;32980.359;   -8.158;40923.836
576.467;34812.508;  -10.328;45267.723
577.050;35487.824;  -13.058;48175.543
577.633;36988.281;   -9.458;47729.328
578.216;36425.523;   -8.928;47579.793
578.799;33703.922;   -9.358;47820.996
579.381;32490.154;  -11.388;48115.551
579.964;31842.334;  -11.718;47333.766
580.547;33424.379;   -8.588;46668.969
581.129;34034.469;   -8.859;44466.141
581.712;33166.746;  -10.729;44164.922
582.294;33037.699;  -11.118;46477.855
582.877;33688.121;   -5.218;48244.254
583.459;34154.684;   -8.679;47437.895
584.042;34856.332;  -10.709;46943.219
584.624;34421.188;  -11.669;46792.227
585.206;36648.324;   -8.218;46557.250
585.789;35598.578;  -10.569;45793.773
586.371;35272.977;  -11.859;43836.391
586.953;33963.977;  -10.719;42972.492
587.536;31779.459;   -7.198;42487.211
588.118;32859.324;   -8.720;42086.414
588.700;33370.633;  -10.439;43389.930
589.282;31970.910;   -9.198;43646.039
589.864;32343.211;   -9.199;43438.109
590.446;31766.287;  -11.319;43151.926
591.028;31975.734;  -11.159;42781.867
591.610;32622.160;  -11.779;42839.098
592.192;30533.568;   -7.668;42820.402
592.774;30218.871;  -11.949;40724.277
593.356;29561.939;  -12.129;39874.789
593.937;28089.160;  -10.669;39980.648
594.519;26138.045;   -6.509;42069.633
595.101;26725.516;  -10.849;42976.031
595.683;29256.184;  -11.679;44084.441
596.264;31214.375;   -9.049;43478.797
596.846;35252.742;   -8.849;43803.672
597.427;38511.168;   -9.570;42986.934
598.009;37378.566;  -12.620;42832.219
598.591;34002.785;  -10.039;42580.086
599.172;30932.105;  -10.369;43061.805
599.753;30819.463;   -9.140;41691.469
600.335;31716.010;  -11.430;40692.520
600.916;30308.340;   -9.939;39982.422
601.498;32240.656;   -8.479;40318.617
602.079;33046.621;  -10.920;40670.609
602.660;32068.418;  -11.480;41450.898
603.241;31736.311;  -11.699;41137.738
603.823;31813.088;   -9.579;38868.797
604.404;30611.428;  -10.620;38182.785
604.985;29580.197;  -10.450;38078.047
605.566;29938.486;   -9.129;38056.633
606.147;30549.779;   -7.510;37020.418
606.728;30503.615;  -10.660;37883.359
607.309;29906.498;  -11.740;38748.273
607.890;30027.811;   -9.759;38850.230
608.471;30601.037;   -8.250;37457.918
609.051;31447.551;   -9.240;36066.457
609.632;30921.543;  -12.120;35991.074
610.213;28986.088;   -9.110;37402.641
610.794;29400.094;   -8.030;38383.363
611.374;29390.023;   -8.110;40562.387
611.955;29332.000;  -13.560;38533.727
612.536;29919.041;  -11.400;36951.789
613.116;31903.738;   -8.070;37197.891
613.697;31658.621;  -10.830;38411.125
614.277;29522.713;  -11.641;38673.938
614.858;28935.939;  -13.310;37075.863
615.438;29318.736;   -7.460;35092.906
616.019;29957.068;   -7.601;33666.301
616.599;29309.121;  -12.020;34189.023
617.179;29019.807;  -11.780;36952.047
617.760;30873.172;   -8.570;39582.574
618.340;34006.305;  -11.471;38943.977
618.920;32745.412;  -11.170;37594.156
619.500;31463.459;  -11.071;37866.938
620.080;30586.014;   -7.750;37869.043
620.660;32074.963;  -12.711;36868.617
621.241;30616.957;  -10.211;36352.309
621.821;28692.752;  -10.961;35459.520
622.401;29837.918;   -7.720;35207.414
622.980;30571.848;   -8.981;35980.422
623.560;32077.236;   -9.331;37351.328
624.140;28530.793;   -9.850;34388.582
624.720;24078.676;   -7.451;32368.764
625.300;22540.229;   -9.070;32638.629
625.880;25273.053;  -12.601;34599.035
626.459;28923.643;  -11.751;36831.738
627.039;29304.855;   -9.281;38299.098
627.619;29592.994;   -8.801;38289.574
628.198;30439.822;  -12.071;37220.695
628.778;31873.361;   -9.461;37632.563
629.357;34000.820;   -8.491;38003.012
629.937;33223.852;   -9.721;38402.039
630.516;32465.174;   -9.951;37868.801
631.096;31684.650;  -11.731;35760.410
631.675;31487.561;   -8.572;35225.219
632.254;31986.836;  -11.282;35130.289
632.834;31964.096;  -13.322;35794.570
633.413;33921.910;  -10.301;35788.922
633.992;33895.078;   -8.582;34532.863
634.571;31799.439;   -8.352;33590.113
635.151;31888.391;  -11.912;34943.863
635.730;33190.746;  -10.511;35352.523
636.309;33466.984;   -7.731;35366.605
636.888;32499.775;   -9.952;36165.637
637.467;29449.104;  -11.672;37515.902
638.046;29892.232;   -8.901;39288.695
638.625;29504.316;   -7.912;38279.699
639.204;29767.387;  -10.022;37741.598
639.782;30192.223;  -12.252;38364.551
640.361;28279.004;  -10.041;36740.621
640.940;25539.904;  -11.161;34950.082
641.519;25568.650;   -9.701;34137.398
642.097;27466.592;  -11.271;35654.258
642.676;27499.822;   -8.651;35637.957
643.255;29264.213;   -8.711;36567.074
643.833;32092.818;   -9.581;37809.434
644.412;32370.225;  -13.711;37337.293
644.990;31359.838;  -11.811;37018.531
645.569;30627.666;   -9.411;36518.469
646.147;31561.889;  -10.291;36186.430
646.726;31327.535;  -12.401;36267.688
647.304;29596.469;  -10.411;36647.625
647.882;31011.045;   -9.651;39286.742
648.461;34712.688;   -9.631;39157.703
649.039;33864.680;  -11.881;35412.883
649.617;32182.658;   -9.661;34744.918
650.195;32879.156;   -9.301;35403.098
650.773;33429.074;  -10.511;35053.797
651.352;33251.781;  -11.521;33756.816
651.930;31715.838;  -12.211;31868.773
652.508;26423.822;   -9.171;33121.551
653.086;24415.336;   -9.371;33564.793
653.663;28542.861;  -13.161;34054.668
654.241;30967.125;  -13.031;35693.309
654.819;33961.258;   -9.371;36422.906
655.397;32009.570;  -10.511;38213.484
655.975;30616.371;  -10.371;39507.625
656.553;31832.664;  -10.051;39498.223
657.130;30736.566;  -10.061;40395.480
657.708;28509.549;   -9.561;39242.020
658.286;27800.461;  -11.511;38920.020
658.863;28344.307;  -10.261;40202.898
659.441;29719.553;   -7.531;39677.938
660.018;31422.070;   -9.501;40413.355
660.596;31339.496;  -13.301;39931.414
661.173;29922.662;  -11.211;39604.531
661.750;29626.270;   -9.951;39700.070
662.328;30749.623;   -9.390;39292.809
662.905;30359.479;  -11.330;38235.648
663.482;26635.098;   -9.050;36212.305
664.060;23733.947;   -8.240;35944.945
664.637;27507.857;  -10.050;35170.785
665.214;31077.859;  -11.760;34197.523
665.791;32509.412;  -10.530;34549.520
666.368;32411.395;   -9.690;35118.578
666.945;32763.898;   -9.320;36019.418
667.522;31551.271;  -11.860;36048.438
668.099;30679.770;  -10.770;36243.914
668.676;31671.594;   -6.260;35958.875
669.253;32995.539;   -7.000;37384.730
669.830;34305.465;  -10.190;36779.629
670.407;34943.289;   -9.550;35231.289
670.984;33500.211;   -9.260;35544.270
671.560;30675.455;   -9.280;35466.867
672.137;27919.691;  -11.810;34280.863
672.714;26596.264;  -11.490;34632.863
673.290;29620.434;   -7.740;35135.422
673.867;33623.598;  -10.660;36114.480
674.443;33645.516;  -12.230;36152.859
675.020;31732.037;  -10.450;35327.238
675.596;29860.146;   -9.260;35795.176
676.173;28852.717;  -10.780;35430.355
676.749;29606.096;  -13.690;33549.516
677.326;29758.396;  -11.980;32210.012
677.902;28035.746;   -8.630;32068.871
678.478;27383.855;  -10.730;32583.891
679.054;28566.088;  -10.520;32088.928
679.631;29725.279;  -11.920;30978.848
680.207;30575.582;   -7.490;33160.887
680.783;30465.277;   -9.860;35570.363
681.359;32538.670;  -13.380;36125.184
681.935;32482.479;  -12.480;35240.922
682.511;30270.611;   -7.900;34429.961
683.087;28742.338;   -7.710;34463.680
683.663;28707.014;  -11.480;34648.898
684.239;30209.889;  -14.090;34546.457
684.815;30235.764;   -7.560;35586.375
685.390;28057.330;   -9.910;35821.895
685.966;28853.020;  -11.159;35085.871
686.542;28522.268;  -11.169;34198.230
687.118;27770.533;   -5.959;32847.707
687.693;30901.314;  -10.329;32794.027
688.269;32133.650;  -12.059;33072.367
688.844;31707.586;  -10.909;33141.664
689.420;33702.215;   -8.019;33965.742
689.995;32755.764;   -8.399;34655.523
690.571;29364.305;  -10.949;33576.742
691.146;28032.951;   -9.619;32657.219
691.722;30569.254;   -8.999;32526.979
692.297;32088.643;  -11.589;33014.617
692.872;30388.547;  -11.739;34012.254
693.448;29757.762;  -11.059;34237.434
694.023;29852.594;  -10.139;34142.672
694.598;28296.607;   -9.029;34132.031
695.173;27936.629;  -13.319;34205.250
695.748;28805.443;  -10.169;32882.488
696.323;28147.084;   -8.339;32864.906
696.898;27597.943;   -8.169;33170.004
697.473;28026.443;  -12.309;32432.984
698.048;27918.342;  -10.989;31649.303
698.623;28108.559;   -9.329;30778.141
699.198;29411.861;   -9.849;31140.119
699.773;29782.523;  -12.329;31764.299
700.348;31270.979;  -10.389;31780.816
700.922;31436.301;   -9.269;32046.375
701.497;28568.268;   -9.329;32603.574
702.072;28418.139;  -10.789;34799.871
702.646;28393.824;  -10.839;35793.172
703.221;29269.035;   -9.099;35201.590
703.795;29165.709;  -10.939;34764.527
704.370;29753.211;  -12.859;34307.367
704.944;31804.652;  -11.559;33509.887
705.519;31605.555;   -7.939;31388.584
706.093;32816.258;  -10.499;31340.104
706.668;31275.217;  -11.289;32630.281
707.242;29966.098;  -11.509;32728.779
707.816;28696.865;   -9.639;32947.238
708.390;26819.545;  -11.429;33277.855
708.965;25360.209;  -11.869;33834.336
709.539;26073.350;  -11.689;33709.273
710.113;27648.625;  -10.478;33044.313
710.687;29103.803;  -10.228;31953.992
711.261;28727.258;  -13.698;30505.949
711.835;28872.563;  -13.378;30262.369
712.409;28738.340;   -9.698;31254.447
712.983;27433.051;  -11.898;32754.986
713.557;27521.588;  -15.138;34018.824
714.131;26165.334;  -14.098;34579.625
714.704;23753.619;   -9.958;33890.262
715.278;23959.580;  -10.028;33531.102
715.852;24690.920;  -11.148;33601.660
716.425;26541.297;   -9.068;33515.117
716.999;26744.619;  -10.038;33185.555
717.573;25626.172;   -9.798;33905.996
718.146;27343.691;  -12.378;35199.293
718.720;29397.324;  -11.918;35060.551
719.293;30266.803;   -8.088;34973.230
719.867;29740.301;  -10.888;36394.449
720.440;27963.918;  -11.938;36663.008
721.013;27779.615;  -12.818;35102.426
721.587;27829.326;  -10.298;33985.266
722.160;27192.223;  -10.048;33524.965
722.733;27212.146;  -12.108;32987.043
723.306;27452.363;  -10.818;33066.301
723.880;28114.844;   -8.908;33399.500
724.453;27112.713;   -9.878;33468.297
725.026;25708.225;  -11.188;33816.637
725.599;25418.924;  -11.678;32797.996
726.172;26967.182;   -9.618;33187.434
726.745;27481.988;   -8.258;35136.613
727.318;27090.580;  -12.978;35751.730
727.891;25398.652;  -12.148;35890.430
728.463;24961.615;   -8.968;34822.090
729.036;25335.816;  -10.188;32895.086
729.609;26966.465;  -11.788;31823.225
730.182;27991.383;  -11.788;31445.283
730.754;26082.539;  -10.268;32373.223
731.327;24049.270;   -9.998;33676.820
731.900;23758.998;  -12.228;33417.000
732.472;25084.191;  -13.848;31978.498
733.045;26579.084;   -8.698;30368.777
733.617;24717.676;  -10.607;30574.215
734.190;25010.082;  -11.507;31280.975
734.762;26552.906;  -13.647;31674.412
735.334;25202.953;   -9.767;31247.291
735.907;24305.582;   -9.897;29876.211
736.479;24763.705;  -11.637;29808.488
737.051;25383.377;   -9.567;30233.547
737.623;24126.037;   -8.187;31469.086
738.195;23535.605;  -11.187;31784.225
738.768;24108.307;  -12.337;32120.523
739.340;23859.945;  -12.227;32094.342
739.912;23131.932;  -11.057;31312.680
740.484;23835.266;  -10.207;31946.238
741.056;23296.914;  -10.047;32984.059
741.628;22198.287;  -13.627;33897.715
742.199;21927.371;   -7.177;33213.016
742.771;23747.990;  -10.797;31369.113
743.343;26289.059;  -11.997;31865.473
743.915;26181.789;  -12.867;32388.631
744.487;24157.666;   -7.617;31079.568
745.058;23083.379;   -9.557;30570.107
745.630;23758.398;   -9.877;29970.127
746.201;22901.873;  -14.177;29186.766
746.773;21450.580;   -9.237;28805.723
747.344;21700.275;   -9.847;29591.223
747.916;22710.230;  -11.657;31412.201
748.487;22067.080;  -10.587;32194.898
749.059;21854.896;   -8.707;32533.719
749.630;21799.119;  -10.537;32158.518
750.201;22155.844;  -11.687;30855.395
750.773;23248.660;  -11.647;28622.555
751.344;23728.607;   -7.147;28405.732
751.915;23153.236;   -9.757;28461.551
752.486;21655.863;  -12.427;27842.850
753.057;20807.076;  -12.227;27845.008
753.628;20210.576;  -10.417;27728.107
754.199;19195.293;  -11.767;27381.086
754.770;18889.457;  -11.187;25882.203
755.341;19964.018;  -10.507;25886.184
755.912;20577.527;   -9.387;26050.861
756.483;19569.344;  -10.647;26798.779
757.054;19052.830;  -11.837;27048.238
757.625;19862.012;  -12.716;26294.838
758.195;20775.176;   -9.666;26142.076
758.766;22539.492;   -8.656;26392.234
759.337;22871.986;  -12.856;26334.594
759.907;21921.826;  -13.366;27579.652
760.478;21622.090;   -8.576;28352.770
761.048;20475.273;  -10.526;27325.088
761.619;20229.051;  -11.116;26460.428
762.189;21023.031;  -12.136;26029.826
762.760;20397.555;   -9.456;26430.145
763.330;19167.102;   -7.136;26670.902
763.900;19857.988;  -11.786;26603.021
764.471;20195.840;  -11.546;25542.740
765.041;18721.533;   -8.096;24358.459
765.611;16742.629;   -8.876;23991.297
766.181;15882.693;  -12.196;24470.236
766.751;16051.956;  -11.636;24845.975
767.321;17326.715;  -10.156;24533.633
767.891;18574.367;  -11.766;24916.492
768.461;18460.521;  -14.936;24776.771
769.031;17636.857;  -12.356;24757.988
769.601;17474.322;   -7.526;24181.088
770.171;18016.834;  -10.766;23670.387
770.741;17652.588;  -13.176;22960.045
771.311;16529.855;  -10.616;22917.523
771.880;16209.715;   -9.576;23562.941
772.450;16288.233;  -10.336;24216.500
773.020;16721.307;  -13.516;24140.398
773.589;16364.777;  -13.466;24414.857
774.159;15782.349;   -8.686;23858.717
774.729;16265.855;   -9.476;22942.135
775.298;16159.590;  -13.666;22324.033
775.867;15346.910;  -11.716;21140.313
776.437;13986.436;   -9.906;20838.092
777.006;13808.065;  -12.166;20599.510
777.576;13610.305;  -12.356;20508.809
778.145;13688.079;  -11.646;20732.947
778.714;13695.511;   -8.226;21062.465
779.283;13546.113;   -9.556;20949.664
779.853;13408.628;  -14.116;20508.623
780.422;13474.441;  -11.506;20649.082
780.991;13776.026;   -9.556;21527.520
781.560;13472.240;   -9.095;22632.658
782.129;11908.455;  -12.135;23048.277
782.698;10931.477;  -10.865;23438.555
783.267;10817.849;   -9.335;23267.734
783.836;11783.392;  -11.045;22415.133
784.404;13198.975;  -13.865;20443.152
784.973;12805.199;  -13.095;19699.150
785.542;12293.230;  -11.575;19763.828
786.111;12375.544;   -9.705;20341.408
786.679;12278.379;  -12.105;20207.967
787.248;11518.366;  -12.455;19516.465
787.817;10486.891;  -11.535;18900.363
788.385;10855.285;   -9.765;17879.121
788.954;11880.854;  -14.005;17658.301
789.522;12569.526;  -11.955;17788.879
790.090;12510.114;  -10.135;18118.277
790.659;12201.419;  -10.975;18338.736
791.227;12047.857;  -13.375;18508.615
791.795;11769.642;  -12.375;17898.254
792.364;11680.279;  -10.725;17295.133
792.932;11807.046;   -9.715;16822.051
793.500;12082.564;  -12.675;17040.148
794.068;12345.688;  -13.495;17179.787
794.636;11560.131;  -10.885;16664.246
795.204;10536.175;  -11.045;16524.545
795.772;10229.138;  -13.175;17274.564
796.340;10962.948;  -12.445;17891.002
796.908;11261.109;   -9.735;17648.561
797.476;11341.003;   -9.815;17064.080
798.044;11048.901;  -13.985;16672.777
798.612;10527.040;  -13.115;17023.996
799.180;10251.215;  -10.185;16561.615
799.747;10043.143;   -9.055;15962.773
800.315; 9221.148;  -12.385;15296.992
800.883; 8440.281;  -15.035;14801.771
801.450; 8624.341;  -10.365;14534.430
802.018; 9387.317;   -9.855;14173.248
802.585;10175.047;  -11.905;14029.547
803.153; 9995.521;  -11.585;13836.846
803.720; 9488.670;   -9.095;13567.324
804.287; 9360.721;   -9.135;13360.622
804.855; 9242.519;  -11.604;13681.981
805.422; 9664.186;  -11.794;13536.560
805.989; 9257.163;  -10.734;13355.958
806.556; 8941.106;  -10.444;13747.896
807.124; 9032.716;  -12.764;13987.376
807.691; 8966.904;  -12.964;14038.674
808.258; 9304.315;  -11.134;14120.152
808.825; 9714.896;   -9.854;13860.111
809.392; 9171.431;  -10.504;13268.790
809.959; 8713.741;  -13.054;12680.389
810.526; 8371.668;   -8.294;12427.308
811.093; 8294.904;   -8.394;12030.105
811.659; 8033.074;  -12.304;11653.664
812.226; 7407.202;  -13.944;11637.183
812.793; 7183.922;  -10.484;11611.521
813.360; 7415.331;  -10.144;11885.181
813.926; 7453.621;  -11.684;12770.539
814.493; 7524.343;  -13.644;12677.638
815.060; 7378.556;   -9.724;11974.336
815.626; 6643.440;   -9.854;11594.715
816.193; 6236.447;  -13.254;11579.474
816.759; 6149.344;  -13.204;11666.972
817.325; 6554.636;   -9.434;11325.530
817.892; 6886.811;  -10.134;11105.369
818.458; 6555.132;  -13.474;10843.928
819.024; 6166.449;  -11.854;10714.406
819.591; 6147.345;  -10.244;10469.165
820.157; 6089.391;  -10.704;10235.523
820.723; 6045.762;  -12.324;10847.563
821.289; 6326.977;   -9.444;11040.980
821.855; 6530.827;   -8.374;10357.100
822.421; 6594.701;  -10.234; 9978.918
822.987; 6637.152;  -13.294; 9754.177
823.553; 6854.102;  -10.884;10065.755
824.119; 6742.114;   -8.884;10036.294
824.685; 6349.089;   -6.784;10029.192
825.251; 5934.849;  -12.004;10199.230
825.816; 5919.587;  -11.474; 9820.189
826.382; 6017.876;   -9.174; 9297.248
826.948; 6003.579;   -9.214; 9381.347
827.513; 5846.931;  -10.774; 9450.726
828.079; 5581.200;  -11.924; 9472.444
828.645; 5461.474;  -10.543; 9292.643
829.210; 5483.695;  -10.533; 9065.341
829.776; 5370.099;  -10.753; 9132.620
830.341; 5181.036;  -10.173; 9092.878
830.906; 4963.398;  -10.743; 9078.557
831.472; 4887.561;  -11.113; 8534.535
832.037; 4931.970;  -10.603; 8677.874
832.602; 4973.352;  -13.323; 8628.692
833.167; 4968.204;  -10.823; 8879.031
833.733; 4696.110;  -10.113; 9189.790
834.298; 4496.227;  -13.583; 9052.608
834.863; 4656.754;  -12.703; 8895.087
835.428; 4920.658;  -10.523; 8824.266
835.993; 5074.777;   -6.963; 8845.385
836.558; 4957.994;  -10.763; 8888.563
837.123; 4735.559;   -9.903; 8966.582
837.688; 4543.744;   -9.913; 8617.860
838.253; 4512.422;  -10.283; 8590.699
838.817; 4776.307;  -12.963; 8443.797
839.382; 4861.714;  -14.243; 8799.356
839.947; 4745.899;  -10.733; 8810.595
840.511; 4577.662;   -9.383; 8796.394
841.076; 4488.375;  -12.563; 8347.231
841.641; 4372.009;  -12.953; 8224.330
842.205; 3967.969;   -7.043; 8223.349
842.770; 3741.902;   -8.163; 8622.107
843.334; 3803.531;  -12.503; 8410.386
843.898; 4000.157;  -11.693; 8337.465
844.463; 4119.187;  -10.203; 8506.283
845.027; 4062.276;   -9.533; 8280.962
845.591; 3886.168;  -13.443; 8231.141
846.156; 3760.406;  -13.143; 7969.179
846.720; 3717.022;   -9.433; 7768.278
847.284; 3384.680;  -11.033; 7630.957
847.848; 2994.526;  -10.403; 7472.395
848.412; 3017.652;  -11.553; 7437.394
848.976; 3365.442;   -8.393; 7674.592
849.540; 3694.023;   -8.713; 7836.011
850.104; 3708.297;  -12.463; 7913.669
850.668; 3633.302;  -12.973; 7694.508
851.232; 3466.212;  -10.793; 7756.887
851.796; 3312.144;  -10.662; 7926.545
852.359; 3467.185;  -13.082; 7827.844
852.923; 3562.435;  -12.192; 7641.163
853.487; 3556.376;  -11.912; 7342.501
854.050; 3595.531;  -10.892; 7042.820
854.614; 3549.775;  -13.992; 7151.338
855.177; 3358.386;  -11.732; 7105.077
855.741; 3189.161;   -8.962; 6989.675
856.304; 3119.962;   -9.442; 6596.634
856.868; 3138.521;  -14.192; 6356.272
857.431; 3228.756;  -12.702; 6468.571
857.995; 3479.709;   -9.942; 6373.210
858.558; 3609.179;   -9.112; 6324.448
859.121; 3255.121;  -12.932; 6408.327
859.684; 2963.304;  -13.442; 6347.886
860.247; 2843.621;  -10.632; 6321.264
860.810; 2836.997;  -11.272; 6301.903
861.374; 2926.666;   -9.832; 6607.881
861.937; 2962.374;  -11.762; 6408.200
862.500; 2958.750;   -9.722; 6572.639
863.062; 2969.694;  -10.512; 6387.297
863.625; 2983.922;  -11.232; 6190.836
864.188; 2885.688;  -14.112; 5807.254
864.751; 2634.889;  -11.302; 5682.413
865.314; 2488.280;  -10.112; 5547.492
865.876; 2554.927;  -12.182; 5500.150
866.439; 2729.469;  -10.722; 5415.909
867.002; 2746.375;   -9.252; 5501.567
867.564; 2589.897;   -9.572; 5413.946
868.127; 2328.572;  -13.142; 5160.325
868.689; 2234.672;  -12.902; 5133.183
869.252; 2218.174;   -9.732; 5252.382
869.814; 2173.909;   -9.432; 5297.141
870.377; 2228.664;  -11.552; 5390.919
870.939; 2307.757;   -9.052; 5599.898
871.501; 2234.987;  -10.982; 5248.336
872.063; 2156.825;  -12.292; 4854.235
872.626; 2098.575;  -14.912; 4817.074
873.188; 2099.986;  -13.112; 4987.732
873.750; 2131.992;  -13.442; 4868.651
874.312; 2101.882;   -9.402; 4779.330
874.874; 1952.679;  -11.062; 4866.348
875.436; 1902.954;  -13.931; 4718.887
875.998; 1912.945;   -9.561; 4660.005
876.560; 1835.998;  -11.321; 4462.964
877.122; 1744.639;  -12.221; 4145.042
877.683; 1662.941;  -12.191; 4056.481
878.245; 1650.591;  -12.101; 3950.740
878.807; 1698.554;   -8.971; 4058.958
879.369; 1744.154;  -12.071; 3954.677
879.930; 1681.764;  -14.621; 3941.495
880.492; 1643.657;  -10.311; 4067.014
881.053; 1632.970;  -10.901; 3859.633
881.615; 1621.595;  -14.411; 3776.071
882.176; 1596.381;  -13.761; 3734.750
882.738; 1581.743;   -9.181; 3678.489
883.299; 1516.907;  -11.791; 3405.407
883.860; 1424.526;  -13.121; 3351.106
884.422; 1335.699;  -11.211; 3394.044
884.983; 1267.297;  -10.091; 3166.443
885.544; 1218.419;   -8.461; 3189.802
886.105; 1180.016;  -12.361; 3160.360
886.666; 1103.106;  -14.141; 3093.059
887.227; 1053.473;  -11.361; 2941.957
887.788; 1029.487;  -11.401; 2974.836
888.349;  948.650;  -13.791; 2721.214
888.910;  880.501;  -13.191; 2696.493
889.471;  840.082;   -9.881; 2560.172
890.032;  797.809;   -9.881; 2558.190
890.593;  756.927;  -10.371; 2567.669
891.153;  723.246;  -13.301; 2460.307
891.714;  703.020;  -11.431; 2372.046
892.275;  671.671;  -11.291; 2309.505
892.835;  662.208;  -11.471; 2382.543
893.396;  653.697;  -11.541; 2295.502
893.956;  620.425;  -11.181; 2162.420
894.517;  563.727;  -11.741; 2125.439
895.077;  503.436;  -11.671; 2086.978
895.638;  458.272;  -11.311; 2126.316
896.198;  437.730;   -9.831; 1838.275
896.758;  437.371;   -8.421; 1892.813
897.319;  425.749;  -12.351; 1792.232
897.879;  390.024;  -13.511; 1762.751
898.439;  359.506;  -12.001; 1661.149
898.999;  349.109;  -10.180; 1781.468
899.559;  345.459;  -12.030; 1703.347
900.119;  339.890;  -15.710; 1537.525
900.679;  329.108;   -8.900; 1638.384
901.239;  313.135;   -8.340; 1527.902
901.799;  290.558;  -13.910; 1456.441
902.359;  271.983;  -13.460; 1357.140
902.919;  262.918;  -11.490; 1331.118
903.479;  258.487;  -12.110; 1317.257
904.038;  253.411;  -11.720; 1262.595
904.598;  240.958;  -13.610; 1152.034
905.158;  229.447;  -11.040; 1240.893
905.717;  219.617;  -10.900; 1233.691
906.277;  212.982;  -15.080; 1217.330
906.836;  207.850;  -13.380; 1222.408
907.396;  203.337;  -10.780; 1193.047
907.955;  199.483;   -8.500; 1182.526
908.515;  193.288;  -12.760; 1099.364
909.074;  188.799;  -11.900; 1092.863
909.633;  184.899;   -8.950; 1069.121
910.192;  181.069;   -8.770; 1196.460
910.752;  178.636;  -12.390; 1029.960
911.311;  175.461;  -13.680; 1009.780
911.870;  174.176;  -12.370;  971.460
912.429;  172.701;  -10.900; 1094.080
912.988;  169.478;  -11.690; 1081.060
913.547;  163.537;  -13.240;  940.380
914.106;  162.155;  -11.990;  999.420
914.665;  160.550;   -9.990;  984.020
915.224;  156.759;  -12.880; 1035.760
915.782;  154.620;  -12.350;  922.560
916.341;  155.095;   -9.110; 1049.840
916.900;  152.493;   -9.270;  925.260
917.458;  150.849;  -13.240;  884.220
918.017;  149.175;  -13.550;  942.600
918.576;  147.895;  -12.320;  904.440
919.134;  146.806;  -11.490;  837.980
919.693;  146.371;  -13.670;  893.060
920.251;  145.924;  -15.470;  876.500
920.809;  145.537;  -11.290;  839.580
921.368;  143.905;  -10.210;  885.360
921.926;  142.325;  -12.140;  842.940
922.484;  140.436;  -13.080;  903.360
923.042;  138.887;  -11.720;  880.340
923.601;  138.838;   -7.480;  998.680
924.159;  137.808;  -11.570;  935.560
924.717;  136.224;  -13.840;  841.080
925.275;  138.348;  -10.640;  903.240
925.833;  138.816;  -11.540;  779.320
926.391;  140.629;  -12.960;  938.380
926.949;  141.245;  -14.130;  857.680
927.506;  141.301;  -11.750;  903.500
928.064;  141.300;  -10.250;  877.580
928.622;  138.418;  -13.030;  880.100
929.180;  139.503;  -13.400;  814.180
929.737;  138.616;  -10.700;  808.540
930.295;  140.579;  -10.070;  928.480
930.853;  140.803;  -11.960;  849.100
931.410;  142.180;  -13.120;  821.120
931.968;  145.653;  -10.770;  940.660
932.525;  145.496;  -10.680;  909.380
933.082;  147.990;  -13.130;  811.440
933.640;  153.041;  -13.210;  925.900
934.197;  157.818;  -11.060;  886.360
934.754;  163.950;   -9.580;  897.780
935.312;  163.691;  -14.000;  863.340
935.869;  160.470;  -10.710; 1012.980
936.426;  155.315;   -9.860;  872.800
936.983;  154.808;   -9.710;  889.020
937.540;  157.519;  -13.990;  838.280
938.097;  159.689;  -14.040;  940.120
938.654;  162.118;  -10.310;  898.860
939.211;  161.614;  -10.560;  952.480
939.768;  159.032;  -13.900;  915.420
940.324;  158.760;  -14.760;  904.200
940.881;  162.818;  -10.370;  878.500
941.438;  168.891;   -8.260; 1021.200
941.995;  171.009;  -12.540;  992.560
942.551;  168.292;  -14.670;  875.620
943.108;  166.069;  -10.450;  937.920
943.664;  163.291;  -10.750;  869.340
944.221;  166.475;  -11.550; 1088.140
944.777;  169.658;  -14.770;  869.680
945.334;  174.341;  -12.820;  884.840
945.890;  179.993;  -10.130;  946.480
946.446;  182.423;  -13.470;  947.020
947.003;  181.737;  -12.120;  964.940
947.559;  184.961;   -9.980; 1063.040
948.115;  186.571;   -9.080; 1026.540
948.671;  189.938;  -10.830;  967.300
949.227;  190.422;  -12.440;  859.560
949.783;  182.142;  -12.910;  858.900
950.339;  174.515;  -10.270;  991.000
950.895;  169.057;  -13.630; 1023.840
951.451;  167.106;  -15.100;  925.280
952.007;  169.684;  -11.330;  998.540
952.563;  172.807;  -10.580;  937.780
953.118;  171.589;  -13.440;  904.940
953.674;  169.444;  -12.710;  935.780
954.230;  169.326;  -10.350;  949.640
954.785;  171.453;   -9.190;  936.640
955.341;  172.631;  -11.200;  998.160
955.897;  167.795;  -16.560;  834.660
956.452;  162.146;  -12.570;  953.840
957.008;  156.036;   -7.970; 1083.640
957.563;  151.117;  -11.940; 1009.540
958.118;  151.637;  -13.450;  877.700
958.674;  154.698;  -12.030;  946.780
959.229;  155.495;   -9.410; 1013.980
959.784;  156.801;  -12.000;  832.400
960.339;  158.867;  -14.780; 1001.280
960.894;  150.812;   -9.860;  963.760
961.449;  140.260;   -9.970;  859.960
962.004;  132.188;  -10.900; 1212.840
962.559;  117.086;  -13.150;  860.140
963.114;  105.874;  -13.740;  742.480
963.669;  101.703;   -9.820;  915.500
964.224;  101.832;  -13.890;  874.340
964.779;  105.581;  -12.600;  828.420
965.334;  110.690;  -10.950; 1017.860
965.888;  109.393;  -11.170;  875.360
966.443;  108.484;  -12.540;  972.380
966.998;  107.217;  -15.780;  819.460
967.552;  109.460;   -9.760;  908.380
968.107;  108.038;   -9.060;  868.300
968.661;  109.582;  -11.950;  922.440
969.216;  108.728;  -12.800;  856.280
969.770;  108.777;  -11.210;  917.200
970.324;  107.874;  -11.610;  923.140
970.879;  105.581;  -11.370;  947.180
971.433;  105.301;  -12.540;  952.720
971.987;  104.541;  -11.320;  895.340
972.541;  104.414;  -10.720;  917.100
973.095;  104.900;   -9.680; 1009.460
973.649;  104.852;  -11.440;  809.480
974.203;  104.510;  -11.210;  829.040
974.757;  103.389;  -10.240;  855.220
975.311;  102.095;  -13.720;  872.600
975.865;  102.140;  -13.770;  881.820
976.419;  103.463;  -11.690;  857.400
976.973;  104.476;   -9.510;  849.620
977.526;  104.696;  -12.620;  949.920
978.080;   99.764;  -12.010;  796.780
978.634;   98.400;  -10.170;  921.320
979.187;   94.692;   -9.020;  905.400
979.741;   95.342;   -9.820; 1018.380
980.294;   92.207;  -14.870;  789.160
980.848;   90.702;  -12.380;  717.220
981.401;   91.915;  -10.350;  816.540
981.955;   92.168;  -13.720;  844.300
982.508;   90.387;  -11.490;  746.340
983.061;   90.596;  -10.000;  915.260
983.615;   88.709;  -11.480;  798.800
984.168;   86.430;  -13.220;  770.080
984.721;   84.688;  -13.960;  880.760
985.274;   81.610;  -10.870;  867.500
985.827;   79.566;   -9.790;  834.220
986.380;   77.357;  -13.120;  721.340
986.933;   76.774;  -12.450;  864.800
987.486;   75.364;  -10.210;  861.920
988.039;   75.541;   -8.430;  863.100
988.591;   75.039;  -10.520;  893.260
989.144;   72.998;  -14.860;  737.260
989.697;   72.411;  -13.080;  758.740
990.250;   73.100;  -10.150;  858.100
990.802;   71.359;  -13.430;  755.860
991.355;   70.615;  -12.750;  974.880
991.907;   68.451;  -12.040;  864.320
992.460;   66.288;  -11.330;  753.760
993.012;   63.725;  -13.610;  749.540
993.565;   61.772;  -13.460;  711.360
994.117;   62.932;   -9.360;  950.780
994.669;   60.322;  -11.300;  701.320
995.221;   59.910;  -13.540;  791.920
995.774;   58.730;  -13.430;  787.580
996.326;   58.682;  -12.520;  740.220
996.878;   59.817;  -10.950;  838.420
997.430;   57.266;  -14.300;  699.860
997.982;   56.703;  -13.760;  750.140
998.534;   55.932;  -11.530;  739.060
999.086;   54.879;  -10.310;  738.220
999.638;   53.243;  -12.530;  661.380
1000.190;   52.185;  -11.840;  699.320
1000.741;   51.238;  -10.260;  742.700
1001.293;   52.119;   -8.860;  686.020
1001.845;   50.023;  -13.700;  676.640
1002.396;   50.256;  -12.100;  743.400
1002.948;   50.068;  -12.760;  737.400
1003.500;   48.377;  -10.380;  723.780
1004.051;   49.140;  -11.900;  907.580
1004.603;   47.890;  -12.250;  791.820
1005.154;   43.895;  -13.210;  608.980
1005.705;   43.320;  -10.950;  723.960
1006.257;   42.501;  -13.880;  707.220
1006.808;   42.612;  -12.840;  685.460
1007.359;   42.203;  -10.570;  763.240
1007.910;   39.831;   -9.620;  646.640
1008.461;   40.657;  -13.630;  732.940
1009.013;   39.020;  -17.200;  588.340
1009.564;   40.585;  -10.200;  793.520
1010.115;   37.156;  -12.570;  597.040
1010.665;   37.718;  -15.150;  602.160
1011.216;   38.310;  -14.480;  667.920
1011.767;   36.975;  -11.340;  697.920
1012.318;   37.322;   -9.780;  736.980
1012.869;   35.976;  -12.380;  679.000
1013.419;   35.865;  -15.560;  603.120
1013.970;   36.393;  -11.010;  666.640
1014.521;   35.557;  -11.610;  620.620
1015.071;   35.746;  -13.450;  670.380
1015.622;   35.857;  -13.870;  635.460
1016.172;   34.089;  -11.610;  596.820
1016.723;   34.507;  -12.120;  614.380
1017.273;   34.365;  -13.620;  604.160
1017.823;   34.849;  -14.140;  650.340
1018.374;   33.756;  -12.800;  611.760
1018.924;   33.570;  -12.340;  716.880
1019.474;   34.188;  -11.410;  718.880
1020.024;   32.625;  -14.770;  657.580
1020.574;   33.280;   -9.780;  726.160
1021.124;   33.032;   -8.560;  673.580
1021.674;   32.055;  -15.190;  559.120
1022.224;   33.742;  -13.530;  708.940
1022.774;   32.507;  -13.280;  668.820
1023.324;   32.746;  -10.690;  753.520
1023.874;   34.050;  -10.240;  875.760
1024.423;   31.891;  -12.540;  613.700
1024.973;   31.417;  -10.010;  610.760
1025.523;   30.099;  -10.550;  620.960
1026.072;   30.004;  -13.560;  606.420
1026.622;   29.824;  -15.120;  675.740
1027.172;   30.072;  -11.260;  715.660
1027.721;   29.139;  -11.410;  601.220
1028.270;   30.399;  -13.530;  663.400
1028.820;   30.202;  -13.680;  638.080
1029.369;   28.973;  -13.520;  612.700
1029.918;   29.759;  -10.980;  649.840
1030.468;   29.134;  -13.530;  564.780
1031.017;   29.714;  -13.170;  634.800
1031.566;   27.876;  -12.200;  608.900
1032.115;   29.402;   -9.960;  694.500
1032.664;   27.933;  -13.210;  596.480
1033.213;   28.693;  -12.500;  735.420
1033.762;   28.159;  -11.910;  635.620
1034.311;   26.871;   -9.640;  677.220
1034.860;   27.666;  -13.310;  691.000
1035.408;   28.474;  -11.830;  722.720
1035.957;   27.811;  -12.000;  719.540
1036.506;   25.839;  -11.690;  530.800
1037.055;   28.122;  -10.990;  844.320
1037.603;   26.164;  -15.120;  664.000
1038.152;   25.392;  -12.450;  534.760
1038.700;   25.670;  -10.560;  585.740
1039.249;   25.706;  -11.080;  681.220
1039.797;   26.270;  -12.540;  633.360
1040.345;   25.294;  -11.920;  705.420
1040.894;   24.843;  -11.410;  625.300
1041.442;   24.529;  -14.320;  632.200
1041.990;   24.027;  -16.240;  559.160
1042.538;   23.969;  -11.680;  536.180
1043.087;   23.652;  -10.760;  570.860
1043.635;   25.130;  -11.850;  670.500
1044.183;   23.611;  -15.480;  586.400
1044.731;   23.856;  -11.770;  576.000
1045.279;   24.030;  -13.090;  674.920
1045.827;   26.018;  -12.440;  892.400
1046.374;   23.395;  -13.840;  515.420
1046.922;   22.288;  -13.220;  590.580
1047.470;   23.834;  -10.230;  691.300
1048.018;   23.927;  -14.590;  647.960
1048.565;   23.818;  -12.050;  708.600
1049.113;   21.849;  -11.650;  557.000
1049.660;   21.848;  -10.510;  629.660
1050.208;   23.136;  -13.310;  675.640
1050.755;   22.539;  -15.900;  606.580
1051.303;   22.217;  -11.430;  686.820
1051.850;   22.041;   -8.480;  635.120
1052.397;   20.183;  -15.010;  473.960
1052.945;   20.638;  -13.960;  617.760
1053.492;   22.076;  -13.150;  741.840
1054.039;   22.060;   -9.630;  720.180
1054.586;   21.019;  -13.680;  557.240
1055.133;   22.032;  -14.570;  693.140
1055.680;   22.414;  -13.820;  646.620
1056.227;   20.489;  -11.730;  542.780
1056.774;   21.793;  -12.480;  794.980
1057.321;   19.943;  -13.930;  523.260
1057.868;   20.578;  -11.690;  651.320
1058.415;   19.506;   -9.520;  651.980
1058.961;   20.591;  -13.160;  678.940
1059.508;   19.949;  -12.920;  643.820
1060.055;   19.449;  -11.920;  581.780
1060.601;   19.823;  -11.500;  624.300
1061.148;   19.650;  -14.330;  616.820
1061.694;   19.410;  -16.870;  592.580
1062.241;   19.797;  -10.330;  596.320
1062.787;   19.983;  -10.620;  663.140
1063.334;   21.402;  -10.110;  808.560
1063.880;   19.696;  -13.400;  668.360
1064.426;   18.923;  -10.680;  706.820
1064.972;   17.918;   -9.920;  601.340
1065.518;   16.718;  -10.980;  566.640
1066.065;   18.810;  -14.890;  624.460
1066.611;   17.794;  -12.870;  598.800
1067.157;   18.113;  -12.950;  641.860
1067.703;   18.377;  -13.540;  668.480
1068.249;   18.845;  -13.540;  605.220
1068.794;   17.858;  -12.600;  626.880
1069.340;   17.052;  -10.620;  578.960
1069.886;   17.514;  -12.830;  590.700
1070.432;   16.498;  -14.870;  541.720
1070.977;   16.497;  -11.980;  601.080
1071.523;   16.164;   -8.200;  573.060
1072.068;   17.260;  -12.330;  582.000
1072.614;   16.503;  -16.370;  527.760
1073.160;   17.548;  -11.100;  687.040
1073.705;   15.352;  -10.480;  572.520
1074.250;   16.773;  -14.520;  559.900
1074.796;   17.534;  -11.460;  655.160
1075.341;   17.197;  -11.950;  664.100
1075.886;   15.382;  -11.460;  594.240
1076.431;   16.197;  -13.770;  649.880
1076.976;   15.431;  -12.680;  639.220
1077.521;   15.349;  -13.170;  583.080
1078.067;   14.576;  -10.860;  579.400
1078.612;   15.029;  -13.920;  661.620
1079.156;   15.720;  -13.880;  601.540
1079.701;   16.070;  -13.120;  693.260
1080.246;   15.990;   -9.940;  696.300
1080.791;   15.054;  -14.740;  625.020
1081.336;   15.200;  -13.750;  659.320
1081.880;   15.434;  -13.400;  649.680
1082.425;   14.109;  -12.220;  573.480
1082.970;   16.218;  -11.610;  717.040
1083.514;   14.247;  -13.580;  597.000
1084.059;   13.211;  -12.810;  586.720
1084.603;   12.821;  -12.320;  565.840
1085.147;   14.049;  -13.190;  645.220
1085.692;   14.561;  -12.480;  716.800
1086.236;   12.865;  -13.020;  503.140
1086.780;   14.825;   -9.190;  751.440
1087.325;   14.008;  -12.480;  654.620
1087.869;   13.740;  -12.450;  610.700
1088.413;   13.374;  -12.240;  705.040
1088.957;   11.813;   -9.020;  543.400
1089.501;   14.236;  -10.320;  766.640
1090.045;   13.632;  -12.720;  726.480
1090.589;   11.321;  -13.690;  569.920
1091.133;   13.168;  -10.020;  673.340
1091.676;   12.489;  -12.330;  591.940
1092.220;   12.156;  -14.970;  600.920
1092.764;   13.443;  -12.430;  706.960
1093.307;   12.293;   -9.800;  673.780
1093.851;   11.989;  -14.970;  556.540
1094.395;   13.240;  -15.310;  683.140
1094.938;   11.707;  -10.370;  632.520
1095.482;   11.578;  -11.050;  559.800
1096.025;   13.011;  -11.840;  710.880
1096.568;   12.994;  -12.840;  779.280
1097.112;   10.197;  -14.700;  508.180
1097.655;   12.093;   -8.720;  603.000
1098.198;   10.231;  -13.610;  600.180
1098.741;   10.611;  -13.350;  612.860
1099.285;   11.364;  -11.230;  657.300
1099.828;    9.446;  -11.840;  439.400
1100.371;   10.878;  -10.840;  608.160
1100.914;   10.924;  -14.190;  682.660
1101.457;   11.363;  -11.240;  679.900
1101.999;    9.561;  -11.270;  584.680
1102.542;   10.777;  -11.480;  641.440
1103.085;   10.013;  -11.750;  658.500
1103.628;   10.908;  -11.400;  762.060
1104.170;    9.968;  -10.490;  588.280
1104.713;   10.450;  -10.600;  646.700
1105.256;    9.893;  -14.360;  557.440
1105.798;    8.620;  -13.210;  499.980
1106.341;   11.006;  -10.270;  728.900
1106.883;    9.463;  -12.200;  521.340
1107.425;    9.720;  -13.110;  668.180
1107.968;    9.160;  -12.840;  612.380
1108.510;    9.942;   -6.480;  684.960
1109.052;    8.242;  -13.940;  612.620
1109.594;    8.751;  -13.690;  554.440
1110.136;    9.630;  -11.880;  643.220
1110.679;    7.963;   -9.500;  633.080
1111.221;    9.448;  -14.160;  604.460
1111.763;    8.290;  -13.980;  559.220
1112.304;    8.312;  -13.880;  547.140
1112.846;    8.513;  -12.210;  666.240
1113.388;   11.348;  -11.390;  942.180
1113.930;    8.870;  -14.540;  694.200
1114.472;    7.652;  -12.640;  606.540
1115.013;    6.583;  -11.620;  551.280
1115.555;    7.190;  -13.640;  587.100
1116.097;    6.450;  -15.380;  579.480
1116.638;    7.724;  -12.640;  684.600
1117.180;    8.388;   -9.850;  667.740
1117.721;    6.875;  -13.690;  568.580
1118.262;    8.385;  -12.680;  677.960
1118.804;    7.219;  -12.530;  637.340
1119.345;    6.327;  -11.690;  578.400
1119.886;    8.101;  -13.380;  704.040
1120.427;    6.758;  -14.070;  589.020
1120.969;    6.179;  -13.500;  597.920
1121.510;    5.460;  -11.480;  563.060
1122.051;    6.915;  -12.830;  723.580
1122.592;    6.874;  -14.290;  655.420
1123.133;    5.444;  -12.400;  547.940
1123.673;    7.215;  -10.130;  706.480
1124.214;    6.126;  -12.930;  612.460
1124.755;    7.292;  -14.380;  639.460
1125.296;    6.067;  -14.000;  627.320
1125.836;    6.725;  -10.070;  691.500
1126.377;    6.160;  -12.640;  599.660
1126.918;    6.612;  -12.960;  614.980
1127.458;    5.023;  -13.350;  622.220
1127.999;    5.099;  -10.750;  656.980
1128.539;    5.646;  -12.350;  694.240
1129.079;    5.297;  -14.860;  632.720
1129.620;    4.752;  -13.840;  558.100
1130.160;    3.766;  -12.330;  539.480
1130.700;    5.818;  -14.530;  640.840
1131.240;    5.745;  -12.530;  643.700
1131.781;    4.633;  -14.450;  619.680
1132.321;    5.052;   -9.790;  599.120
1132.861;    4.297;  -14.860;  564.200
1133.401;    4.446;  -14.290;  593.940
1133.941;    4.898;  -11.750;  626.280
1134.481;    4.254;   -9.920;  597.580
1135.020;    3.915;  -12.290;  609.160
1135.560;    4.465;  -11.650;  674.940
1136.100;    3.341;  -16.270;  501.160
1136.640;    3.567;  -10.890;  510.480
1137.179;    3.539;  -14.180;  537.960
1137.719;    4.588;  -16.250;  605.400
1138.258;    4.001;  -14.230;  587.360
1138.798;    4.450;   -9.090;  663.780
1139.337;    3.185;  -15.130;  482.840
1139.877;    4.086;  -13.680;  642.360
1140.416;    5.639;  -11.320;  878.060
1140.955;    2.345;  -10.860;  535.380
1141.494;    3.328;  -12.920;  669.280
1142.034;    2.519;  -13.930;  583.520
1142.573;    4.296;  -11.440;  646.280
1143.112;    2.578;  -12.000;  553.480
1143.651;    2.406;  -13.670;  536.480
1144.190;    4.431;  -12.730;  691.640
1144.729;    2.869;  -14.560;  607.420
1145.267;    2.898;  -11.830;  584.900
1145.806;    3.487;  -12.230;  637.040
1146.345;    2.588;  -14.130;  635.020
1146.884;    1.850;  -11.590;  622.500
1147.422;    1.684;  -12.550;  533.060
1147.961;    3.582;  -11.180;  708.460
1148.500;    2.721;  -11.510;  669.720
1149.038;    2.907;  -11.640;  632.500
1149.577;    2.934;  -10.130;  698.640
1150.115;    0.985;  -13.970;  452.280
1150.653;    2.236;  -14.520;  607.340
1151.192;    1.558;  -12.810;  552.920
1151.730;    2.658;   -9.100;  652.560
1152.268;    1.694;  -12.220;  589.520
1152.806;    1.649;  -14.140;  571.180
1153.344;    0.533;  -12.350;  577.640
1153.882;    1.681;   -8.980;  600.060
1154.421;   -0.006;  -15.190;  470.620
1154.958;    0.481;  -15.210;  595.240
1155.496;    2.590;  -12.850;  645.280
1156.034;    1.884;   -9.940;  721.880
1156.572;    2.708;  -13.570;  667.060
1157.110;    0.653;  -14.590;  473.940
1157.647;    1.653;  -13.030;  676.960
1158.185;    0.318;  -12.140;  564.320
1158.723;   -0.643;  -14.390;  509.200
1159.260;    1.222;  -14.090;  701.700
1159.798;    1.499;  -11.920;  658.160
1160.335;    0.834;  -11.110;  631.820

