
Integration time [ms]:   3.276
Averaging Nr. [scans]: 1000
Smoothing Nr. [pixels]: 0
Data measured with spectrometer [name]: 7414430SP
Wave   ;Sample   ;Dark     ;Reference
[nm]   ;[counts] ;[counts] ;[counts] 

288.544;  149.333;    7.793;  793.890
289.143;  154.200;    7.462;  681.602
289.742;  154.116;    8.602;  828.814
290.341;  139.774;    1.321;  789.841
290.940;  128.336;   -0.709;  730.702
291.538;  129.544;    0.881;  881.108
292.137;  129.691;    0.122;  792.581
292.736;  134.652;   -1.929;  975.101
293.335;  130.888;   -8.229;  735.086
293.934;  131.417;   -5.279;  781.677
294.532;  130.224;   -1.369; 1031.958
295.131;  115.576;   -7.641;  834.394
295.730;  116.059;   -8.420;  809.588
296.328;  114.655;   -5.611;  783.442
296.927;  116.129;   -5.781;  779.652
297.525;  117.113;   -6.361;  781.236
298.124;  106.330;  -11.382;  654.009
298.722;  109.989;   -7.641;  761.933
299.321;  109.082;   -6.811;  708.597
299.919;  107.478;   -6.991;  751.918
300.518;  103.428;  -10.362;  689.338
301.116;  105.587;   -9.581;  691.381
301.715;  104.774;   -4.891;  730.222
302.313;  104.855;   -8.801;  704.943
302.911;   99.432;   -8.522;  733.830
303.509;  104.513;   -6.171;  925.627
304.108;  102.480;   -7.311;  760.383
304.706;  101.382;   -8.321;  801.664
305.304;   95.779;  -10.222;  796.707
305.902;  100.848;   -6.021;  784.484
306.500;   97.318;   -4.971;  728.200
307.098;   96.176;   -7.061;  746.560
307.696;   93.291;   -8.801;  780.432
308.294;   93.903;   -6.411;  731.359
308.892;   96.760;   -2.901;  759.769
309.490;   92.428;   -5.041;  712.161
310.088;   90.609;   -5.002;  788.444
310.686;   95.581;   -2.041;  821.749
311.284;   89.754;   -2.351;  766.040
311.882;   88.492;   -4.422;  731.225
312.480;   85.177;   -4.192;  697.167
313.078;   86.982;   -1.172;  808.331
313.675;   87.870;   -2.601;  691.600
314.273;   83.155;   -1.312;  797.837
314.871;   81.742;   -3.942;  589.829
315.468;   80.198;   -2.802;  652.090
316.066;   82.562;   -0.701;  694.427
316.664;   75.201;   -4.362;  656.351
317.261;   79.996;   -2.872;  910.128
317.859;   74.569;   -2.022;  768.735
318.456;   75.168;   -0.531;  830.096
319.054;   71.576;   -3.912;  787.828
319.651;   70.756;   -4.752;  759.928
320.249;   69.213;   -2.602;  810.188
320.846;   66.151;   -0.821;  714.286
321.443;   64.229;   -4.642;  832.135
322.041;   61.495;   -5.002;  812.315
322.638;   58.883;   -3.982;  701.456
323.235;   61.877;   -3.411;  665.683
323.833;   57.793;   -7.361;  740.354
324.430;   53.201;   -8.611;  615.900
325.027;   54.091;   -4.061;  876.855
325.624;   53.641;   -4.031;  644.532
326.221;   50.421;   -7.481;  689.717
326.818;   49.863;   -5.281;  818.332
327.415;   53.453;   -7.460;  748.828
328.012;   53.006;   -5.510;  690.585
328.609;   52.338;   -7.880;  731.389
329.206;   49.041;   -8.331;  778.621
329.803;   49.583;   -5.121;  737.841
330.400;   52.501;   -4.510;  704.260
330.997;   53.759;   -6.441;  817.147
331.594;   52.243;   -8.831;  788.185
332.191;   57.338;   -7.621;  728.722
332.787;   60.641;   -4.591;  844.463
333.384;   59.025;   -7.412;  763.093
333.981;   57.014;   -8.293;  815.687
334.578;   61.829;   -7.052;  708.378
335.174;   63.532;   -3.102;  731.469
335.771;   63.077;   -5.943;  836.456
336.367;   59.463;   -7.393;  710.631
336.964;   63.678;   -4.063;  793.266
337.561;   61.674;   -3.813;  731.112
338.157;   57.849;   -4.654;  911.916
338.754;   54.539;   -7.934;  796.589
339.350;   52.930;   -4.414;  722.493
339.946;   55.463;   -4.664;  773.135
340.543;   47.547;   -6.375;  846.136
341.139;   41.966;   -9.815;  720.836
341.735;   39.474;   -4.526;  772.593
342.332;   38.478;   -4.895;  691.472
342.928;   38.328;   -4.295;  795.394
343.524;   33.032;   -5.476;  761.684
344.120;   29.175;   -5.856;  738.562
344.716;   31.563;   -2.155;  723.717
345.313;   30.308;   -6.275;  795.342
345.909;   25.015;   -8.815;  627.336
346.505;   26.782;   -5.305;  740.247
347.101;   26.947;   -2.674;  827.864
347.697;   27.000;   -4.344;  785.398
348.293;   22.457;   -9.975;  627.244
348.889;   22.511;   -5.774;  745.914
349.485;   22.239;   -5.004;  688.205
350.081;   23.119;   -4.704;  772.592
350.676;   17.786;   -6.635;  691.606
351.272;   21.928;   -4.504;  809.530
351.868;   22.014;   -3.914;  780.497
352.464;   19.412;   -9.044;  723.932
353.059;   14.952;   -8.314;  646.017
353.655;   18.051;   -7.024;  777.063
354.251;   19.735;   -5.343;  759.845
354.846;   14.492;   -8.604;  740.646
355.442;   11.912;   -6.945;  753.071
356.038;   14.539;   -7.564;  751.708
356.633;   14.118;   -5.814;  728.594
357.229;   12.159;   -7.364;  724.757
357.824;   10.123;   -8.024;  703.600
358.420;    9.332;   -9.384;  679.726
359.015;   10.266;   -5.104;  695.357
359.610;   11.197;   -6.854;  763.920
360.206;    4.968;  -10.185;  603.240
360.801;    7.994;   -7.054;  646.503
361.396;   10.486;   -5.034;  725.975
361.992;    5.901;   -8.284;  668.220
362.587;    2.305;   -8.625;  670.160
363.182;    5.212;   -7.674;  689.631
363.777;    5.682;   -5.164;  738.242
364.372;    5.461;   -8.604;  737.314
364.967;    1.711;   -9.055;  680.744
365.563;    5.825;   -6.114;  815.567
366.158;    3.443;   -5.814;  685.161
366.753;    3.448;   -7.854;  649.263
367.348;    1.595;   -7.804;  746.056
367.942;    1.609;   -7.954;  697.298
368.537;    1.032;   -4.984;  754.245
369.132;    0.867;   -8.564;  703.428
369.727;   -2.934;   -8.855;  638.079
370.322;   -1.321;   -6.245;  580.186
370.917;   -2.386;   -6.425;  710.646
371.511;    0.408;   -6.294;  861.834
372.106;   -3.676;   -7.685;  776.964
372.701;   -6.020;   -7.335;  585.988
373.296;   -0.496;   -4.564;  863.135
373.890;   -5.289;  -10.235;  647.840
374.485;   -7.939;   -7.885;  691.199
375.079;   -3.913;   -7.324;  738.685
375.674;   -2.694;   -3.494;  812.970
376.268;   -6.583;   -8.525;  691.759
376.863;  -12.246;  -10.086;  580.327
377.457;   -6.637;   -7.025;  662.490
378.052;   -7.080;   -3.585;  764.884
378.646;   -9.054;   -7.595;  741.167
379.240;   -9.315;   -8.335;  721.176
379.835;   -8.850;   -5.785;  636.978
380.429;   -9.960;   -4.335;  562.557
381.023;  -10.184;   -6.805;  779.205
381.617;  -12.959;   -9.195;  680.106
382.212;   -9.042;   -6.905;  685.303
382.806;   -8.780;   -3.745;  760.690
383.400;  -12.052;   -7.745;  672.281
383.994;  -13.536;   -9.765;  664.870
384.588;   -9.638;   -6.564;  697.701
385.182;   -8.347;   -5.344;  726.624
385.776;   -9.783;   -8.514;  706.875
386.370;  -13.601;   -9.555;  681.968
386.964;  -12.263;   -8.715;  684.155
387.558;   -9.977;   -6.174;  598.360
388.152;  -14.242;   -8.725;  681.959
388.745;  -12.941;   -7.965;  814.707
389.339;   -9.866;   -5.924;  747.642
389.933;   -9.589;   -5.524;  695.370
390.527;  -10.049;   -7.114;  859.029
391.120;  -16.936;  -10.725;  595.318
391.714;  -13.029;   -8.035;  711.633
392.308;  -10.209;   -3.574;  780.253
392.901;  -13.998;   -7.245;  642.460
393.495;  -16.830;   -9.285;  595.414
394.089;  -13.848;   -5.895;  760.452
394.682;  -14.625;   -4.295;  697.188
395.275;  -15.062;   -9.875;  719.927
395.869;  -16.952;   -8.485;  667.314
396.462;  -15.551;   -7.455;  616.609
397.056;  -11.104;   -5.424;  776.621
397.649;  -16.245;   -6.605;  731.575
398.242;  -13.493;   -8.224;  712.645
398.836;  -11.614;   -7.474;  766.408
399.429;  -13.162;   -7.094;  631.041
400.022;  -16.677;   -9.475;  665.902
400.615;  -14.869;   -7.145;  805.609
401.208;  -12.621;   -7.174;  691.451
401.802;  -14.567;   -5.515;  699.329
402.395;  -16.272;   -9.875;  683.502
402.988;  -17.047;   -8.845;  696.627
403.581;  -13.937;   -8.874;  646.878
404.174;  -11.761;   -5.324;  686.568
404.767;  -13.542;   -9.575;  638.583
405.360;  -17.096;  -10.965;  621.445
405.953;  -11.808;   -8.764;  759.034
406.545;  -10.573;   -7.514;  725.342
407.138;  -15.473;  -10.025;  618.350
407.731;  -13.844;  -10.034;  613.303
408.324;  -10.570;   -9.374;  660.554
408.917;  -10.472;   -6.534;  681.864
409.509;  -12.854;   -8.004;  740.396
410.102;  -15.293;   -9.875;  643.948
410.695;   -9.552;   -8.604;  665.758
411.287;   -9.641;   -6.794;  599.821
411.880;  -10.869;   -9.334;  585.421
412.472;  -13.999;  -10.254;  613.092
413.065;  -10.982;   -6.714;  629.408
413.657;   -9.163;   -7.234;  576.678
414.250;   -9.755;  -10.544;  646.681
414.842;  -10.794;   -9.744;  676.353
415.434;   -8.932;   -6.994;  570.463
416.027;   -4.305;   -5.893;  652.196
416.619;   -6.318;   -7.264;  713.400
417.211;   -7.999;  -10.374;  599.352
417.804;   -3.537;   -7.993;  628.499
418.396;   -7.464;   -7.234;  607.643
418.988;   -5.405;   -9.443;  659.238
419.580;   -8.368;  -10.724;  568.276
420.172;   -6.643;  -10.323;  536.196
420.764;   -2.728;   -8.793;  672.482
421.356;   -3.207;  -11.143;  636.898
421.948;   -4.591;   -8.293;  677.661
422.540;    0.522;   -7.893;  680.027
423.132;    0.138;   -7.082;  600.641
423.724;   -3.652;   -8.653;  561.267
424.316;   -0.940;  -10.213;  621.345
424.908;    2.290;   -9.762;  591.517
425.500;    2.918;   -5.572;  647.978
426.092;    3.200;   -8.422;  648.268
426.683;    1.626;   -9.283;  684.836
427.275;    4.701;   -7.852;  641.471
427.867;    6.623;   -5.272;  668.948
428.458;    7.191;   -7.682;  732.344
429.050;    5.130;  -10.612;  680.749
429.642;    7.434;   -9.882;  743.124
430.233;    8.230;   -6.962;  569.356
430.825;    9.877;   -6.842;  724.809
431.416;    6.273;   -9.672;  698.241
432.008;    9.974;   -6.552;  651.723
432.599;   11.157;   -6.891;  656.073
433.190;    8.347;  -10.912;  637.670
433.782;    6.690;  -11.172;  590.395
434.373;   15.222;   -6.061;  884.765
434.964;   13.887;   -8.251;  602.920
435.556;   11.244;   -9.722;  634.537
436.147;   13.904;   -9.082;  758.490
436.738;   13.978;   -8.041;  701.099
437.329;   19.150;   -7.341;  721.723
437.920;   11.484;   -8.162;  666.688
438.511;   11.907;  -11.802;  564.526
439.103;   18.998;  -10.191;  623.998
439.694;   20.232;   -7.601;  681.583
440.285;   21.150;   -8.541;  764.432
440.876;   18.282;   -9.751;  845.738
441.466;   18.699;   -9.401;  575.162
442.057;   24.275;   -7.760;  665.814
442.648;   22.895;   -9.971;  746.255
443.239;   20.538;  -11.001;  620.477
443.830;   25.714;   -7.990;  704.958
444.421;   27.588;   -7.910;  655.474
445.011;   24.751;   -8.131;  693.619
445.602;   24.032;   -7.111;  743.126
446.193;   25.752;  -10.920;  488.117
446.783;   30.897;   -6.500;  640.397
447.374;   25.774;   -8.671;  692.759
447.964;   25.939;  -10.781;  713.770
448.555;   34.054;   -9.650;  822.742
449.145;   30.157;   -8.660;  662.853
449.736;   31.593;   -8.990;  803.179
450.326;   32.086;   -9.500;  713.626
450.917;   36.694;   -8.680;  675.324
451.507;   35.285;   -7.520;  600.661
452.097;   36.267;   -8.590;  746.267
452.688;   36.626;  -11.340;  742.160
453.278;   36.984;  -10.100;  566.840
453.868;   41.484;   -6.019;  793.550
454.458;   39.820;   -9.440;  651.141
455.048;   39.654;  -10.560;  711.783
455.639;   41.462;  -11.799;  567.096
456.229;   44.677;   -6.899;  710.694
456.819;   47.074;   -7.389;  751.158
457.409;   46.922;  -11.119;  773.993
457.999;   49.841;   -9.289;  737.505
458.589;   48.943;   -6.139;  686.606
459.179;   49.733;   -8.729;  717.658
459.769;   47.424;   -9.789;  627.099
460.358;   53.000;  -10.259;  797.262
460.948;   52.413;   -7.299;  689.503
461.538;   54.199;  -10.289;  660.677
462.128;   51.497;  -11.269;  664.934
462.717;   59.203;   -9.368;  710.326
463.307;   61.836;   -7.908;  705.846
463.897;   58.398;   -9.599;  656.942
464.486;   56.717;   -9.769;  837.128
465.076;   61.315;   -8.048;  733.776
465.666;   64.532;   -9.358;  652.900
466.255;   62.336;   -7.919;  785.651
466.845;   61.294;  -11.689;  666.749
467.434;   64.294;   -7.818;  725.873
468.023;   66.147;   -7.678;  658.357
468.613;   63.124;  -10.939;  713.946
469.202;   67.190;  -10.118;  646.507
469.791;   71.546;   -9.108;  737.811
470.381;   73.223;   -6.058;  742.813
470.970;   73.101;  -10.428;  711.099
471.559;   72.654;  -10.268;  733.291
472.148;   75.956;   -8.448;  675.737
472.738;   78.220;   -6.917;  765.466
473.327;   78.214;  -11.978;  637.529
473.916;   77.037;  -11.888;  737.446
474.505;   81.498;   -9.437;  751.703
475.094;   85.172;   -6.747;  806.570
475.683;   83.925;   -9.367;  797.699
476.272;   84.726;  -12.637;  730.632
476.861;   88.256;  -10.027;  706.754
477.449;   94.480;   -8.716;  728.487
478.038;   88.861;   -9.577;  692.513
478.627;   89.732;   -9.718;  714.852
479.216;   96.569;   -8.947;  769.441
479.805;   99.557;   -6.256;  783.375
480.393;   99.056;   -7.937; 1008.945
480.982;   98.193;   -7.717;  874.501
481.571;  104.518;   -9.266;  858.333
482.159;  105.359;   -7.636;  705.386
482.748;  104.619;   -9.667;  821.385
483.336;  109.271;  -10.376;  858.209
483.925;  109.738;   -7.147;  774.373
484.513;  116.173;   -7.996;  758.962
485.102;  113.523;  -10.027;  810.965
485.690;  121.468;  -10.446; 1011.050
486.278;  124.207;   -8.446;  979.329
486.867;  124.130;   -6.356;  809.662
487.455;  126.028;   -9.136;  898.229
488.043;  127.171;  -10.646;  748.361
488.631;  136.183;   -7.456; 1005.079
489.220;  139.971;   -6.636;  908.626
489.808;  140.095;  -11.036;  741.415
490.396;  148.035;  -10.246;  914.645
490.984;  153.800;   -8.556;  830.161
491.572;  163.871;   -5.886;  940.315
492.160;  169.775;   -9.486;  919.081
492.748;  180.061;  -10.976;  884.341
493.336;  203.399;   -8.776; 1019.693
493.924;  229.158;   -5.465;  958.077
494.512;  256.450;   -9.986; 1066.638
495.100;  294.245;  -10.636; 1103.280
495.687;  347.674;  -10.885; 1206.373
496.275;  406.445;   -8.126; 1150.796
496.863;  471.777;  -10.586; 1281.171
497.451;  570.621;  -11.926; 1386.805
498.038;  716.125;  -10.885; 1556.729
498.626;  830.198;   -6.315; 1741.407
499.214;  959.089;   -7.326; 2016.609
499.801; 1163.921;  -11.906; 2220.633
500.389; 1419.968;  -10.466; 2312.494
500.976; 1771.750;   -5.236; 2744.849
501.564; 2159.333;   -8.936; 3148.565
502.151; 2531.066;  -13.176; 3515.999
502.738; 3019.593;  -10.646; 3971.274
503.326; 3390.810;   -9.525; 4403.796
503.913; 3844.381;  -10.856; 5161.749
504.500; 4200.468;  -11.586; 5986.420
505.088; 4592.234;  -10.336; 6381.201
505.675; 5097.749;   -6.355; 6925.547
506.262; 5673.112;   -9.046; 7619.060
506.849; 6418.539;  -10.416; 8733.969
507.436; 6912.732;  -10.305; 9790.121
508.023; 7288.421;   -5.496; 9985.472
508.610; 7571.455;   -7.856;10434.618
509.197; 8310.084;  -10.097;11198.435
509.784; 9794.314;  -10.886;12391.194
510.371;10924.643;   -9.315;13603.713
510.958;11609.792;   -9.936;14426.586
511.545;12233.191;   -9.326;15243.775
512.132;12811.446;  -10.075;15945.876
512.719;13459.693;   -7.796;16340.369
513.305;14697.223;  -10.606;18011.766
513.892;15644.562;  -11.486;19754.971
514.479;17084.957;   -9.126;20967.805
515.066;18135.441;   -6.026;22299.793
515.652;18954.822;   -8.466;22908.660
516.239;20265.402;  -10.886;23798.875
516.825;20804.197;  -11.496;25567.275
517.412;21885.779;   -5.796;28154.959
517.998;22897.355;  -10.506;28344.111
518.585;22805.479;  -10.076;27134.219
519.171;22757.912;   -8.315;27268.576
519.758;24394.818;   -8.596;28964.129
520.344;25790.781;   -8.466;30664.494
520.930;25779.361;  -11.006;32550.605
521.516;27780.256;  -10.495;35422.895
522.103;30378.188;   -5.526;38280.004
522.689;31098.449;   -8.746;37835.117
523.275;30061.754;  -11.376;37288.613
523.861;30204.830;  -11.156;37281.395
524.447;31946.711;   -8.135;37846.949
525.033;31862.100;   -7.896;38321.949
525.619;32335.406;  -12.476;38579.285
526.205;33825.910;   -9.516;40622.875
526.791;36167.035;   -6.926;42258.836
527.377;36106.160;   -8.346;42966.902
527.963;38119.625;   -8.717;42018.949
528.549;37523.633;  -11.016;42476.828
529.135;35448.641;   -8.536;41854.852
529.721;34978.000;   -9.666;41237.711
530.306;34599.414;  -10.066;41259.445
530.892;34713.746;  -11.356;41506.047
531.478;35505.949;   -6.596;43559.613
532.063;37593.148;   -8.836;47695.563
532.649;37835.297;  -10.047;50808.324
533.235;39716.895;   -9.746;51787.500
533.820;41344.125;   -6.566;52145.035
534.406;41312.871;  -10.817;51133.488
534.991;40607.039;   -9.416;49996.805
535.576;39450.516;   -9.036;48882.852
536.162;39889.914;   -6.156;46942.285
536.747;41015.980;  -11.607;45711.746
537.333;44157.465;  -11.787;48510.180
537.918;46364.270;  -12.437;50439.891
538.503;45444.703;   -7.196;50863.711
539.088;43237.035;  -10.556;50906.922
539.673;44448.496;   -8.767;52621.965
540.259;44322.074;  -10.026;52368.094
540.844;40918.105;   -7.416;50879.109
541.429;40861.156;   -9.467;52077.777
542.014;44221.305;   -9.527;52716.695
542.599;44911.836;   -9.946;52363.281
543.184;41740.844;   -7.927;53187.137
543.769;42860.977;   -9.297;54697.605
544.354;43208.305;  -10.127;53913.914
544.938;42513.008;   -9.267;49680.164
545.523;44715.020;   -6.506;47386.277
546.108;46043.855;   -9.787;49151.949
546.693;47802.105;  -11.587;51384.637
547.278;48082.836;  -10.986;51853.254
547.862;44704.520;   -8.206;51173.750
548.447;40310.605;  -10.067;51691.395
549.031;39602.680;   -9.637;52456.703
549.616;44176.359;   -9.926;52714.516
550.201;43909.457;   -6.347;52414.598
550.785;43649.355;   -7.917;52355.059
551.370;43948.738;  -10.867;54589.453
551.954;45094.145;   -9.047;58267.348
552.538;46625.738;   -7.827;59062.176
553.123;45343.543;  -10.287;58115.285
553.707;43357.266;  -12.178;56556.285
554.291;43330.719;   -8.717;56201.668
554.876;43134.359;   -7.457;55335.762
555.460;44057.227;  -10.387;54155.703
556.044;46515.086;   -9.618;53721.484
556.628;44574.852;  -11.567;53731.016
557.212;44083.027;   -8.097;54312.531
557.796;42793.883;  -11.077;53797.773
558.380;42877.605;  -11.108;56145.984
558.964;42804.875;   -9.057;57277.930
559.548;43041.859;   -6.977;56459.641
560.132;41823.051;  -11.457;54434.543
560.716;41078.906;  -11.378;54800.617
561.300;41079.867;   -9.577;57606.945
561.884;42544.043;   -7.127;58972.445
562.467;42637.105;   -7.118;57327.570
563.051;41570.727;  -13.358;54962.434
563.635;41839.539;  -10.178;52594.473
564.219;43369.410;   -7.837;50610.410
564.802;44117.848;  -11.398;49551.180
565.386;44093.742;  -12.788;48370.953
565.969;43438.309;   -9.077;48178.871
566.553;43279.680;   -6.207;49957.305
567.136;43251.684;   -8.568;50369.594
567.720;39425.223;  -11.868;49492.004
568.303;37945.750;   -8.268;50616.352
568.887;38200.945;   -8.698;50727.148
569.470;38670.035;   -6.808;51698.379
570.053;37221.133;  -13.188;52122.078
570.637;35797.020;  -12.037;52536.438
571.220;35224.836;   -8.577;51186.098
571.803;35173.535;   -8.498;51032.762
572.386;37283.270;  -10.498;49609.887
572.969;40081.387;   -9.388;48285.926
573.552;38783.762;   -8.338;47624.285
574.135;37932.914;   -8.518;45498.641
574.718;34202.020;  -13.628;41970.434
575.301;32137.885;  -10.893;41447.137
575.884;30073.752;   -8.158;40923.836
576.467;30930.221;  -10.328;45267.723
577.050;35118.332;  -13.058;48175.543
577.633;38023.445;   -9.458;47729.328
578.216;37177.480;   -8.928;47579.793
578.799;36105.316;   -9.358;47820.996
579.381;34331.500;  -11.388;48115.551
579.964;32869.797;  -11.718;47333.766
580.547;33835.422;   -8.588;46668.969
581.129;34136.195;   -8.859;44466.141
581.712;34191.277;  -10.729;44164.922
582.294;34906.355;  -11.118;46477.855
582.877;35918.543;   -5.218;48244.254
583.459;34552.527;   -8.679;47437.895
584.042;32842.559;  -10.709;46943.219
584.624;33016.500;  -11.669;46792.227
585.206;31912.639;   -8.218;46557.250
585.789;32843.031;  -10.569;45793.773
586.371;35811.535;  -11.859;43836.391
586.953;35592.793;  -10.719;42972.492
587.536;35923.469;   -7.198;42487.211
588.118;35715.488;   -8.720;42086.414
588.700;33167.578;  -10.439;43389.930
589.282;32177.199;   -9.198;43646.039
589.864;32094.998;   -9.199;43438.109
590.446;32641.486;  -11.319;43151.926
591.028;30749.373;  -11.159;42781.867
591.610;28405.160;  -11.779;42839.098
592.192;25946.631;   -7.668;42820.402
592.774;26321.293;  -11.949;40724.277
593.356;27506.809;  -12.129;39874.789
593.937;28586.893;  -10.669;39980.648
594.519;31293.447;   -6.509;42069.633
595.101;33002.828;  -10.849;42976.031
595.683;32942.117;  -11.679;44084.441
596.264;34167.785;   -9.049;43478.797
596.846;32739.600;   -8.849;43803.672
597.427;31446.605;   -9.570;42986.934
598.009;32967.973;  -12.620;42832.219
598.591;33272.465;  -10.039;42580.086
599.172;32931.730;  -10.369;43061.805
599.753;33128.402;   -9.140;41691.469
600.335;34433.188;  -11.430;40692.520
600.916;32884.910;   -9.939;39982.422
601.498;31288.203;   -8.479;40318.617
602.079;30396.680;  -10.920;40670.609
602.660;30450.908;  -11.480;41450.898
603.241;30486.633;  -11.699;41137.738
603.823;28717.158;   -9.579;38868.797
604.404;29546.396;  -10.620;38182.785
604.985;30774.230;  -10.450;38078.047
605.566;29791.029;   -9.129;38056.633
606.147;29429.844;   -7.510;37020.418
606.728;32142.332;  -10.660;37883.359
607.309;31414.898;  -11.740;38748.273
607.890;30380.994;   -9.759;38850.230
608.471;30130.033;   -8.250;37457.918
609.051;29700.324;   -9.240;36066.457
609.632;28622.309;  -12.120;35991.074
610.213;29414.068;   -9.110;37402.641
610.794;29706.086;   -8.030;38383.363
611.374;28721.566;   -8.110;40562.387
611.955;28466.564;  -13.560;38533.727
612.536;29844.809;  -11.400;36951.789
613.116;30439.146;   -8.070;37197.891
613.697;31186.104;  -10.830;38411.125
614.277;29806.826;  -11.641;38673.938
614.858;30396.215;  -13.310;37075.863
615.438;30639.342;   -7.460;35092.906
616.019;27953.711;   -7.601;33666.301
616.599;28163.801;  -12.020;34189.023
617.179;29864.611;  -11.780;36952.047
617.760;30007.770;   -8.570;39582.574
618.340;31092.006;  -11.471;38943.977
618.920;32577.412;  -11.170;37594.156
619.500;32367.963;  -11.071;37866.938
620.080;32199.494;   -7.750;37869.043
620.660;33224.813;  -12.711;36868.617
621.241;34076.504;  -10.211;36352.309
621.821;33371.016;  -10.961;35459.520
622.401;32822.516;   -7.720;35207.414
622.980;31731.160;   -8.981;35980.422
623.560;30320.648;   -9.331;37351.328
624.140;30433.184;   -9.850;34388.582
624.720;26290.197;   -7.451;32368.764
625.300;22138.934;   -9.070;32638.629
625.880;24832.422;  -12.601;34599.035
626.459;28326.422;  -11.751;36831.738
627.039;31039.721;   -9.281;38299.098
627.619;31242.660;   -8.801;38289.574
628.198;29685.020;  -12.071;37220.695
628.778;29556.803;   -9.461;37632.563
629.357;30394.660;   -8.491;38003.012
629.937;30103.641;   -9.721;38402.039
630.516;29200.486;   -9.951;37868.801
631.096;29045.275;  -11.731;35760.410
631.675;32574.164;   -8.572;35225.219
632.254;37645.738;  -11.282;35130.289
632.834;36959.125;  -13.322;35794.570
633.413;35403.246;  -10.301;35788.922
633.992;32106.342;   -8.582;34532.863
634.571;33084.043;   -8.352;33590.113
635.151;34974.938;  -11.912;34943.863
635.730;33106.137;  -10.511;35352.523
636.309;30421.303;   -7.731;35366.605
636.888;28303.902;   -9.952;36165.637
637.467;28663.563;  -11.672;37515.902
638.046;30809.445;   -8.901;39288.695
638.625;33731.535;   -7.912;38279.699
639.204;33386.672;  -10.022;37741.598
639.782;31845.828;  -12.252;38364.551
640.361;28225.285;  -10.041;36740.621
640.940;25438.283;  -11.161;34950.082
641.519;25068.857;   -9.701;34137.398
642.097;27476.400;  -11.271;35654.258
642.676;30874.707;   -8.651;35637.957
643.255;32540.193;   -8.711;36567.074
643.833;31400.482;   -9.581;37809.434
644.412;31878.080;  -13.711;37337.293
644.990;31524.449;  -11.811;37018.531
645.569;31646.820;   -9.411;36518.469
646.147;30127.018;  -10.291;36186.430
646.726;28883.074;  -12.401;36267.688
647.304;29834.256;  -10.411;36647.625
647.882;31155.477;   -9.651;39286.742
648.461;32854.707;   -9.631;39157.703
649.039;32485.607;  -11.881;35412.883
649.617;32314.621;   -9.661;34744.918
650.195;32300.957;   -9.301;35403.098
650.773;31525.150;  -10.511;35053.797
651.352;29465.711;  -11.521;33756.816
651.930;26681.268;  -12.211;31868.773
652.508;23831.273;   -9.171;33121.551
653.086;27326.424;   -9.371;33564.793
653.663;30712.674;  -13.161;34054.668
654.241;29836.729;  -13.031;35693.309
654.819;31240.195;   -9.371;36422.906
655.397;30330.246;  -10.511;38213.484
655.975;30192.441;  -10.371;39507.625
656.553;30295.779;  -10.051;39498.223
657.130;29146.176;  -10.061;40395.480
657.708;29403.600;   -9.561;39242.020
658.286;29299.852;  -11.511;38920.020
658.863;29500.436;  -10.261;40202.898
659.441;31291.342;   -7.531;39677.938
660.018;30422.490;   -9.501;40413.355
660.596;29835.473;  -13.301;39931.414
661.173;31879.918;  -11.211;39604.531
661.750;32240.219;   -9.951;39700.070
662.328;31706.189;   -9.390;39292.809
662.905;30799.666;  -11.330;38235.648
663.482;26019.330;   -9.050;36212.305
664.060;23846.588;   -8.240;35944.945
664.637;26592.846;  -10.050;35170.785
665.214;28184.590;  -11.760;34197.523
665.791;29854.885;  -10.530;34549.520
666.368;29333.324;   -9.690;35118.578
666.945;30325.371;   -9.320;36019.418
667.522;31258.273;  -11.860;36048.438
668.099;31567.221;  -10.770;36243.914
668.676;31239.047;   -6.260;35958.875
669.253;29474.467;   -7.000;37384.730
669.830;29223.031;  -10.190;36779.629
670.407;28890.227;   -9.550;35231.289
670.984;30060.781;   -9.260;35544.270
671.560;29757.977;   -9.280;35466.867
672.137;28073.398;  -11.810;34280.863
672.714;29247.758;  -11.490;34632.863
673.290;29442.439;   -7.740;35135.422
673.867;29616.691;  -10.660;36114.480
674.443;29654.422;  -12.230;36152.859
675.020;27700.797;  -10.450;35327.238
675.596;29193.871;   -9.260;35795.176
676.173;30081.711;  -10.780;35430.355
676.749;29407.547;  -13.690;33549.516
677.326;29303.389;  -11.980;32210.012
677.902;29452.066;   -8.630;32068.871
678.478;28666.484;  -10.730;32583.891
679.054;28965.162;  -10.520;32088.928
679.631;30304.572;  -11.920;30978.848
680.207;31017.236;   -7.490;33160.887
680.783;32200.629;   -9.860;35570.363
681.359;31022.734;  -13.380;36125.184
681.935;29440.346;  -12.480;35240.922
682.511;27898.873;   -7.900;34429.961
683.087;27986.158;   -7.710;34463.680
683.663;28914.352;  -11.480;34648.898
684.239;28867.727;  -14.090;34546.457
684.815;28725.002;   -7.560;35586.375
685.390;28625.359;   -9.910;35821.895
685.966;28615.762;  -11.159;35085.871
686.542;31265.176;  -11.169;34198.230
687.118;33416.797;   -5.959;32847.707
687.693;33165.797;  -10.329;32794.027
688.269;32355.313;  -12.059;33072.367
688.844;29737.748;  -10.909;33141.664
689.420;27971.285;   -8.019;33965.742
689.995;26398.076;   -8.399;34655.523
690.571;25629.389;  -10.949;33576.742
691.146;26264.215;   -9.619;32657.219
691.722;25370.994;   -8.999;32526.979
692.297;25189.285;  -11.589;33014.617
692.872;27254.885;  -11.739;34012.254
693.448;27257.791;  -11.059;34237.434
694.023;25919.713;  -10.139;34142.672
694.598;27623.604;   -9.029;34132.031
695.173;27471.900;  -13.319;34205.250
695.748;26939.545;  -10.169;32882.488
696.323;26419.375;   -8.339;32864.906
696.898;26252.604;   -8.169;33170.004
697.473;26332.113;  -12.309;32432.984
698.048;26506.229;  -10.989;31649.303
698.623;27350.334;   -9.329;30778.141
699.198;29156.240;   -9.849;31140.119
699.773;29894.523;  -12.329;31764.299
700.348;29008.604;  -10.389;31780.816
700.922;29205.670;   -9.269;32046.375
701.497;29148.207;   -9.329;32603.574
702.072;28839.113;  -10.789;34799.871
702.646;28490.006;  -10.839;35793.172
703.221;27702.383;   -9.099;35201.590
703.795;29707.936;  -10.939;34764.527
704.370;29375.994;  -12.859;34307.367
704.944;29241.199;  -11.559;33509.887
705.519;30568.854;   -7.939;31388.584
706.093;31963.719;  -10.499;31340.104
706.668;31406.895;  -11.289;32630.281
707.242;29680.191;  -11.509;32728.779
707.816;28463.094;   -9.639;32947.238
708.390;26955.197;  -11.429;33277.855
708.965;28078.717;  -11.869;33834.336
709.539;29328.053;  -11.689;33709.273
710.113;29567.043;  -10.478;33044.313
710.687;28292.781;  -10.228;31953.992
711.261;25771.787;  -13.698;30505.949
711.835;25804.018;  -13.378;30262.369
712.409;27183.752;   -9.698;31254.447
712.983;28286.750;  -11.898;32754.986
713.557;29221.963;  -15.138;34018.824
714.131;29218.205;  -14.098;34579.625
714.704;28404.326;   -9.958;33890.262
715.278;26156.848;  -10.028;33531.102
715.852;26217.102;  -11.148;33601.660
716.425;27365.246;   -9.068;33515.117
716.999;27823.041;  -10.038;33185.555
717.573;28653.223;   -9.798;33905.996
718.146;29644.648;  -12.378;35199.293
718.720;29307.787;  -11.918;35060.551
719.293;29053.113;   -8.088;34973.230
719.867;31477.748;  -10.888;36394.449
720.440;31414.088;  -11.938;36663.008
721.013;30248.963;  -12.818;35102.426
721.587;28991.398;  -10.298;33985.266
722.160;26847.400;  -10.048;33524.965
722.733;25771.506;  -12.108;32987.043
723.306;26697.168;  -10.818;33066.301
723.880;28307.434;   -8.908;33399.500
724.453;29492.781;   -9.878;33468.297
725.026;28332.236;  -11.188;33816.637
725.599;25847.037;  -11.678;32797.996
726.172;26709.387;   -9.618;33187.434
726.745;28528.717;   -8.258;35136.613
727.318;30503.311;  -12.978;35751.730
727.891;30973.289;  -12.148;35890.430
728.463;30563.463;   -8.968;34822.090
729.036;29171.283;  -10.188;32895.086
729.609;29170.977;  -11.788;31823.225
730.182;25604.666;  -11.788;31445.283
730.754;23182.371;  -10.268;32373.223
731.327;23370.385;   -9.998;33676.820
731.900;23556.986;  -12.228;33417.000
732.472;25210.346;  -13.848;31978.498
733.045;27736.498;   -8.698;30368.777
733.617;27919.277;  -10.607;30574.215
734.190;27113.188;  -11.507;31280.975
734.762;23908.275;  -13.647;31674.412
735.334;22569.826;   -9.767;31247.291
735.907;23337.383;   -9.897;29876.211
736.479;23027.877;  -11.637;29808.488
737.051;22388.121;   -9.567;30233.547
737.623;23456.770;   -8.187;31469.086
738.195;24496.182;  -11.187;31784.225
738.768;26282.695;  -12.337;32120.523
739.340;25662.885;  -12.227;32094.342
739.912;23979.973;  -11.057;31312.680
740.484;23572.547;  -10.207;31946.238
741.056;22871.336;  -10.047;32984.059
741.628;24332.662;  -13.627;33897.715
742.199;26939.941;   -7.177;33213.016
742.771;25673.760;  -10.797;31369.113
743.343;23026.918;  -11.997;31865.473
743.915;21788.475;  -12.867;32388.631
744.487;21939.193;   -7.617;31079.568
745.058;22180.244;   -9.557;30570.107
745.630;23230.328;   -9.877;29970.127
746.201;24520.057;  -14.177;29186.766
746.773;24521.996;   -9.237;28805.723
747.344;24071.076;   -9.847;29591.223
747.916;22483.297;  -11.657;31412.201
748.487;22021.908;  -10.587;32194.898
749.059;23435.182;   -8.707;32533.719
749.630;24886.357;  -10.537;32158.518
750.201;24542.797;  -11.687;30855.395
750.773;23364.158;  -11.647;28622.555
751.344;23487.004;   -7.147;28405.732
751.915;24257.150;   -9.757;28461.551
752.486;22794.662;  -12.427;27842.850
753.057;20509.969;  -12.227;27845.008
753.628;19605.717;  -10.417;27728.107
754.199;20334.215;  -11.767;27381.086
754.770;21238.873;  -11.187;25882.203
755.341;21448.051;  -10.507;25886.184
755.912;21431.293;   -9.387;26050.861
756.483;20860.104;  -10.647;26798.779
757.054;19083.248;  -11.837;27048.238
757.625;17858.957;  -12.716;26294.838
758.195;17743.211;   -9.666;26142.076
758.766;17591.752;   -8.656;26392.234
759.337;18443.988;  -12.856;26334.594
759.907;20259.814;  -13.366;27579.652
760.478;21364.449;   -8.576;28352.770
761.048;21133.148;  -10.526;27325.088
761.619;20448.354;  -11.116;26460.428
762.189;19989.215;  -12.136;26029.826
762.760;20575.168;   -9.456;26430.145
763.330;21471.627;   -7.136;26670.902
763.900;20624.754;  -11.786;26603.021
764.471;17519.564;  -11.546;25542.740
765.041;16282.145;   -8.096;24358.459
765.611;16990.197;   -8.876;23991.297
766.181;17792.666;  -12.196;24470.236
766.751;18597.053;  -11.636;24845.975
767.321;18133.203;  -10.156;24533.633
767.891;15846.366;  -11.766;24916.492
768.461;15213.980;  -14.936;24776.771
769.031;15776.603;  -12.356;24757.988
769.601;17571.828;   -7.526;24181.088
770.171;17718.795;  -10.766;23670.387
770.741;17160.814;  -13.176;22960.045
771.311;17225.287;  -10.616;22917.523
771.880;17140.689;   -9.576;23562.941
772.450;16775.215;  -10.336;24216.500
773.020;17044.883;  -13.516;24140.398
773.589;16909.686;  -13.466;24414.857
774.159;16771.100;   -8.686;23858.717
774.729;16345.053;   -9.476;22942.135
775.298;15435.539;  -13.666;22324.033
775.867;14855.501;  -11.716;21140.313
776.437;14824.042;   -9.906;20838.092
777.006;14478.496;  -12.166;20599.510
777.576;14463.322;  -12.356;20508.809
778.145;14874.629;  -11.646;20732.947
778.714;14773.052;   -8.226;21062.465
779.283;13725.302;   -9.556;20949.664
779.853;13452.471;  -14.116;20508.623
780.422;13977.235;  -11.506;20649.082
780.991;13530.496;   -9.556;21527.520
781.560;12660.876;   -9.095;22632.658
782.129;12497.110;  -12.135;23048.277
782.698;12309.399;  -10.865;23438.555
783.267;11943.351;   -9.335;23267.734
783.836;12032.037;  -11.045;22415.133
784.404;12877.727;  -13.865;20443.152
784.973;12888.151;  -13.095;19699.150
785.542;12694.032;  -11.575;19763.828
786.111;12762.783;   -9.705;20341.408
786.679;12561.795;  -12.105;20207.967
787.248;12447.819;  -12.455;19516.465
787.817;12004.519;  -11.535;18900.363
788.385;11329.269;   -9.765;17879.121
788.954;10577.031;  -14.005;17658.301
789.522;10317.927;  -11.955;17788.879
790.090;10961.171;  -10.135;18118.277
790.659;11342.643;  -10.975;18338.736
791.227;10733.280;  -13.375;18508.615
791.795;11119.521;  -12.375;17898.254
792.364;11387.402;  -10.725;17295.133
792.932;11543.851;   -9.715;16822.051
793.500;11738.283;  -12.675;17040.148
794.068;12032.683;  -13.495;17179.787
794.636;12185.605;  -10.885;16664.246
795.204;11828.201;  -11.045;16524.545
795.772;11721.969;  -13.175;17274.564
796.340;11205.483;  -12.445;17891.002
796.908;11068.979;   -9.735;17648.561
797.476;10936.335;   -9.815;17064.080
798.044;10400.776;  -13.985;16672.777
798.612; 9665.089;  -13.115;17023.996
799.180; 9425.673;  -10.185;16561.615
799.747; 9364.881;   -9.055;15962.773
800.315; 9052.723;  -12.385;15296.992
800.883; 8673.235;  -15.035;14801.771
801.450; 8560.636;  -10.365;14534.430
802.018; 8593.450;   -9.855;14173.248
802.585; 8659.981;  -11.905;14029.547
803.153; 8789.243;  -11.585;13836.846
803.720; 8807.273;   -9.095;13567.324
804.287; 8460.671;   -9.135;13360.622
804.855; 8039.959;  -11.604;13681.981
805.422; 7866.303;  -11.794;13536.560
805.989; 7661.640;  -10.734;13355.958
806.556; 7850.273;  -10.444;13747.896
807.124; 8365.539;  -12.764;13987.376
807.691; 8473.377;  -12.964;14038.674
808.258; 8238.936;  -11.134;14120.152
808.825; 7799.882;   -9.854;13860.111
809.392; 7790.759;  -10.504;13268.790
809.959; 7388.489;  -13.054;12680.389
810.526; 7004.609;   -8.294;12427.308
811.093; 6967.386;   -8.394;12030.105
811.659; 7449.286;  -12.304;11653.664
812.226; 7849.662;  -13.944;11637.183
812.793; 7572.639;  -10.484;11611.521
813.360; 7020.131;  -10.144;11885.181
813.926; 6600.048;  -11.684;12770.539
814.493; 6335.641;  -13.644;12677.638
815.060; 5972.980;   -9.724;11974.336
815.626; 6022.473;   -9.854;11594.715
816.193; 6506.325;  -13.254;11579.474
816.759; 6616.780;  -13.204;11666.972
817.325; 6838.964;   -9.434;11325.530
817.892; 7255.081;  -10.134;11105.369
818.458; 7663.109;  -13.474;10843.928
819.024; 7294.794;  -11.854;10714.406
819.591; 6966.953;  -10.244;10469.165
820.157; 6728.980;  -10.704;10235.523
820.723; 6369.710;  -12.324;10847.563
821.289; 6231.247;   -9.444;11040.980
821.855; 6179.799;   -8.374;10357.100
822.421; 6137.765;  -10.234; 9978.918
822.987; 5987.488;  -13.294; 9754.177
823.553; 5653.455;  -10.884;10065.755
824.119; 5535.462;   -8.884;10036.294
824.685; 5649.383;   -6.784;10029.192
825.251; 5708.960;  -12.004;10199.230
825.816; 5684.825;  -11.474; 9820.189
826.382; 5555.005;   -9.174; 9297.248
826.948; 5818.254;   -9.214; 9381.347
827.513; 6180.974;  -10.774; 9450.726
828.079; 5959.625;  -11.924; 9472.444
828.645; 5407.335;  -10.543; 9292.643
829.210; 5350.291;  -10.533; 9065.341
829.776; 5335.052;  -10.753; 9132.620
830.341; 5269.043;  -10.173; 9092.878
830.906; 5481.227;  -10.743; 9078.557
831.472; 5842.201;  -11.113; 8534.535
832.037; 5623.295;  -10.603; 8677.874
832.602; 5049.525;  -13.323; 8628.692
833.167; 4639.471;  -10.823; 8879.031
833.733; 4514.331;  -10.113; 9189.790
834.298; 4574.318;  -13.583; 9052.608
834.863; 4524.436;  -12.703; 8895.087
835.428; 4551.517;  -10.523; 8824.266
835.993; 4666.621;   -6.963; 8845.385
836.558; 4614.903;  -10.763; 8888.563
837.123; 4665.050;   -9.903; 8966.582
837.688; 4774.163;   -9.913; 8617.860
838.253; 4885.310;  -10.283; 8590.699
838.817; 5064.600;  -12.963; 8443.797
839.382; 5039.645;  -14.243; 8799.356
839.947; 4761.243;  -10.733; 8810.595
840.511; 4445.847;   -9.383; 8796.394
841.076; 4071.905;  -12.563; 8347.231
841.641; 4096.893;  -12.953; 8224.330
842.205; 4141.615;   -7.043; 8223.349
842.770; 4291.211;   -8.163; 8622.107
843.334; 4625.180;  -12.503; 8410.386
843.898; 4649.060;  -11.693; 8337.465
844.463; 4624.340;  -10.203; 8506.283
845.027; 4333.002;   -9.533; 8280.962
845.591; 4115.566;  -13.443; 8231.141
846.156; 4088.287;  -13.143; 7969.179
846.720; 3959.463;   -9.433; 7768.278
847.284; 3821.839;  -11.033; 7630.957
847.848; 3600.615;  -10.403; 7472.395
848.412; 3448.833;  -11.553; 7437.394
848.976; 3486.080;   -8.393; 7674.592
849.540; 3477.181;   -8.713; 7836.011
850.104; 3578.341;  -12.463; 7913.669
850.668; 3872.933;  -12.973; 7694.508
851.232; 3947.447;  -10.793; 7756.887
851.796; 3779.194;  -10.662; 7926.545
852.359; 3488.860;  -13.082; 7827.844
852.923; 3375.313;  -12.192; 7641.163
853.487; 3242.859;  -11.912; 7342.501
854.050; 3162.238;  -10.892; 7042.820
854.614; 3292.303;  -13.992; 7151.338
855.177; 3411.038;  -11.732; 7105.077
855.741; 3438.100;   -8.962; 6989.675
856.304; 3298.362;   -9.442; 6596.634
856.868; 3258.902;  -14.192; 6356.272
857.431; 3426.396;  -12.702; 6468.571
857.995; 3553.880;   -9.942; 6373.210
858.558; 3594.800;   -9.112; 6324.448
859.121; 3331.055;  -12.932; 6408.327
859.684; 3178.915;  -13.442; 6347.886
860.247; 3245.661;  -10.632; 6321.264
860.810; 3185.279;  -11.272; 6301.903
861.374; 2894.319;   -9.832; 6607.881
861.937; 2610.507;  -11.762; 6408.200
862.500; 2570.014;   -9.722; 6572.639
863.062; 2699.314;  -10.512; 6387.297
863.625; 2833.558;  -11.232; 6190.836
864.188; 2984.016;  -14.112; 5807.254
864.751; 3071.299;  -11.302; 5682.413
865.314; 2971.447;  -10.112; 5547.492
865.876; 2816.035;  -12.182; 5500.150
866.439; 2847.099;  -10.722; 5415.909
867.002; 2767.828;   -9.252; 5501.567
867.564; 2527.590;   -9.572; 5413.946
868.127; 2308.606;  -13.142; 5160.325
868.689; 2260.338;  -12.902; 5133.183
869.252; 2208.066;   -9.732; 5252.382
869.814; 2108.893;   -9.432; 5297.141
870.377; 2111.204;  -11.552; 5390.919
870.939; 2200.871;   -9.052; 5599.898
871.501; 2256.813;  -10.982; 5248.336
872.063; 2259.671;  -12.292; 4854.235
872.626; 2221.057;  -14.912; 4817.074
873.188; 2206.040;  -13.112; 4987.732
873.750; 2157.318;  -13.442; 4868.651
874.312; 2086.081;   -9.402; 4779.330
874.874; 2013.073;  -11.062; 4866.348
875.436; 1948.919;  -13.931; 4718.887
875.998; 1937.334;   -9.561; 4660.005
876.560; 1923.152;  -11.321; 4462.964
877.122; 1859.538;  -12.221; 4145.042
877.683; 1775.317;  -12.191; 4056.481
878.245; 1711.946;  -12.101; 3950.740
878.807; 1731.578;   -8.971; 4058.958
879.369; 1713.838;  -12.071; 3954.677
879.930; 1610.057;  -14.621; 3941.495
880.492; 1565.618;  -10.311; 4067.014
881.053; 1532.158;  -10.901; 3859.633
881.615; 1425.665;  -14.411; 3776.071
882.176; 1372.809;  -13.761; 3734.750
882.738; 1370.515;   -9.181; 3678.489
883.299; 1368.679;  -11.791; 3405.407
883.860; 1377.697;  -13.121; 3351.106
884.422; 1366.169;  -11.211; 3394.044
884.983; 1306.077;  -10.091; 3166.443
885.544; 1201.439;   -8.461; 3189.802
886.105; 1129.640;  -12.361; 3160.360
886.666; 1089.471;  -14.141; 3093.059
887.227; 1040.152;  -11.361; 2941.957
887.788;  960.460;  -11.401; 2974.836
888.349;  886.942;  -13.791; 2721.214
888.910;  892.667;  -13.191; 2696.493
889.471;  903.449;   -9.881; 2560.172
890.032;  873.484;   -9.881; 2558.190
890.593;  840.298;  -10.371; 2567.669
891.153;  817.519;  -13.301; 2460.307
891.714;  772.753;  -11.431; 2372.046
892.275;  732.582;  -11.291; 2309.505
892.835;  687.522;  -11.471; 2382.543
893.396;  628.043;  -11.541; 2295.502
893.956;  574.018;  -11.181; 2162.420
894.517;  537.580;  -11.741; 2125.439
895.077;  534.051;  -11.671; 2086.978
895.638;  540.641;  -11.311; 2126.316
896.198;  514.978;   -9.831; 1838.275
896.758;  468.017;   -8.421; 1892.813
897.319;  432.770;  -12.351; 1792.232
897.879;  419.141;  -13.511; 1762.751
898.439;  393.375;  -12.001; 1661.149
898.999;  363.857;  -10.180; 1781.468
899.559;  351.565;  -12.030; 1703.347
900.119;  347.509;  -15.710; 1537.525
900.679;  346.525;   -8.900; 1638.384
901.239;  333.091;   -8.340; 1527.902
901.799;  322.508;  -13.910; 1456.441
902.359;  314.722;  -13.460; 1357.140
902.919;  305.233;  -11.490; 1331.118
903.479;  289.202;  -12.110; 1317.257
904.038;  267.036;  -11.720; 1262.595
904.598;  252.434;  -13.610; 1152.034
905.158;  247.082;  -11.040; 1240.893
905.717;  238.816;  -10.900; 1233.691
906.277;  226.097;  -15.080; 1217.330
906.836;  216.890;  -13.380; 1222.408
907.396;  209.501;  -10.780; 1193.047
907.955;  202.477;   -8.500; 1182.526
908.515;  196.599;  -12.760; 1099.364
909.074;  190.440;  -11.900; 1092.863
909.633;  185.052;   -8.950; 1069.121
910.192;  179.711;   -8.770; 1196.460
910.752;  175.194;  -12.390; 1029.960
911.311;  170.889;  -13.680; 1009.780
911.870;  168.600;  -12.370;  971.460
912.429;  169.004;  -10.900; 1094.080
912.988;  167.216;  -11.690; 1081.060
913.547;  161.548;  -13.240;  940.380
914.106;  157.647;  -11.990;  999.420
914.665;  154.133;   -9.990;  984.020
915.224;  152.004;  -12.880; 1035.760
915.782;  152.625;  -12.350;  922.560
916.341;  152.155;   -9.110; 1049.840
916.900;  149.340;   -9.270;  925.260
917.458;  146.088;  -13.240;  884.220
918.017;  146.150;  -13.550;  942.600
918.576;  145.511;  -12.320;  904.440
919.134;  143.308;  -11.490;  837.980
919.693;  140.765;  -13.670;  893.060
920.251;  138.100;  -15.470;  876.500
920.809;  137.787;  -11.290;  839.580
921.368;  138.167;  -10.210;  885.360
921.926;  135.863;  -12.140;  842.940
922.484;  136.354;  -13.080;  903.360
923.042;  135.267;  -11.720;  880.340
923.601;  137.773;   -7.480;  998.680
924.159;  136.304;  -11.570;  935.560
924.717;  132.009;  -13.840;  841.080
925.275;  133.118;  -10.640;  903.240
925.833;  132.831;  -11.540;  779.320
926.391;  133.782;  -12.960;  938.380
926.949;  130.752;  -14.130;  857.680
927.506;  131.709;  -11.750;  903.500
928.064;  132.017;  -10.250;  877.580
928.622;  130.963;  -13.030;  880.100
929.180;  130.397;  -13.400;  814.180
929.737;  131.438;  -10.700;  808.540
930.295;  136.262;  -10.070;  928.480
930.853;  138.468;  -11.960;  849.100
931.410;  139.983;  -13.120;  821.120
931.968;  138.530;  -10.770;  940.660
932.525;  138.226;  -10.680;  909.380
933.082;  137.196;  -13.130;  811.440
933.640;  137.855;  -13.210;  925.900
934.197;  136.562;  -11.060;  886.360
934.754;  138.386;   -9.580;  897.780
935.312;  140.933;  -14.000;  863.340
935.869;  146.129;  -10.710; 1012.980
936.426;  146.013;   -9.860;  872.800
936.983;  146.523;   -9.710;  889.020
937.540;  145.770;  -13.990;  838.280
938.097;  143.766;  -14.040;  940.120
938.654;  144.466;  -10.310;  898.860
939.211;  147.737;  -10.560;  952.480
939.768;  151.367;  -13.900;  915.420
940.324;  155.358;  -14.760;  904.200
940.881;  155.914;  -10.370;  878.500
941.438;  156.859;   -8.260; 1021.200
941.995;  151.494;  -12.540;  992.560
942.551;  148.278;  -14.670;  875.620
943.108;  148.688;  -10.450;  937.920
943.664;  151.234;  -10.750;  869.340
944.221;  156.541;  -11.550; 1088.140
944.777;  155.179;  -14.770;  869.680
945.334;  157.180;  -12.820;  884.840
945.890;  159.074;  -10.130;  946.480
946.446;  158.015;  -13.470;  947.020
947.003;  159.611;  -12.120;  964.940
947.559;  162.713;   -9.980; 1063.040
948.115;  161.288;   -9.080; 1026.540
948.671;  158.642;  -10.830;  967.300
949.227;  155.751;  -12.440;  859.560
949.783;  154.028;  -12.910;  858.900
950.339;  156.244;  -10.270;  991.000
950.895;  156.368;  -13.630; 1023.840
951.451;  156.278;  -15.100;  925.280
952.007;  157.870;  -11.330;  998.540
952.563;  158.767;  -10.580;  937.780
953.118;  157.376;  -13.440;  904.940
953.674;  156.913;  -12.710;  935.780
954.230;  158.297;  -10.350;  949.640
954.785;  156.521;   -9.190;  936.640
955.341;  154.364;  -11.200;  998.160
955.897;  151.401;  -16.560;  834.660
956.452;  151.904;  -12.570;  953.840
957.008;  150.506;   -7.970; 1083.640
957.563;  148.211;  -11.940; 1009.540
958.118;  144.320;  -13.450;  877.700
958.674;  146.781;  -12.030;  946.780
959.229;  147.416;   -9.410; 1013.980
959.784;  145.412;  -12.000;  832.400
960.339;  143.734;  -14.780; 1001.280
960.894;  138.540;   -9.860;  963.760
961.449;  135.351;   -9.970;  859.960
962.004;  135.075;  -10.900; 1212.840
962.559;  131.035;  -13.150;  860.140
963.114;  128.102;  -13.740;  742.480
963.669;  127.907;   -9.820;  915.500
964.224;  124.981;  -13.890;  874.340
964.779;  123.790;  -12.600;  828.420
965.334;  125.335;  -10.950; 1017.860
965.888;  125.866;  -11.170;  875.360
966.443;  129.855;  -12.540;  972.380
966.998;  130.724;  -15.780;  819.460
967.552;  127.530;   -9.760;  908.380
968.107;  117.439;   -9.060;  868.300
968.661;  108.336;  -11.950;  922.440
969.216;   99.065;  -12.800;  856.280
969.770;   92.177;  -11.210;  917.200
970.324;   89.027;  -11.610;  923.140
970.879;   89.682;  -11.370;  947.180
971.433;   90.854;  -12.540;  952.720
971.987;   90.697;  -11.320;  895.340
972.541;   90.692;  -10.720;  917.100
973.095;   91.857;   -9.680; 1009.460
973.649;   92.088;  -11.440;  809.480
974.203;   92.560;  -11.210;  829.040
974.757;   93.850;  -10.240;  855.220
975.311;   94.928;  -13.720;  872.600
975.865;   94.299;  -13.770;  881.820
976.419;   93.867;  -11.690;  857.400
976.973;   94.349;   -9.510;  849.620
977.526;   94.975;  -12.620;  949.920
978.080;   94.860;  -12.010;  796.780
978.634;   96.924;  -10.170;  921.320
979.187;   94.634;   -9.020;  905.400
979.741;   92.799;   -9.820; 1018.380
980.294;   88.415;  -14.870;  789.160
980.848;   87.253;  -12.380;  717.220
981.401;   89.008;  -10.350;  816.540
981.955;   90.459;  -13.720;  844.300
982.508;   89.210;  -11.490;  746.340
983.061;   90.598;  -10.000;  915.260
983.615;   87.922;  -11.480;  798.800
984.168;   84.149;  -13.220;  770.080
984.721;   84.263;  -13.960;  880.760
985.274;   83.890;  -10.870;  867.500
985.827;   82.808;   -9.790;  834.220
986.380;   80.737;  -13.120;  721.340
986.933;   79.620;  -12.450;  864.800
987.486;   77.843;  -10.210;  861.920
988.039;   77.520;   -8.430;  863.100
988.591;   74.290;  -10.520;  893.260
989.144;   72.614;  -14.860;  737.260
989.697;   72.007;  -13.080;  758.740
990.250;   73.114;  -10.150;  858.100
990.802;   72.576;  -13.430;  755.860
991.355;   73.106;  -12.750;  974.880
991.907;   70.774;  -12.040;  864.320
992.460;   68.442;  -11.330;  753.760
993.012;   67.116;  -13.610;  749.540
993.565;   65.980;  -13.460;  711.360
994.117;   67.421;   -9.360;  950.780
994.669;   65.200;  -11.300;  701.320
995.221;   62.677;  -13.540;  791.920
995.774;   60.654;  -13.430;  787.580
996.326;   59.484;  -12.520;  740.220
996.878;   59.130;  -10.950;  838.420
997.430;   57.173;  -14.300;  699.860
997.982;   55.800;  -13.760;  750.140
998.534;   55.775;  -11.530;  739.060
999.086;   54.501;  -10.310;  738.220
999.638;   53.400;  -12.530;  661.380
1000.190;   53.024;  -11.840;  699.320
1000.741;   53.161;  -10.260;  742.700
1001.293;   52.292;   -8.860;  686.020
1001.845;   50.470;  -13.700;  676.640
1002.396;   50.279;  -12.100;  743.400
1002.948;   48.591;  -12.760;  737.400
1003.500;   46.690;  -10.380;  723.780
1004.051;   46.341;  -11.900;  907.580
1004.603;   44.945;  -12.250;  791.820
1005.154;   42.311;  -13.210;  608.980
1005.705;   41.329;  -10.950;  723.960
1006.257;   41.160;  -13.880;  707.220
1006.808;   40.589;  -12.840;  685.460
1007.359;   40.356;  -10.570;  763.240
1007.910;   39.532;   -9.620;  646.640
1008.461;   39.029;  -13.630;  732.940
1009.013;   37.680;  -17.200;  588.340
1009.564;   39.006;  -10.200;  793.520
1010.115;   36.479;  -12.570;  597.040
1010.665;   36.954;  -15.150;  602.160
1011.216;   36.715;  -14.480;  667.920
1011.767;   36.181;  -11.340;  697.920
1012.318;   36.728;   -9.780;  736.980
1012.869;   35.713;  -12.380;  679.000
1013.419;   35.363;  -15.560;  603.120
1013.970;   35.277;  -11.010;  666.640
1014.521;   34.821;  -11.610;  620.620
1015.071;   34.882;  -13.450;  670.380
1015.622;   34.521;  -13.870;  635.460
1016.172;   34.375;  -11.610;  596.820
1016.723;   33.883;  -12.120;  614.380
1017.273;   32.716;  -13.620;  604.160
1017.823;   33.241;  -14.140;  650.340
1018.374;   32.508;  -12.800;  611.760
1018.924;   33.017;  -12.340;  716.880
1019.474;   33.038;  -11.410;  718.880
1020.024;   32.239;  -14.770;  657.580
1020.574;   32.679;   -9.780;  726.160
1021.124;   32.935;   -8.560;  673.580
1021.674;   31.235;  -15.190;  559.120
1022.224;   32.051;  -13.530;  708.940
1022.774;   32.005;  -13.280;  668.820
1023.324;   31.852;  -10.690;  753.520
1023.874;   33.237;  -10.240;  875.760
1024.423;   30.117;  -12.540;  613.700
1024.973;   30.757;  -10.010;  610.760
1025.523;   29.221;  -10.550;  620.960
1026.072;   29.054;  -13.560;  606.420
1026.622;   29.527;  -15.120;  675.740
1027.172;   30.088;  -11.260;  715.660
1027.721;   29.091;  -11.410;  601.220
1028.270;   29.091;  -13.530;  663.400
1028.820;   29.006;  -13.680;  638.080
1029.369;   29.244;  -13.520;  612.700
1029.918;   28.769;  -10.980;  649.840
1030.468;   28.100;  -13.530;  564.780
1031.017;   29.306;  -13.170;  634.800
1031.566;   27.476;  -12.200;  608.900
1032.115;   28.220;   -9.960;  694.500
1032.664;   26.117;  -13.210;  596.480
1033.213;   27.782;  -12.500;  735.420
1033.762;   27.363;  -11.910;  635.620
1034.311;   27.629;   -9.640;  677.220
1034.860;   26.803;  -13.310;  691.000
1035.408;   27.538;  -11.830;  722.720
1035.957;   27.333;  -12.000;  719.540
1036.506;   25.453;  -11.690;  530.800
1037.055;   27.272;  -10.990;  844.320
1037.603;   25.957;  -15.120;  664.000
1038.152;   24.462;  -12.450;  534.760
1038.700;   25.223;  -10.560;  585.740
1039.249;   24.546;  -11.080;  681.220
1039.797;   24.920;  -12.540;  633.360
1040.345;   25.191;  -11.920;  705.420
1040.894;   25.367;  -11.410;  625.300
1041.442;   24.560;  -14.320;  632.200
1041.990;   23.145;  -16.240;  559.160
1042.538;   23.501;  -11.680;  536.180
1043.087;   23.549;  -10.760;  570.860
1043.635;   24.624;  -11.850;  670.500
1044.183;   23.659;  -15.480;  586.400
1044.731;   23.106;  -11.770;  576.000
1045.279;   23.381;  -13.090;  674.920
1045.827;   24.952;  -12.440;  892.400
1046.374;   21.777;  -13.840;  515.420
1046.922;   21.762;  -13.220;  590.580
1047.470;   23.884;  -10.230;  691.300
1048.018;   22.479;  -14.590;  647.960
1048.565;   23.943;  -12.050;  708.600
1049.113;   22.303;  -11.650;  557.000
1049.660;   22.123;  -10.510;  629.660
1050.208;   21.622;  -13.310;  675.640
1050.755;   20.732;  -15.900;  606.580
1051.303;   22.082;  -11.430;  686.820
1051.850;   21.115;   -8.480;  635.120
1052.397;   19.255;  -15.010;  473.960
1052.945;   20.320;  -13.960;  617.760
1053.492;   22.385;  -13.150;  741.840
1054.039;   22.051;   -9.630;  720.180
1054.586;   20.285;  -13.680;  557.240
1055.133;   20.574;  -14.570;  693.140
1055.680;   20.778;  -13.820;  646.620
1056.227;   19.517;  -11.730;  542.780
1056.774;   20.682;  -12.480;  794.980
1057.321;   19.442;  -13.930;  523.260
1057.868;   19.412;  -11.690;  651.320
1058.415;   20.132;   -9.520;  651.980
1058.961;   19.794;  -13.160;  678.940
1059.508;   19.869;  -12.920;  643.820
1060.055;   19.509;  -11.920;  581.780
1060.601;   19.758;  -11.500;  624.300
1061.148;   19.000;  -14.330;  616.820
1061.694;   18.451;  -16.870;  592.580
1062.241;   19.450;  -10.330;  596.320
1062.787;   19.554;  -10.620;  663.140
1063.334;   20.334;  -10.110;  808.560
1063.880;   18.224;  -13.400;  668.360
1064.426;   19.032;  -10.680;  706.820
1064.972;   18.169;   -9.920;  601.340
1065.518;   16.733;  -10.980;  566.640
1066.065;   18.229;  -14.890;  624.460
1066.611;   17.058;  -12.870;  598.800
1067.157;   18.146;  -12.950;  641.860
1067.703;   17.728;  -13.540;  668.480
1068.249;   17.271;  -13.540;  605.220
1068.794;   17.003;  -12.600;  626.880
1069.340;   16.595;  -10.620;  578.960
1069.886;   17.094;  -12.830;  590.700
1070.432;   16.075;  -14.870;  541.720
1070.977;   15.921;  -11.980;  601.080
1071.523;   16.460;   -8.200;  573.060
1072.068;   15.798;  -12.330;  582.000
1072.614;   16.253;  -16.370;  527.760
1073.160;   17.088;  -11.100;  687.040
1073.705;   15.813;  -10.480;  572.520
1074.250;   15.099;  -14.520;  559.900
1074.796;   16.851;  -11.460;  655.160
1075.341;   16.350;  -11.950;  664.100
1075.886;   15.731;  -11.460;  594.240
1076.431;   14.351;  -13.770;  649.880
1076.976;   14.906;  -12.680;  639.220
1077.521;   14.880;  -13.170;  583.080
1078.067;   14.002;  -10.860;  579.400
1078.612;   14.938;  -13.920;  661.620
1079.156;   14.608;  -13.880;  601.540
1079.701;   14.430;  -13.120;  693.260
1080.246;   14.812;   -9.940;  696.300
1080.791;   14.928;  -14.740;  625.020
1081.336;   14.906;  -13.750;  659.320
1081.880;   14.268;  -13.400;  649.680
1082.425;   13.777;  -12.220;  573.480
1082.970;   14.217;  -11.610;  717.040
1083.514;   13.327;  -13.580;  597.000
1084.059;   12.994;  -12.810;  586.720
1084.603;   12.599;  -12.320;  565.840
1085.147;   13.449;  -13.190;  645.220
1085.692;   14.690;  -12.480;  716.800
1086.236;   12.867;  -13.020;  503.140
1086.780;   14.720;   -9.190;  751.440
1087.325;   12.772;  -12.480;  654.620
1087.869;   12.927;  -12.450;  610.700
1088.413;   12.927;  -12.240;  705.040
1088.957;   11.379;   -9.020;  543.400
1089.501;   13.326;  -10.320;  766.640
1090.045;   12.312;  -12.720;  726.480
1090.589;   11.463;  -13.690;  569.920
1091.133;   12.421;  -10.020;  673.340
1091.676;   12.159;  -12.330;  591.940
1092.220;   11.145;  -14.970;  600.920
1092.764;   12.583;  -12.430;  706.960
1093.307;   12.005;   -9.800;  673.780
1093.851;   10.771;  -14.970;  556.540
1094.395;   12.420;  -15.310;  683.140
1094.938;   11.244;  -10.370;  632.520
1095.482;   10.842;  -11.050;  559.800
1096.025;   11.942;  -11.840;  710.880
1096.568;   11.995;  -12.840;  779.280
1097.112;   10.255;  -14.700;  508.180
1097.655;   10.917;   -8.720;  603.000
1098.198;    9.135;  -13.610;  600.180
1098.741;    9.796;  -13.350;  612.860
1099.285;   11.397;  -11.230;  657.300
1099.828;    9.075;  -11.840;  439.400
1100.371;    9.948;  -10.840;  608.160
1100.914;   10.514;  -14.190;  682.660
1101.457;   10.408;  -11.240;  679.900
1101.999;    8.620;  -11.270;  584.680
1102.542;    9.569;  -11.480;  641.440
1103.085;    9.122;  -11.750;  658.500
1103.628;   10.560;  -11.400;  762.060
1104.170;    9.245;  -10.490;  588.280
1104.713;    9.643;  -10.600;  646.700
1105.256;    8.999;  -14.360;  557.440
1105.798;    8.635;  -13.210;  499.980
1106.341;    9.896;  -10.270;  728.900
1106.883;    7.788;  -12.200;  521.340
1107.425;    9.178;  -13.110;  668.180
1107.968;    8.509;  -12.840;  612.380
1108.510;    9.412;   -6.480;  684.960
1109.052;    6.874;  -13.940;  612.620
1109.594;    8.164;  -13.690;  554.440
1110.136;    9.345;  -11.880;  643.220
1110.679;    7.970;   -9.500;  633.080
1111.221;    7.913;  -14.160;  604.460
1111.763;    8.161;  -13.980;  559.220
1112.304;    7.613;  -13.880;  547.140
1112.846;    7.756;  -12.210;  666.240
1113.388;    9.880;  -11.390;  942.180
1113.930;    7.371;  -14.540;  694.200
1114.472;    7.424;  -12.640;  606.540
1115.013;    6.107;  -11.620;  551.280
1115.555;    5.817;  -13.640;  587.100
1116.097;    6.187;  -15.380;  579.480
1116.638;    7.546;  -12.640;  684.600
1117.180;    7.692;   -9.850;  667.740
1117.721;    6.775;  -13.690;  568.580
1118.262;    7.514;  -12.680;  677.960
1118.804;    7.274;  -12.530;  637.340
1119.345;    6.264;  -11.690;  578.400
1119.886;    6.734;  -13.380;  704.040
1120.427;    6.389;  -14.070;  589.020
1120.969;    5.483;  -13.500;  597.920
1121.510;    5.668;  -11.480;  563.060
1122.051;    6.268;  -12.830;  723.580
1122.592;    5.543;  -14.290;  655.420
1123.133;    4.614;  -12.400;  547.940
1123.673;    7.403;  -10.130;  706.480
1124.214;    5.592;  -12.930;  612.460
1124.755;    6.080;  -14.380;  639.460
1125.296;    5.858;  -14.000;  627.320
1125.836;    6.033;  -10.070;  691.500
1126.377;    4.523;  -12.640;  599.660
1126.918;    4.978;  -12.960;  614.980
1127.458;    4.433;  -13.350;  622.220
1127.999;    5.696;  -10.750;  656.980
1128.539;    4.318;  -12.350;  694.240
1129.079;    4.232;  -14.860;  632.720
1129.620;    4.177;  -13.840;  558.100
1130.160;    3.961;  -12.330;  539.480
1130.700;    4.575;  -14.530;  640.840
1131.240;    4.976;  -12.530;  643.700
1131.781;    4.203;  -14.450;  619.680
1132.321;    4.892;   -9.790;  599.120
1132.861;    3.224;  -14.860;  564.200
1133.401;    3.761;  -14.290;  593.940
1133.941;    4.266;  -11.750;  626.280
1134.481;    3.645;   -9.920;  597.580
1135.020;    2.875;  -12.290;  609.160
1135.560;    3.878;  -11.650;  674.940
1136.100;    3.522;  -16.270;  501.160
1136.640;    2.811;  -10.890;  510.480
1137.179;    2.558;  -14.180;  537.960
1137.719;    3.892;  -16.250;  605.400
1138.258;    3.818;  -14.230;  587.360
1138.798;    4.201;   -9.090;  663.780
1139.337;    1.849;  -15.130;  482.840
1139.877;    3.104;  -13.680;  642.360
1140.416;    5.211;  -11.320;  878.060
1140.955;    2.520;  -10.860;  535.380
1141.494;    2.860;  -12.920;  669.280
1142.034;    2.614;  -13.930;  583.520
1142.573;    3.374;  -11.440;  646.280
1143.112;    2.166;  -12.000;  553.480
1143.651;    1.837;  -13.670;  536.480
1144.190;    2.612;  -12.730;  691.640
1144.729;    2.381;  -14.560;  607.420
1145.267;    2.767;  -11.830;  584.900
1145.806;    2.675;  -12.230;  637.040
1146.345;    1.406;  -14.130;  635.020
1146.884;    1.365;  -11.590;  622.500
1147.422;    1.191;  -12.550;  533.060
1147.961;    2.570;  -11.180;  708.460
1148.500;    2.027;  -11.510;  669.720
1149.038;    2.793;  -11.640;  632.500
1149.577;    2.477;  -10.130;  698.640
1150.115;   -0.396;  -13.970;  452.280
1150.653;    1.414;  -14.520;  607.340
1151.192;    1.836;  -12.810;  552.920
1151.730;    1.505;   -9.100;  652.560
1152.268;    0.775;  -12.220;  589.520
1152.806;    0.920;  -14.140;  571.180
1153.344;    0.287;  -12.350;  577.640
1153.882;    1.532;   -8.980;  600.060
1154.421;   -0.741;  -15.190;  470.620
1154.958;   -0.185;  -15.210;  595.240
1155.496;    1.712;  -12.850;  645.280
1156.034;    1.275;   -9.940;  721.880
1156.572;    1.712;  -13.570;  667.060
1157.110;   -0.431;  -14.590;  473.940
1157.647;    1.176;  -13.030;  676.960
1158.185;   -0.180;  -12.140;  564.320
1158.723;   -0.915;  -14.390;  509.200
1159.260;    0.301;  -14.090;  701.700
1159.798;    1.235;  -11.920;  658.160
1160.335;   -0.013;  -11.110;  631.820

