
Integration time [ms]:   3.276
Averaging Nr. [scans]: 1000
Smoothing Nr. [pixels]: 0
Data measured with spectrometer [name]: 7414430SP
Wave   ;Sample   ;Dark     ;Reference
[nm]   ;[counts] ;[counts] ;[counts] 

288.544;  158.250;    7.793;  793.890
289.143;  161.805;    7.462;  681.602
289.742;  162.374;    8.602;  828.814
290.341;  149.747;    1.321;  789.841
290.940;  139.826;   -0.709;  730.702
291.538;  140.625;    0.881;  881.108
292.137;  140.631;    0.122;  792.581
292.736;  142.921;   -1.929;  975.101
293.335;  139.257;   -8.229;  735.086
293.934;  140.803;   -5.279;  781.677
294.532;  140.942;   -1.369; 1031.958
295.131;  127.288;   -7.641;  834.394
295.730;  127.221;   -8.420;  809.588
296.328;  124.237;   -5.611;  783.442
296.927;  123.395;   -5.781;  779.652
297.525;  124.875;   -6.361;  781.236
298.124;  116.620;  -11.382;  654.009
298.722;  121.203;   -7.641;  761.933
299.321;  117.422;   -6.811;  708.597
299.919;  114.208;   -6.991;  751.918
300.518;  110.529;  -10.362;  689.338
301.116;  113.634;   -9.581;  691.381
301.715;  113.442;   -4.891;  730.222
302.313;  112.507;   -8.801;  704.943
302.911;  107.428;   -8.522;  733.830
303.509;  112.992;   -6.171;  925.627
304.108;  110.573;   -7.311;  760.383
304.706;  110.470;   -8.321;  801.664
305.304;  104.349;  -10.222;  796.707
305.902;  109.113;   -6.021;  784.484
306.500;  104.000;   -4.971;  728.200
307.098;  102.728;   -7.061;  746.560
307.696;  101.367;   -8.801;  780.432
308.294;  101.388;   -6.411;  731.359
308.892;  103.649;   -2.901;  759.769
309.490;   99.563;   -5.041;  712.161
310.088;   98.126;   -5.002;  788.444
310.686;  101.679;   -2.041;  821.749
311.284;   97.080;   -2.351;  766.040
311.882;   94.699;   -4.422;  731.225
312.480;   92.331;   -4.192;  697.167
313.078;   94.251;   -1.172;  808.331
313.675;   93.714;   -2.601;  691.600
314.273;   88.623;   -1.312;  797.837
314.871;   88.552;   -3.942;  589.829
315.468;   86.692;   -2.802;  652.090
316.066;   89.467;   -0.701;  694.427
316.664;   81.549;   -4.362;  656.351
317.261;   86.357;   -2.872;  910.128
317.859;   81.565;   -2.022;  768.735
318.456;   82.245;   -0.531;  830.096
319.054;   78.133;   -3.912;  787.828
319.651;   77.036;   -4.752;  759.928
320.249;   75.549;   -2.602;  810.188
320.846;   73.766;   -0.821;  714.286
321.443;   70.165;   -4.642;  832.135
322.041;   67.799;   -5.002;  812.315
322.638;   65.346;   -3.982;  701.456
323.235;   66.017;   -3.411;  665.683
323.833;   62.948;   -7.361;  740.354
324.430;   58.222;   -8.611;  615.900
325.027;   59.782;   -4.061;  876.855
325.624;   58.298;   -4.031;  644.532
326.221;   55.939;   -7.481;  689.717
326.818;   55.861;   -5.281;  818.332
327.415;   58.595;   -7.460;  748.828
328.012;   57.756;   -5.510;  690.585
328.609;   56.309;   -7.880;  731.389
329.206;   54.524;   -8.331;  778.621
329.803;   54.721;   -5.121;  737.841
330.400;   56.644;   -4.510;  704.260
330.997;   57.678;   -6.441;  817.147
331.594;   56.281;   -8.831;  788.185
332.191;   62.325;   -7.621;  728.722
332.787;   64.813;   -4.591;  844.463
333.384;   65.019;   -7.412;  763.093
333.981;   64.575;   -8.293;  815.687
334.578;   66.692;   -7.052;  708.378
335.174;   69.063;   -3.102;  731.469
335.771;   68.379;   -5.943;  836.456
336.367;   65.294;   -7.393;  710.631
336.964;   71.382;   -4.063;  793.266
337.561;   67.993;   -3.813;  731.112
338.157;   63.513;   -4.654;  911.916
338.754;   62.386;   -7.934;  796.589
339.350;   61.132;   -4.414;  722.493
339.946;   62.717;   -4.664;  773.135
340.543;   54.060;   -6.375;  846.136
341.139;   47.692;   -9.815;  720.836
341.735;   46.002;   -4.526;  772.593
342.332;   45.359;   -4.895;  691.472
342.928;   45.082;   -4.295;  795.394
343.524;   36.829;   -5.476;  761.684
344.120;   34.150;   -5.856;  738.562
344.716;   37.443;   -2.155;  723.717
345.313;   34.394;   -6.275;  795.342
345.909;   29.553;   -8.815;  627.336
346.505;   31.394;   -5.305;  740.247
347.101;   31.298;   -2.674;  827.864
347.697;   31.068;   -4.344;  785.398
348.293;   26.540;   -9.975;  627.244
348.889;   27.079;   -5.774;  745.914
349.485;   26.227;   -5.004;  688.205
350.081;   27.140;   -4.704;  772.592
350.676;   22.436;   -6.635;  691.606
351.272;   26.367;   -4.504;  809.530
351.868;   26.467;   -3.914;  780.497
352.464;   23.077;   -9.044;  723.932
353.059;   19.544;   -8.314;  646.017
353.655;   22.562;   -7.024;  777.063
354.251;   24.293;   -5.343;  759.845
354.846;   17.997;   -8.604;  740.646
355.442;   15.904;   -6.945;  753.071
356.038;   18.700;   -7.564;  751.708
356.633;   18.695;   -5.814;  728.594
357.229;   15.233;   -7.364;  724.757
357.824;   14.083;   -8.024;  703.600
358.420;   13.227;   -9.384;  679.726
359.015;   13.733;   -5.104;  695.357
359.610;   14.304;   -6.854;  763.920
360.206;    8.245;  -10.185;  603.240
360.801;   11.986;   -7.054;  646.503
361.396;   13.140;   -5.034;  725.975
361.992;    9.333;   -8.284;  668.220
362.587;    6.561;   -8.625;  670.160
363.182;    8.386;   -7.674;  689.631
363.777;    7.991;   -5.164;  738.242
364.372;    8.303;   -8.604;  737.314
364.967;    3.920;   -9.055;  680.744
365.563;    9.087;   -6.114;  815.567
366.158;    6.117;   -5.814;  685.161
366.753;    6.156;   -7.854;  649.263
367.348;    4.988;   -7.804;  746.056
367.942;    4.147;   -7.954;  697.298
368.537;    3.292;   -4.984;  754.245
369.132;    3.461;   -8.564;  703.428
369.727;   -0.454;   -8.855;  638.079
370.322;    1.024;   -6.245;  580.186
370.917;    0.918;   -6.425;  710.646
371.511;    3.385;   -6.294;  861.834
372.106;    0.779;   -7.685;  776.964
372.701;   -2.998;   -7.335;  585.988
373.296;    2.089;   -4.564;  863.135
373.890;   -3.370;  -10.235;  647.840
374.485;   -4.958;   -7.885;  691.199
375.079;   -0.452;   -7.324;  738.685
375.674;    0.324;   -3.494;  812.970
376.268;   -4.146;   -8.525;  691.759
376.863;   -9.612;  -10.086;  580.327
377.457;   -3.049;   -7.025;  662.490
378.052;   -5.376;   -3.585;  764.884
378.646;   -6.343;   -7.595;  741.167
379.240;   -6.882;   -8.335;  721.176
379.835;   -5.401;   -5.785;  636.978
380.429;   -7.626;   -4.335;  562.557
381.023;   -8.485;   -6.805;  779.205
381.617;  -10.829;   -9.195;  680.106
382.212;   -7.263;   -6.905;  685.303
382.806;   -6.042;   -3.745;  760.690
383.400;  -10.592;   -7.745;  672.281
383.994;  -11.370;   -9.765;  664.870
384.588;   -7.827;   -6.564;  697.701
385.182;   -6.184;   -5.344;  726.624
385.776;   -7.866;   -8.514;  706.875
386.370;  -11.859;   -9.555;  681.968
386.964;   -9.671;   -8.715;  684.155
387.558;   -8.712;   -6.174;  598.360
388.152;  -12.061;   -8.725;  681.959
388.745;   -9.808;   -7.965;  814.707
389.339;   -8.537;   -5.924;  747.642
389.933;   -8.062;   -5.524;  695.370
390.527;   -9.962;   -7.114;  859.029
391.120;  -15.409;  -10.725;  595.318
391.714;  -11.709;   -8.035;  711.633
392.308;   -8.815;   -3.574;  780.253
392.901;  -12.561;   -7.245;  642.460
393.495;  -14.436;   -9.285;  595.414
394.089;  -12.019;   -5.895;  760.452
394.682;  -12.936;   -4.295;  697.188
395.275;  -14.109;   -9.875;  719.927
395.869;  -14.924;   -8.485;  667.314
396.462;  -12.884;   -7.455;  616.609
397.056;   -9.564;   -5.424;  776.621
397.649;  -14.172;   -6.605;  731.575
398.242;  -11.606;   -8.224;  712.645
398.836;  -10.173;   -7.474;  766.408
399.429;  -11.381;   -7.094;  631.041
400.022;  -16.217;   -9.475;  665.902
400.615;  -12.415;   -7.145;  805.609
401.208;  -11.070;   -7.174;  691.451
401.802;  -13.254;   -5.515;  699.329
402.395;  -14.729;   -9.875;  683.502
402.988;  -15.397;   -8.845;  696.627
403.581;  -11.952;   -8.874;  646.878
404.174;   -9.663;   -5.324;  686.568
404.767;  -13.420;   -9.575;  638.583
405.360;  -15.040;  -10.965;  621.445
405.953;   -9.984;   -8.764;  759.034
406.545;   -9.377;   -7.514;  725.342
407.138;  -13.612;  -10.025;  618.350
407.731;  -12.830;  -10.034;  613.303
408.324;   -8.224;   -9.374;  660.554
408.917;   -9.693;   -6.534;  681.864
409.509;  -11.249;   -8.004;  740.396
410.102;  -13.336;   -9.875;  643.948
410.695;   -7.214;   -8.604;  665.758
411.287;   -7.933;   -6.794;  599.821
411.880;   -9.209;   -9.334;  585.421
412.472;  -12.743;  -10.254;  613.092
413.065;   -9.460;   -6.714;  629.408
413.657;   -7.885;   -7.234;  576.678
414.250;   -8.079;  -10.544;  646.681
414.842;   -9.539;   -9.744;  676.353
415.434;   -7.116;   -6.994;  570.463
416.027;   -2.666;   -5.893;  652.196
416.619;   -5.175;   -7.264;  713.400
417.211;   -5.326;  -10.374;  599.352
417.804;   -2.259;   -7.993;  628.499
418.396;   -6.314;   -7.234;  607.643
418.988;   -3.980;   -9.443;  659.238
419.580;   -7.439;  -10.724;  568.276
420.172;   -5.160;  -10.323;  536.196
420.764;   -1.259;   -8.793;  672.482
421.356;   -1.681;  -11.143;  636.898
421.948;   -2.988;   -8.293;  677.661
422.540;    2.574;   -7.893;  680.027
423.132;    1.758;   -7.082;  600.641
423.724;   -1.657;   -8.653;  561.267
424.316;    0.225;  -10.213;  621.345
424.908;    3.619;   -9.762;  591.517
425.500;    4.546;   -5.572;  647.978
426.092;    4.660;   -8.422;  648.268
426.683;    3.168;   -9.283;  684.836
427.275;    6.433;   -7.852;  641.471
427.867;    7.493;   -5.272;  668.948
428.458;    8.339;   -7.682;  732.344
429.050;    6.927;  -10.612;  680.749
429.642;    9.477;   -9.882;  743.124
430.233;   10.197;   -6.962;  569.356
430.825;   11.443;   -6.842;  724.809
431.416;    8.773;   -9.672;  698.241
432.008;   12.299;   -6.552;  651.723
432.599;   13.580;   -6.891;  656.073
433.190;    9.523;  -10.912;  637.670
433.782;    9.510;  -11.172;  590.395
434.373;   16.938;   -6.061;  884.765
434.964;   14.868;   -8.251;  602.920
435.556;   11.869;   -9.722;  634.537
436.147;   15.187;   -9.082;  758.490
436.738;   15.644;   -8.041;  701.099
437.329;   20.801;   -7.341;  721.723
437.920;   13.910;   -8.162;  666.688
438.511;   13.122;  -11.802;  564.526
439.103;   20.300;  -10.191;  623.998
439.694;   22.298;   -7.601;  681.583
440.285;   23.182;   -8.541;  764.432
440.876;   20.818;   -9.751;  845.738
441.466;   20.647;   -9.401;  575.162
442.057;   25.814;   -7.760;  665.814
442.648;   24.572;   -9.971;  746.255
443.239;   22.177;  -11.001;  620.477
443.830;   28.237;   -7.990;  704.958
444.421;   29.127;   -7.910;  655.474
445.011;   26.062;   -8.131;  693.619
445.602;   25.958;   -7.111;  743.126
446.193;   27.639;  -10.920;  488.117
446.783;   32.062;   -6.500;  640.397
447.374;   27.150;   -8.671;  692.759
447.964;   27.302;  -10.781;  713.770
448.555;   37.005;   -9.650;  822.742
449.145;   32.610;   -8.660;  662.853
449.736;   33.653;   -8.990;  803.179
450.326;   33.604;   -9.500;  713.626
450.917;   38.798;   -8.680;  675.324
451.507;   37.675;   -7.520;  600.661
452.097;   38.006;   -8.590;  746.267
452.688;   39.164;  -11.340;  742.160
453.278;   39.229;  -10.100;  566.840
453.868;   44.018;   -6.019;  793.550
454.458;   41.333;   -9.440;  651.141
455.048;   41.428;  -10.560;  711.783
455.639;   43.375;  -11.799;  567.096
456.229;   47.529;   -6.899;  710.694
456.819;   48.833;   -7.389;  751.158
457.409;   48.667;  -11.119;  773.993
457.999;   52.627;   -9.289;  737.505
458.589;   52.206;   -6.139;  686.606
459.179;   51.463;   -8.729;  717.658
459.769;   50.048;   -9.789;  627.099
460.358;   54.662;  -10.259;  797.262
460.948;   54.707;   -7.299;  689.503
461.538;   56.368;  -10.289;  660.677
462.128;   53.842;  -11.269;  664.934
462.717;   60.710;   -9.368;  710.326
463.307;   64.059;   -7.908;  705.846
463.897;   59.599;   -9.599;  656.942
464.486;   59.173;   -9.769;  837.128
465.076;   64.041;   -8.048;  733.776
465.666;   66.971;   -9.358;  652.900
466.255;   64.387;   -7.919;  785.651
466.845;   62.628;  -11.689;  666.749
467.434;   67.107;   -7.818;  725.873
468.023;   67.686;   -7.678;  658.357
468.613;   65.827;  -10.939;  713.946
469.202;   70.140;  -10.118;  646.507
469.791;   74.244;   -9.108;  737.811
470.381;   76.219;   -6.058;  742.813
470.970;   74.735;  -10.428;  711.099
471.559;   75.514;  -10.268;  733.291
472.148;   78.551;   -8.448;  675.737
472.738;   80.671;   -6.917;  765.466
473.327;   80.391;  -11.978;  637.529
473.916;   79.361;  -11.888;  737.446
474.505;   84.919;   -9.437;  751.703
475.094;   87.760;   -6.747;  806.570
475.683;   86.862;   -9.367;  797.699
476.272;   88.434;  -12.637;  730.632
476.861;   90.041;  -10.027;  706.754
477.449;   97.065;   -8.716;  728.487
478.038;   90.926;   -9.577;  692.513
478.627;   91.843;   -9.718;  714.852
479.216;   99.086;   -8.947;  769.441
479.805;  101.992;   -6.256;  783.375
480.393;  102.276;   -7.937; 1008.945
480.982;  100.617;   -7.717;  874.501
481.571;  107.247;   -9.266;  858.333
482.159;  107.584;   -7.636;  705.386
482.748;  107.197;   -9.667;  821.385
483.336;  111.743;  -10.376;  858.209
483.925;  113.322;   -7.147;  774.373
484.513;  120.100;   -7.996;  758.962
485.102;  115.786;  -10.027;  810.965
485.690;  125.125;  -10.446; 1011.050
486.278;  127.086;   -8.446;  979.329
486.867;  127.175;   -6.356;  809.662
487.455;  129.550;   -9.136;  898.229
488.043;  131.030;  -10.646;  748.361
488.631;  139.864;   -7.456; 1005.079
489.220;  143.464;   -6.636;  908.626
489.808;  143.470;  -11.036;  741.415
490.396;  151.921;  -10.246;  914.645
490.984;  158.175;   -8.556;  830.161
491.572;  169.528;   -5.886;  940.315
492.160;  175.923;   -9.486;  919.081
492.748;  188.067;  -10.976;  884.341
493.336;  211.034;   -8.776; 1019.693
493.924;  237.661;   -5.465;  958.077
494.512;  268.866;   -9.986; 1066.638
495.100;  314.261;  -10.636; 1103.280
495.687;  375.968;  -10.885; 1206.373
496.275;  427.178;   -8.126; 1150.796
496.863;  493.591;  -10.586; 1281.171
497.451;  602.980;  -11.926; 1386.805
498.038;  707.276;  -10.885; 1556.729
498.626;  804.771;   -6.315; 1741.407
499.214;  952.722;   -7.326; 2016.609
499.801; 1144.659;  -11.906; 2220.633
500.389; 1378.094;  -10.466; 2312.494
500.976; 1643.557;   -5.236; 2744.849
501.564; 2050.926;   -8.936; 3148.565
502.151; 2503.153;  -13.176; 3515.999
502.738; 2968.544;  -10.646; 3971.274
503.326; 3368.547;   -9.525; 4403.796
503.913; 3695.739;  -10.856; 5161.749
504.500; 4174.602;  -11.586; 5986.420
505.088; 4557.218;  -10.336; 6381.201
505.675; 4944.840;   -6.355; 6925.547
506.262; 5359.084;   -9.046; 7619.060
506.849; 5711.509;  -10.416; 8733.969
507.436; 6193.143;  -10.305; 9790.121
508.023; 6673.951;   -5.496; 9985.472
508.610; 7586.555;   -7.856;10434.618
509.197; 9115.796;  -10.097;11198.435
509.784;10513.021;  -10.886;12391.194
510.371;11394.937;   -9.315;13603.713
510.958;12169.185;   -9.936;14426.586
511.545;12906.642;   -9.326;15243.775
512.132;13717.794;  -10.075;15945.876
512.719;14106.472;   -7.796;16340.369
513.305;15214.780;  -10.606;18011.766
513.892;16505.672;  -11.486;19754.971
514.479;18225.959;   -9.126;20967.805
515.066;19370.023;   -6.026;22299.793
515.652;19470.146;   -8.466;22908.660
516.239;20808.359;  -10.886;23798.875
516.825;23207.691;  -11.496;25567.275
517.412;24701.738;   -5.796;28154.959
517.998;26042.926;  -10.506;28344.111
518.585;26169.922;  -10.076;27134.219
519.171;25377.223;   -8.315;27268.576
519.758;25274.359;   -8.596;28964.129
520.344;26130.754;   -8.466;30664.494
520.930;29095.797;  -11.006;32550.605
521.516;29534.994;  -10.495;35422.895
522.103;29024.205;   -5.526;38280.004
522.689;29588.115;   -8.746;37835.117
523.275;31548.320;  -11.376;37288.613
523.861;33783.160;  -11.156;37281.395
524.447;36791.410;   -8.135;37846.949
525.033;37566.996;   -7.896;38321.949
525.619;36741.871;  -12.476;38579.285
526.205;36955.813;   -9.516;40622.875
526.791;36433.168;   -6.926;42258.836
527.377;38160.324;   -8.346;42966.902
527.963;39850.074;   -8.717;42018.949
528.549;38389.309;  -11.016;42476.828
529.135;38255.973;   -8.536;41854.852
529.721;37704.957;   -9.666;41237.711
530.306;36058.180;  -10.066;41259.445
530.892;36842.836;  -11.356;41506.047
531.478;37160.207;   -6.596;43559.613
532.063;37311.922;   -8.836;47695.563
532.649;40249.547;  -10.047;50808.324
533.235;42263.008;   -9.746;51787.500
533.820;41384.781;   -6.566;52145.035
534.406;41048.480;  -10.817;51133.488
534.991;43898.238;   -9.416;49996.805
535.576;45037.926;   -9.036;48882.852
536.162;45316.645;   -6.156;46942.285
536.747;45710.418;  -11.607;45711.746
537.333;45494.582;  -11.787;48510.180
537.918;44940.184;  -12.437;50439.891
538.503;44953.336;   -7.196;50863.711
539.088;43467.586;  -10.556;50906.922
539.673;43188.664;   -8.767;52621.965
540.259;44500.961;  -10.026;52368.094
540.844;46212.457;   -7.416;50879.109
541.429;44884.172;   -9.467;52077.777
542.014;45059.723;   -9.527;52716.695
542.599;47835.434;   -9.946;52363.281
543.184;49865.398;   -7.927;53187.137
543.769;48279.664;   -9.297;54697.605
544.354;44741.711;  -10.127;53913.914
544.938;42600.637;   -9.267;49680.164
545.523;44839.660;   -6.506;47386.277
546.108;49037.906;   -9.787;49151.949
546.693;49474.762;  -11.587;51384.637
547.278;50188.824;  -10.986;51853.254
547.862;46359.746;   -8.206;51173.750
548.447;42947.227;  -10.067;51691.395
549.031;44724.750;   -9.637;52456.703
549.616;46860.500;   -9.926;52714.516
550.201;45221.090;   -6.347;52414.598
550.785;42568.945;   -7.917;52355.059
551.370;41249.406;  -10.867;54589.453
551.954;42908.520;   -9.047;58267.348
552.538;45650.805;   -7.827;59062.176
553.123;45306.309;  -10.287;58115.285
553.707;41591.215;  -12.178;56556.285
554.291;43084.707;   -8.717;56201.668
554.876;45543.930;   -7.457;55335.762
555.460;46579.789;  -10.387;54155.703
556.044;47468.883;   -9.618;53721.484
556.628;47155.258;  -11.567;53731.016
557.212;45600.254;   -8.097;54312.531
557.796;45672.699;  -11.077;53797.773
558.380;43891.652;  -11.108;56145.984
558.964;41940.777;   -9.057;57277.930
559.548;41950.980;   -6.977;56459.641
560.132;41645.746;  -11.457;54434.543
560.716;39607.234;  -11.378;54800.617
561.300;40453.234;   -9.577;57606.945
561.884;43259.738;   -7.127;58972.445
562.467;44494.855;   -7.118;57327.570
563.051;45162.246;  -13.358;54962.434
563.635;42597.691;  -10.178;52594.473
564.219;42155.531;   -7.837;50610.410
564.802;41756.555;  -11.398;49551.180
565.386;42831.926;  -12.788;48370.953
565.969;42745.520;   -9.077;48178.871
566.553;42266.980;   -6.207;49957.305
567.136;40395.496;   -8.568;50369.594
567.720;39538.414;  -11.868;49492.004
568.303;40371.879;   -8.268;50616.352
568.887;39543.855;   -8.698;50727.148
569.470;38478.922;   -6.808;51698.379
570.053;36716.309;  -13.188;52122.078
570.637;34670.117;  -12.037;52536.438
571.220;34094.059;   -8.577;51186.098
571.803;35163.477;   -8.498;51032.762
572.386;36239.875;  -10.498;49609.887
572.969;36114.586;   -9.388;48285.926
573.552;32225.914;   -8.338;47624.285
574.135;32231.197;   -8.518;45498.641
574.718;31703.588;  -13.628;41970.434
575.301;30988.004;  -10.893;41447.137
575.884;30272.420;   -8.158;40923.836
576.467;34108.117;  -10.328;45267.723
577.050;33350.691;  -13.058;48175.543
577.633;31948.625;   -9.458;47729.328
578.216;33305.133;   -8.928;47579.793
578.799;34242.129;   -9.358;47820.996
579.381;33670.535;  -11.388;48115.551
579.964;31735.828;  -11.718;47333.766
580.547;32332.229;   -8.588;46668.969
581.129;33695.363;   -8.859;44466.141
581.712;33178.973;  -10.729;44164.922
582.294;35113.289;  -11.118;46477.855
582.877;32941.316;   -5.218;48244.254
583.459;32611.555;   -8.679;47437.895
584.042;34092.383;  -10.709;46943.219
584.624;36960.344;  -11.669;46792.227
585.206;36050.227;   -8.218;46557.250
585.789;34135.355;  -10.569;45793.773
586.371;33945.875;  -11.859;43836.391
586.953;32887.121;  -10.719;42972.492
587.536;34667.996;   -7.198;42487.211
588.118;36413.285;   -8.720;42086.414
588.700;35336.609;  -10.439;43389.930
589.282;34140.406;   -9.198;43646.039
589.864;33487.594;   -9.199;43438.109
590.446;31563.363;  -11.319;43151.926
591.028;30638.238;  -11.159;42781.867
591.610;30138.525;  -11.779;42839.098
592.192;27132.080;   -7.668;42820.402
592.774;27501.682;  -11.949;40724.277
593.356;28322.520;  -12.129;39874.789
593.937;26739.334;  -10.669;39980.648
594.519;26397.066;   -6.509;42069.633
595.101;27830.242;  -10.849;42976.031
595.683;28744.857;  -11.679;44084.441
596.264;29067.783;   -9.049;43478.797
596.846;30961.398;   -8.849;43803.672
597.427;32141.248;   -9.570;42986.934
598.009;32816.992;  -12.620;42832.219
598.591;32405.326;  -10.039;42580.086
599.172;32002.773;  -10.369;43061.805
599.753;31404.561;   -9.140;41691.469
600.335;31468.994;  -11.430;40692.520
600.916;32030.066;   -9.939;39982.422
601.498;30734.094;   -8.479;40318.617
602.079;29369.043;  -10.920;40670.609
602.660;30843.287;  -11.480;41450.898
603.241;31701.932;  -11.699;41137.738
603.823;32037.547;   -9.579;38868.797
604.404;32129.467;  -10.620;38182.785
604.985;30814.781;  -10.450;38078.047
605.566;30206.496;   -9.129;38056.633
606.147;30134.283;   -7.510;37020.418
606.728;31411.076;  -10.660;37883.359
607.309;31911.527;  -11.740;38748.273
607.890;30654.541;   -9.759;38850.230
608.471;29466.063;   -8.250;37457.918
609.051;31080.967;   -9.240;36066.457
609.632;29185.092;  -12.120;35991.074
610.213;26821.115;   -9.110;37402.641
610.794;28016.291;   -8.030;38383.363
611.374;30938.135;   -8.110;40562.387
611.955;31398.686;  -13.560;38533.727
612.536;29108.943;  -11.400;36951.789
613.116;28397.740;   -8.070;37197.891
613.697;30256.928;  -10.830;38411.125
614.277;30918.539;  -11.641;38673.938
614.858;29759.443;  -13.310;37075.863
615.438;28557.422;   -7.460;35092.906
616.019;27782.865;   -7.601;33666.301
616.599;28351.039;  -12.020;34189.023
617.179;29933.313;  -11.780;36952.047
617.760;32457.260;   -8.570;39582.574
618.340;32562.385;  -11.471;38943.977
618.920;30286.539;  -11.170;37594.156
619.500;31595.137;  -11.071;37866.938
620.080;31776.943;   -7.750;37869.043
620.660;30750.943;  -12.711;36868.617
621.241;30199.379;  -10.211;36352.309
621.821;29184.787;  -10.961;35459.520
622.401;27779.150;   -7.720;35207.414
622.980;28816.717;   -8.981;35980.422
623.560;29508.072;   -9.331;37351.328
624.140;28296.639;   -9.850;34388.582
624.720;25719.145;   -7.451;32368.764
625.300;24044.828;   -9.070;32638.629
625.880;27445.115;  -12.601;34599.035
626.459;30203.777;  -11.751;36831.738
627.039;31307.664;   -9.281;38299.098
627.619;33006.520;   -8.801;38289.574
628.198;32529.342;  -12.071;37220.695
628.778;30514.092;   -9.461;37632.563
629.357;30987.533;   -8.491;38003.012
629.937;30849.740;   -9.721;38402.039
630.516;30943.658;   -9.951;37868.801
631.096;31112.990;  -11.731;35760.410
631.675;33014.637;   -8.572;35225.219
632.254;32982.016;  -11.282;35130.289
632.834;32069.395;  -13.322;35794.570
633.413;32326.689;  -10.301;35788.922
633.992;31934.594;   -8.582;34532.863
634.571;32531.820;   -8.352;33590.113
635.151;32082.740;  -11.912;34943.863
635.730;31420.348;  -10.511;35352.523
636.309;33159.828;   -7.731;35366.605
636.888;32115.359;   -9.952;36165.637
637.467;31291.609;  -11.672;37515.902
638.046;31075.324;   -8.901;39288.695
638.625;31713.967;   -7.912;38279.699
639.204;31726.168;  -10.022;37741.598
639.782;30282.111;  -12.252;38364.551
640.361;28830.059;  -10.041;36740.621
640.940;27794.436;  -11.161;34950.082
641.519;29372.408;   -9.701;34137.398
642.097;31633.492;  -11.271;35654.258
642.676;32764.131;   -8.651;35637.957
643.255;34492.848;   -8.711;36567.074
643.833;32311.295;   -9.581;37809.434
644.412;29292.098;  -13.711;37337.293
644.990;30188.375;  -11.811;37018.531
645.569;32531.670;   -9.411;36518.469
646.147;31675.199;  -10.291;36186.430
646.726;30385.398;  -12.401;36267.688
647.304;30170.297;  -10.411;36647.625
647.882;30439.766;   -9.651;39286.742
648.461;31931.969;   -9.631;39157.703
649.039;34785.738;  -11.881;35412.883
649.617;35521.887;   -9.661;34744.918
650.195;33401.031;   -9.301;35403.098
650.773;31650.834;  -10.511;35053.797
651.352;30139.986;  -11.521;33756.816
651.930;27874.914;  -12.211;31868.773
652.508;25181.227;   -9.171;33121.551
653.086;26033.391;   -9.371;33564.793
653.663;31186.033;  -13.161;34054.668
654.241;33798.539;  -13.031;35693.309
654.819;35169.691;   -9.371;36422.906
655.397;35206.078;  -10.511;38213.484
655.975;33178.047;  -10.371;39507.625
656.553;31346.688;  -10.051;39498.223
657.130;30445.215;  -10.061;40395.480
657.708;28757.918;   -9.561;39242.020
658.286;25550.854;  -11.511;38920.020
658.863;26368.578;  -10.261;40202.898
659.441;30344.547;   -7.531;39677.938
660.018;32322.184;   -9.501;40413.355
660.596;31306.824;  -13.301;39931.414
661.173;29862.805;  -11.211;39604.531
661.750;31017.436;   -9.951;39700.070
662.328;31124.535;   -9.390;39292.809
662.905;30067.488;  -11.330;38235.648
663.482;27088.953;   -9.050;36212.305
664.060;24387.406;   -8.240;35944.945
664.637;25906.775;  -10.050;35170.785
665.214;29211.592;  -11.760;34197.523
665.791;30210.848;  -10.530;34549.520
666.368;29167.549;   -9.690;35118.578
666.945;30150.871;   -9.320;36019.418
667.522;30302.150;  -11.860;36048.438
668.099;31547.041;  -10.770;36243.914
668.676;32463.715;   -6.260;35958.875
669.253;34376.672;   -7.000;37384.730
669.830;35448.273;  -10.190;36779.629
670.407;32662.053;   -9.550;35231.289
670.984;32646.477;   -9.260;35544.270
671.560;29555.904;   -9.280;35466.867
672.137;24453.598;  -11.810;34280.863
672.714;26199.553;  -11.490;34632.863
673.290;31523.318;   -7.740;35135.422
673.867;31544.344;  -10.660;36114.480
674.443;31308.520;  -12.230;36152.859
675.020;30598.527;  -10.450;35327.238
675.596;30858.027;   -9.260;35795.176
676.173;30637.789;  -10.780;35430.355
676.749;29487.104;  -13.690;33549.516
677.326;28951.752;  -11.980;32210.012
677.902;28107.336;   -8.630;32068.871
678.478;29084.846;  -10.730;32583.891
679.054;29912.049;  -10.520;32088.928
679.631;30120.965;  -11.920;30978.848
680.207;30209.186;   -7.490;33160.887
680.783;31901.564;   -9.860;35570.363
681.359;32919.695;  -13.380;36125.184
681.935;33103.039;  -12.480;35240.922
682.511;31732.201;   -7.900;34429.961
683.087;30970.119;   -7.710;34463.680
683.663;30540.967;  -11.480;34648.898
684.239;29503.797;  -14.090;34546.457
684.815;28510.102;   -7.560;35586.375
685.390;29041.650;   -9.910;35821.895
685.966;30504.855;  -11.159;35085.871
686.542;31555.189;  -11.169;34198.230
687.118;32497.664;   -5.959;32847.707
687.693;31541.924;  -10.329;32794.027
688.269;31860.463;  -12.059;33072.367
688.844;33087.465;  -10.909;33141.664
689.420;31619.104;   -8.019;33965.742
689.995;30228.541;   -8.399;34655.523
690.571;30873.689;  -10.949;33576.742
691.146;30055.354;   -9.619;32657.219
691.722;28683.643;   -8.999;32526.979
692.297;27706.172;  -11.589;33014.617
692.872;28174.543;  -11.739;34012.254
693.448;31423.719;  -11.059;34237.434
694.023;31746.545;  -10.139;34142.672
694.598;28336.066;   -9.029;34132.031
695.173;29259.047;  -13.319;34205.250
695.748;30383.621;  -10.169;32882.488
696.323;28523.502;   -8.339;32864.906
696.898;27576.381;   -8.169;33170.004
697.473;27945.580;  -12.309;32432.984
698.048;27855.889;  -10.989;31649.303
698.623;27431.051;   -9.329;30778.141
699.198;28500.514;   -9.849;31140.119
699.773;29122.207;  -12.329;31764.299
700.348;30488.945;  -10.389;31780.816
700.922;30037.424;   -9.269;32046.375
701.497;30700.344;   -9.329;32603.574
702.072;32233.258;  -10.789;34799.871
702.646;31213.369;  -10.839;35793.172
703.221;31369.223;   -9.099;35201.590
703.795;33320.121;  -10.939;34764.527
704.370;31002.654;  -12.859;34307.367
704.944;29105.004;  -11.559;33509.887
705.519;29702.738;   -7.939;31388.584
706.093;31448.523;  -10.499;31340.104
706.668;33019.691;  -11.289;32630.281
707.242;32216.340;  -11.509;32728.779
707.816;29581.439;   -9.639;32947.238
708.390;28993.629;  -11.429;33277.855
708.965;29577.984;  -11.869;33834.336
709.539;31646.373;  -11.689;33709.273
710.113;31406.943;  -10.478;33044.313
710.687;30021.836;  -10.228;31953.992
711.261;29240.148;  -13.698;30505.949
711.835;29673.463;  -13.378;30262.369
712.409;29061.615;   -9.698;31254.447
712.983;27832.338;  -11.898;32754.986
713.557;29820.303;  -15.138;34018.824
714.131;28463.348;  -14.098;34579.625
714.704;28293.822;   -9.958;33890.262
715.278;29898.566;  -10.028;33531.102
715.852;28594.475;  -11.148;33601.660
716.425;27783.369;   -9.068;33515.117
716.999;26974.426;  -10.038;33185.555
717.573;26464.238;   -9.798;33905.996
718.146;25886.830;  -12.378;35199.293
718.720;25789.643;  -11.918;35060.551
719.293;26047.264;   -8.088;34973.230
719.867;28498.791;  -10.888;36394.449
720.440;31380.801;  -11.938;36663.008
721.013;31891.443;  -12.818;35102.426
721.587;29158.076;  -10.298;33985.266
722.160;27451.824;  -10.048;33524.965
722.733;26140.902;  -12.108;32987.043
723.306;25869.098;  -10.818;33066.301
723.880;27664.588;   -8.908;33399.500
724.453;26969.904;   -9.878;33468.297
725.026;27698.678;  -11.188;33816.637
725.599;31191.316;  -11.678;32797.996
726.172;30432.039;   -9.618;33187.434
726.745;27175.295;   -8.258;35136.613
727.318;26526.930;  -12.978;35751.730
727.891;26569.115;  -12.148;35890.430
728.463;26595.783;   -8.968;34822.090
729.036;26187.084;  -10.188;32895.086
729.609;26178.080;  -11.788;31823.225
730.182;24579.936;  -11.788;31445.283
730.754;22966.018;  -10.268;32373.223
731.327;23015.691;   -9.998;33676.820
731.900;24256.838;  -12.228;33417.000
732.472;24811.002;  -13.848;31978.498
733.045;24081.260;   -8.698;30368.777
733.617;22887.746;  -10.607;30574.215
734.190;24740.111;  -11.507;31280.975
734.762;26062.162;  -13.647;31674.412
735.334;26037.354;   -9.767;31247.291
735.907;25915.582;   -9.897;29876.211
736.479;25848.732;  -11.637;29808.488
737.051;27444.119;   -9.567;30233.547
737.623;27472.754;   -8.187;31469.086
738.195;26356.109;  -11.187;31784.225
738.768;24921.436;  -12.337;32120.523
739.340;22864.158;  -12.227;32094.342
739.912;22020.576;  -11.057;31312.680
740.484;21655.697;  -10.207;31946.238
741.056;21121.969;  -10.047;32984.059
741.628;22234.184;  -13.627;33897.715
742.199;24112.949;   -7.177;33213.016
742.771;27125.193;  -10.797;31369.113
743.343;28471.197;  -11.997;31865.473
743.915;27721.559;  -12.867;32388.631
744.487;24508.332;   -7.617;31079.568
745.058;21385.133;   -9.557;30570.107
745.630;21902.057;   -9.877;29970.127
746.201;23271.158;  -14.177;29186.766
746.773;23789.570;   -9.237;28805.723
747.344;22735.404;   -9.847;29591.223
747.916;21334.143;  -11.657;31412.201
748.487;21781.051;  -10.587;32194.898
749.059;23033.094;   -8.707;32533.719
749.630;23680.203;  -10.537;32158.518
750.201;23166.242;  -11.687;30855.395
750.773;21886.682;  -11.647;28622.555
751.344;21217.770;   -7.147;28405.732
751.915;22856.215;   -9.757;28461.551
752.486;24244.363;  -12.427;27842.850
753.057;23473.451;  -12.227;27845.008
753.628;23386.422;  -10.417;27728.107
754.199;22336.730;  -11.767;27381.086
754.770;22398.150;  -11.187;25882.203
755.341;22301.375;  -10.507;25886.184
755.912;20746.393;   -9.387;26050.861
756.483;18949.068;  -10.647;26798.779
757.054;19269.676;  -11.837;27048.238
757.625;19388.736;  -12.716;26294.838
758.195;19415.813;   -9.666;26142.076
758.766;19807.852;   -8.656;26392.234
759.337;19203.563;  -12.856;26334.594
759.907;19129.016;  -13.366;27579.652
760.478;19094.758;   -8.576;28352.770
761.048;19756.334;  -10.526;27325.088
761.619;19826.473;  -11.116;26460.428
762.189;18453.941;  -12.136;26029.826
762.760;18150.090;   -9.456;26430.145
763.330;18632.344;   -7.136;26670.902
763.900;18841.322;  -11.786;26603.021
764.471;18116.275;  -11.546;25542.740
765.041;17146.139;   -8.096;24358.459
765.611;16537.158;   -8.876;23991.297
766.181;16534.775;  -12.196;24470.236
766.751;16272.563;  -11.636;24845.975
767.321;16784.260;  -10.156;24533.633
767.891;16653.889;  -11.766;24916.492
768.461;17073.838;  -14.936;24776.771
769.031;18403.424;  -12.356;24757.988
769.601;18833.539;   -7.526;24181.088
770.171;18221.557;  -10.766;23670.387
770.741;17127.230;  -13.176;22960.045
771.311;16828.309;  -10.616;22917.523
771.880;17149.236;   -9.576;23562.941
772.450;16765.395;  -10.336;24216.500
773.020;16782.645;  -13.516;24140.398
773.589;17648.768;  -13.466;24414.857
774.159;17210.494;   -8.686;23858.717
774.729;16159.354;   -9.476;22942.135
775.298;14411.237;  -13.666;22324.033
775.867;13891.848;  -11.716;21140.313
776.437;14201.813;   -9.906;20838.092
777.006;13396.952;  -12.166;20599.510
777.576;12791.592;  -12.356;20508.809
778.145;12968.474;  -11.646;20732.947
778.714;13262.458;   -8.226;21062.465
779.283;14011.680;   -9.556;20949.664
779.853;14595.318;  -14.116;20508.623
780.422;14069.251;  -11.506;20649.082
780.991;13599.690;   -9.556;21527.520
781.560;13341.508;   -9.095;22632.658
782.129;13089.707;  -12.135;23048.277
782.698;13007.290;  -10.865;23438.555
783.267;12843.174;   -9.335;23267.734
783.836;13180.623;  -11.045;22415.133
784.404;14053.128;  -13.865;20443.152
784.973;13475.510;  -13.095;19699.150
785.542;12133.947;  -11.575;19763.828
786.111;11449.649;   -9.705;20341.408
786.679;12068.208;  -12.105;20207.967
787.248;12249.198;  -12.455;19516.465
787.817;11504.896;  -11.535;18900.363
788.385;11570.065;   -9.765;17879.121
788.954;11997.160;  -14.005;17658.301
789.522;11672.252;  -11.955;17788.879
790.090;11752.978;  -10.135;18118.277
790.659;12702.734;  -10.975;18338.736
791.227;12745.807;  -13.375;18508.615
791.795;12105.207;  -12.375;17898.254
792.364;11639.593;  -10.725;17295.133
792.932;11599.973;   -9.715;16822.051
793.500;11691.655;  -12.675;17040.148
794.068;11385.398;  -13.495;17179.787
794.636;10135.154;  -10.885;16664.246
795.204; 9037.955;  -11.045;16524.545
795.772; 9762.806;  -13.175;17274.564
796.340;11145.162;  -12.445;17891.002
796.908;10859.653;   -9.735;17648.561
797.476;10901.405;   -9.815;17064.080
798.044;11433.142;  -13.985;16672.777
798.612;11161.858;  -13.115;17023.996
799.180; 9977.591;  -10.185;16561.615
799.747; 8888.000;   -9.055;15962.773
800.315; 8281.126;  -12.385;15296.992
800.883; 8689.313;  -15.035;14801.771
801.450; 9302.352;  -10.365;14534.430
802.018; 9487.701;   -9.855;14173.248
802.585; 9683.685;  -11.905;14029.547
803.153; 9286.384;  -11.585;13836.846
803.720; 8548.881;   -9.095;13567.324
804.287; 8737.108;   -9.135;13360.622
804.855; 9374.592;  -11.604;13681.981
805.422; 9498.275;  -11.794;13536.560
805.989; 9052.617;  -10.734;13355.958
806.556; 8501.789;  -10.444;13747.896
807.124; 8384.136;  -12.764;13987.376
807.691; 8965.439;  -12.964;14038.674
808.258; 9222.908;  -11.134;14120.152
808.825; 9267.266;   -9.854;13860.111
809.392; 8914.485;  -10.504;13268.790
809.959; 8307.725;  -13.054;12680.389
810.526; 8002.480;   -8.294;12427.308
811.093; 7832.442;   -8.394;12030.105
811.659; 7315.791;  -12.304;11653.664
812.226; 7072.254;  -13.944;11637.183
812.793; 7578.536;  -10.484;11611.521
813.360; 7789.827;  -10.144;11885.181
813.926; 7206.739;  -11.684;12770.539
814.493; 6564.040;  -13.644;12677.638
815.060; 6408.699;   -9.724;11974.336
815.626; 6664.025;   -9.854;11594.715
816.193; 6663.325;  -13.254;11579.474
816.759; 6589.575;  -13.204;11666.972
817.325; 6510.105;   -9.434;11325.530
817.892; 6322.168;  -10.134;11105.369
818.458; 6260.208;  -13.474;10843.928
819.024; 6044.776;  -11.854;10714.406
819.591; 6179.314;  -10.244;10469.165
820.157; 6402.025;  -10.704;10235.523
820.723; 6765.282;  -12.324;10847.563
821.289; 7202.672;   -9.444;11040.980
821.855; 7210.569;   -8.374;10357.100
822.421; 6827.382;  -10.234; 9978.918
822.987; 6583.584;  -13.294; 9754.177
823.553; 6574.909;  -10.884;10065.755
824.119; 6296.191;   -8.884;10036.294
824.685; 6147.910;   -6.784;10029.192
825.251; 6065.476;  -12.004;10199.230
825.816; 6260.581;  -11.474; 9820.189
826.382; 6146.682;   -9.174; 9297.248
826.948; 5755.456;   -9.214; 9381.347
827.513; 5416.468;  -10.774; 9450.726
828.079; 5315.438;  -11.924; 9472.444
828.645; 5273.243;  -10.543; 9292.643
829.210; 5257.534;  -10.533; 9065.341
829.776; 5266.912;  -10.753; 9132.620
830.341; 5321.840;  -10.173; 9092.878
830.906; 5546.504;  -10.743; 9078.557
831.472; 5566.300;  -11.113; 8534.535
832.037; 5082.209;  -10.603; 8677.874
832.602; 4916.020;  -13.323; 8628.692
833.167; 5263.421;  -10.823; 8879.031
833.733; 5264.748;  -10.113; 9189.790
834.298; 5051.136;  -13.583; 9052.608
834.863; 4904.599;  -12.703; 8895.087
835.428; 4728.837;  -10.523; 8824.266
835.993; 4567.836;   -6.963; 8845.385
836.558; 4576.817;  -10.763; 8888.563
837.123; 4733.265;   -9.903; 8966.582
837.688; 4672.631;   -9.913; 8617.860
838.253; 4590.289;  -10.283; 8590.699
838.817; 4772.445;  -12.963; 8443.797
839.382; 4982.592;  -14.243; 8799.356
839.947; 4786.962;  -10.733; 8810.595
840.511; 4702.495;   -9.383; 8796.394
841.076; 4734.001;  -12.563; 8347.231
841.641; 4555.400;  -12.953; 8224.330
842.205; 4250.671;   -7.043; 8223.349
842.770; 4181.039;   -8.163; 8622.107
843.334; 4255.780;  -12.503; 8410.386
843.898; 4287.943;  -11.693; 8337.465
844.463; 4230.621;  -10.203; 8506.283
845.027; 4121.514;   -9.533; 8280.962
845.591; 4175.084;  -13.443; 8231.141
846.156; 4087.915;  -13.143; 7969.179
846.720; 3821.019;   -9.433; 7768.278
847.284; 3447.993;  -11.033; 7630.957
847.848; 3301.815;  -10.403; 7472.395
848.412; 3428.830;  -11.553; 7437.394
848.976; 3673.216;   -8.393; 7674.592
849.540; 3760.698;   -8.713; 7836.011
850.104; 3728.437;  -12.463; 7913.669
850.668; 3790.436;  -12.973; 7694.508
851.232; 3785.711;  -10.793; 7756.887
851.796; 3711.309;  -10.662; 7926.545
852.359; 3740.418;  -13.082; 7827.844
852.923; 3493.283;  -12.192; 7641.163
853.487; 3339.163;  -11.912; 7342.501
854.050; 3464.200;  -10.892; 7042.820
854.614; 3407.941;  -13.992; 7151.338
855.177; 3238.498;  -11.732; 7105.077
855.741; 3178.890;   -8.962; 6989.675
856.304; 3151.331;   -9.442; 6596.634
856.868; 2978.738;  -14.192; 6356.272
857.431; 2802.901;  -12.702; 6468.571
857.995; 2870.206;   -9.942; 6373.210
858.558; 2913.734;   -9.112; 6324.448
859.121; 2668.382;  -12.932; 6408.327
859.684; 2481.980;  -13.442; 6347.886
860.247; 2799.378;  -10.632; 6321.264
860.810; 3200.466;  -11.272; 6301.903
861.374; 3273.606;   -9.832; 6607.881
861.937; 3261.175;  -11.762; 6408.200
862.500; 3172.206;   -9.722; 6572.639
863.062; 2847.631;  -10.512; 6387.297
863.625; 2642.129;  -11.232; 6190.836
864.188; 2596.174;  -14.112; 5807.254
864.751; 2583.384;  -11.302; 5682.413
865.314; 2736.416;  -10.112; 5547.492
865.876; 2890.270;  -12.182; 5500.150
866.439; 2898.487;  -10.722; 5415.909
867.002; 2770.879;   -9.252; 5501.567
867.564; 2629.483;   -9.572; 5413.946
868.127; 2484.663;  -13.142; 5160.325
868.689; 2198.337;  -12.902; 5133.183
869.252; 1997.216;   -9.732; 5252.382
869.814; 1988.936;   -9.432; 5297.141
870.377; 2134.859;  -11.552; 5390.919
870.939; 2177.880;   -9.052; 5599.898
871.501; 2105.534;  -10.982; 5248.336
872.063; 2132.069;  -12.292; 4854.235
872.626; 2104.994;  -14.912; 4817.074
873.188; 2094.095;  -13.112; 4987.732
873.750; 2045.493;  -13.442; 4868.651
874.312; 2068.967;   -9.402; 4779.330
874.874; 2194.021;  -11.062; 4866.348
875.436; 2109.975;  -13.931; 4718.887
875.998; 1830.090;   -9.561; 4660.005
876.560; 1652.933;  -11.321; 4462.964
877.122; 1647.865;  -12.221; 4145.042
877.683; 1629.263;  -12.191; 4056.481
878.245; 1694.187;  -12.101; 3950.740
878.807; 1832.547;   -8.971; 4058.958
879.369; 1871.737;  -12.071; 3954.677
879.930; 1799.793;  -14.621; 3941.495
880.492; 1647.396;  -10.311; 4067.014
881.053; 1494.298;  -10.901; 3859.633
881.615; 1459.699;  -14.411; 3776.071
882.176; 1476.984;  -13.761; 3734.750
882.738; 1493.154;   -9.181; 3678.489
883.299; 1453.647;  -11.791; 3405.407
883.860; 1372.283;  -13.121; 3351.106
884.422; 1269.402;  -11.211; 3394.044
884.983; 1205.650;  -10.091; 3166.443
885.544; 1188.548;   -8.461; 3189.802
886.105; 1133.814;  -12.361; 3160.360
886.666; 1067.187;  -14.141; 3093.059
887.227; 1047.727;  -11.361; 2941.957
887.788; 1064.660;  -11.401; 2974.836
888.349; 1020.812;  -13.791; 2721.214
888.910;  920.639;  -13.191; 2696.493
889.471;  815.908;   -9.881; 2560.172
890.032;  742.813;   -9.881; 2558.190
890.593;  733.551;  -10.371; 2567.669
891.153;  733.814;  -13.301; 2460.307
891.714;  670.884;  -11.431; 2372.046
892.275;  618.317;  -11.291; 2309.505
892.835;  619.223;  -11.471; 2382.543
893.396;  611.510;  -11.541; 2295.502
893.956;  588.439;  -11.181; 2162.420
894.517;  556.666;  -11.741; 2125.439
895.077;  503.268;  -11.671; 2086.978
895.638;  457.951;  -11.311; 2126.316
896.198;  440.413;   -9.831; 1838.275
896.758;  438.848;   -8.421; 1892.813
897.319;  428.278;  -12.351; 1792.232
897.879;  408.346;  -13.511; 1762.751
898.439;  383.884;  -12.001; 1661.149
898.999;  361.638;  -10.180; 1781.468
899.559;  344.854;  -12.030; 1703.347
900.119;  340.014;  -15.710; 1537.525
900.679;  325.966;   -8.900; 1638.384
901.239;  297.426;   -8.340; 1527.902
901.799;  279.176;  -13.910; 1456.441
902.359;  268.940;  -13.460; 1357.140
902.919;  265.027;  -11.490; 1331.118
903.479;  262.310;  -12.110; 1317.257
904.038;  253.954;  -11.720; 1262.595
904.598;  236.603;  -13.610; 1152.034
905.158;  224.239;  -11.040; 1240.893
905.717;  216.011;  -10.900; 1233.691
906.277;  212.381;  -15.080; 1217.330
906.836;  209.465;  -13.380; 1222.408
907.396;  207.363;  -10.780; 1193.047
907.955;  200.929;   -8.500; 1182.526
908.515;  193.379;  -12.760; 1099.364
909.074;  189.143;  -11.900; 1092.863
909.633;  186.658;   -8.950; 1069.121
910.192;  183.983;   -8.770; 1196.460
910.752;  177.080;  -12.390; 1029.960
911.311;  174.087;  -13.680; 1009.780
911.870;  170.005;  -12.370;  971.460
912.429;  165.981;  -10.900; 1094.080
912.988;  163.572;  -11.690; 1081.060
913.547;  160.147;  -13.240;  940.380
914.106;  159.755;  -11.990;  999.420
914.665;  158.549;   -9.990;  984.020
915.224;  156.955;  -12.880; 1035.760
915.782;  156.274;  -12.350;  922.560
916.341;  157.211;   -9.110; 1049.840
916.900;  154.063;   -9.270;  925.260
917.458;  151.160;  -13.240;  884.220
918.017;  148.623;  -13.550;  942.600
918.576;  148.540;  -12.320;  904.440
919.134;  147.567;  -11.490;  837.980
919.693;  146.891;  -13.670;  893.060
920.251;  144.481;  -15.470;  876.500
920.809;  144.704;  -11.290;  839.580
921.368;  144.435;  -10.210;  885.360
921.926;  143.522;  -12.140;  842.940
922.484;  142.471;  -13.080;  903.360
923.042;  142.773;  -11.720;  880.340
923.601;  143.407;   -7.480;  998.680
924.159;  142.186;  -11.570;  935.560
924.717;  141.677;  -13.840;  841.080
925.275;  145.089;  -10.640;  903.240
925.833;  142.492;  -11.540;  779.320
926.391;  142.936;  -12.960;  938.380
926.949;  142.647;  -14.130;  857.680
927.506;  143.070;  -11.750;  903.500
928.064;  142.577;  -10.250;  877.580
928.622;  141.432;  -13.030;  880.100
929.180;  142.912;  -13.400;  814.180
929.737;  143.228;  -10.700;  808.540
930.295;  145.642;  -10.070;  928.480
930.853;  144.431;  -11.960;  849.100
931.410;  143.991;  -13.120;  821.120
931.968;  144.816;  -10.770;  940.660
932.525;  145.467;  -10.680;  909.380
933.082;  148.471;  -13.130;  811.440
933.640;  154.836;  -13.210;  925.900
934.197;  156.853;  -11.060;  886.360
934.754;  158.071;   -9.580;  897.780
935.312;  158.778;  -14.000;  863.340
935.869;  162.343;  -10.710; 1012.980
936.426;  162.007;   -9.860;  872.800
936.983;  160.072;   -9.710;  889.020
937.540;  157.956;  -13.990;  838.280
938.097;  156.742;  -14.040;  940.120
938.654;  159.037;  -10.310;  898.860
939.211;  160.154;  -10.560;  952.480
939.768;  157.920;  -13.900;  915.420
940.324;  158.819;  -14.760;  904.200
940.881;  162.991;  -10.370;  878.500
941.438;  169.360;   -8.260; 1021.200
941.995;  169.457;  -12.540;  992.560
942.551;  169.278;  -14.670;  875.620
943.108;  170.123;  -10.450;  937.920
943.664;  171.189;  -10.750;  869.340
944.221;  175.422;  -11.550; 1088.140
944.777;  177.516;  -14.770;  869.680
945.334;  178.924;  -12.820;  884.840
945.890;  178.690;  -10.130;  946.480
946.446;  176.398;  -13.470;  947.020
947.003;  177.130;  -12.120;  964.940
947.559;  179.060;   -9.980; 1063.040
948.115;  177.318;   -9.080; 1026.540
948.671;  174.386;  -10.830;  967.300
949.227;  169.788;  -12.440;  859.560
949.783;  168.461;  -12.910;  858.900
950.339;  169.695;  -10.270;  991.000
950.895;  170.517;  -13.630; 1023.840
951.451;  169.828;  -15.100;  925.280
952.007;  170.116;  -11.330;  998.540
952.563;  168.892;  -10.580;  937.780
953.118;  164.859;  -13.440;  904.940
953.674;  161.768;  -12.710;  935.780
954.230;  162.284;  -10.350;  949.640
954.785;  165.379;   -9.190;  936.640
955.341;  166.373;  -11.200;  998.160
955.897;  162.812;  -16.560;  834.660
956.452;  160.946;  -12.570;  953.840
957.008;  157.747;   -7.970; 1083.640
957.563;  157.839;  -11.940; 1009.540
958.118;  156.230;  -13.450;  877.700
958.674;  156.434;  -12.030;  946.780
959.229;  157.482;   -9.410; 1013.980
959.784;  157.454;  -12.000;  832.400
960.339;  156.026;  -14.780; 1001.280
960.894;  150.332;   -9.860;  963.760
961.449;  143.980;   -9.970;  859.960
962.004;  138.717;  -10.900; 1212.840
962.559;  125.191;  -13.150;  860.140
963.114;  114.465;  -13.740;  742.480
963.669;  107.461;   -9.820;  915.500
964.224;  101.667;  -13.890;  874.340
964.779;   98.217;  -12.600;  828.420
965.334;  101.149;  -10.950; 1017.860
965.888;  101.410;  -11.170;  875.360
966.443;  106.228;  -12.540;  972.380
966.998;  108.334;  -15.780;  819.460
967.552;  111.307;   -9.760;  908.380
968.107;  108.936;   -9.060;  868.300
968.661;  106.867;  -11.950;  922.440
969.216;  107.888;  -12.800;  856.280
969.770;  108.829;  -11.210;  917.200
970.324;  107.766;  -11.610;  923.140
970.879;  105.621;  -11.370;  947.180
971.433;  105.381;  -12.540;  952.720
971.987;  103.806;  -11.320;  895.340
972.541;  104.508;  -10.720;  917.100
973.095;  105.258;   -9.680; 1009.460
973.649;  104.184;  -11.440;  809.480
974.203;  105.269;  -11.210;  829.040
974.757;  105.005;  -10.240;  855.220
975.311;  104.947;  -13.720;  872.600
975.865;  105.396;  -13.770;  881.820
976.419;  104.868;  -11.690;  857.400
976.973;  105.296;   -9.510;  849.620
977.526;  105.436;  -12.620;  949.920
978.080;  101.619;  -12.010;  796.780
978.634;  100.927;  -10.170;  921.320
979.187;   96.503;   -9.020;  905.400
979.741;   95.867;   -9.820; 1018.380
980.294;   93.216;  -14.870;  789.160
980.848;   89.919;  -12.380;  717.220
981.401;   89.917;  -10.350;  816.540
981.955;   89.049;  -13.720;  844.300
982.508;   87.655;  -11.490;  746.340
983.061;   87.475;  -10.000;  915.260
983.615;   85.430;  -11.480;  798.800
984.168;   84.976;  -13.220;  770.080
984.721;   85.109;  -13.960;  880.760
985.274;   82.781;  -10.870;  867.500
985.827;   81.124;   -9.790;  834.220
986.380;   80.209;  -13.120;  721.340
986.933;   81.263;  -12.450;  864.800
987.486;   80.613;  -10.210;  861.920
988.039;   80.549;   -8.430;  863.100
988.591;   77.337;  -10.520;  893.260
989.144;   74.315;  -14.860;  737.260
989.697;   72.736;  -13.080;  758.740
990.250;   71.819;  -10.150;  858.100
990.802;   68.527;  -13.430;  755.860
991.355;   68.461;  -12.750;  974.880
991.907;   65.900;  -12.040;  864.320
992.460;   63.339;  -11.330;  753.760
993.012;   61.912;  -13.610;  749.540
993.565;   61.584;  -13.460;  711.360
994.117;   63.225;   -9.360;  950.780
994.669;   60.890;  -11.300;  701.320
995.221;   59.698;  -13.540;  791.920
995.774;   58.955;  -13.430;  787.580
996.326;   58.575;  -12.520;  740.220
996.878;   58.576;  -10.950;  838.420
997.430;   56.307;  -14.300;  699.860
997.982;   55.668;  -13.760;  750.140
998.534;   54.838;  -11.530;  739.060
999.086;   53.186;  -10.310;  738.220
999.638;   52.283;  -12.530;  661.380
1000.190;   51.176;  -11.840;  699.320
1000.741;   51.300;  -10.260;  742.700
1001.293;   50.724;   -8.860;  686.020
1001.845;   49.819;  -13.700;  676.640
1002.396;   50.222;  -12.100;  743.400
1002.948;   49.442;  -12.760;  737.400
1003.500;   47.739;  -10.380;  723.780
1004.051;   48.707;  -11.900;  907.580
1004.603;   47.412;  -12.250;  791.820
1005.154;   43.995;  -13.210;  608.980
1005.705;   43.062;  -10.950;  723.960
1006.257;   42.908;  -13.880;  707.220
1006.808;   41.780;  -12.840;  685.460
1007.359;   41.524;  -10.570;  763.240
1007.910;   40.500;   -9.620;  646.640
1008.461;   40.219;  -13.630;  732.940
1009.013;   38.870;  -17.200;  588.340
1009.564;   40.812;  -10.200;  793.520
1010.115;   37.947;  -12.570;  597.040
1010.665;   37.694;  -15.150;  602.160
1011.216;   38.251;  -14.480;  667.920
1011.767;   37.161;  -11.340;  697.920
1012.318;   37.934;   -9.780;  736.980
1012.869;   36.294;  -12.380;  679.000
1013.419;   35.921;  -15.560;  603.120
1013.970;   36.369;  -11.010;  666.640
1014.521;   34.946;  -11.610;  620.620
1015.071;   35.366;  -13.450;  670.380
1015.622;   34.874;  -13.870;  635.460
1016.172;   35.167;  -11.610;  596.820
1016.723;   34.586;  -12.120;  614.380
1017.273;   33.920;  -13.620;  604.160
1017.823;   34.525;  -14.140;  650.340
1018.374;   34.162;  -12.800;  611.760
1018.924;   33.387;  -12.340;  716.880
1019.474;   33.482;  -11.410;  718.880
1020.024;   31.566;  -14.770;  657.580
1020.574;   33.541;   -9.780;  726.160
1021.124;   33.920;   -8.560;  673.580
1021.674;   31.268;  -15.190;  559.120
1022.224;   32.652;  -13.530;  708.940
1022.774;   32.346;  -13.280;  668.820
1023.324;   33.313;  -10.690;  753.520
1023.874;   34.092;  -10.240;  875.760
1024.423;   31.548;  -12.540;  613.700
1024.973;   31.403;  -10.010;  610.760
1025.523;   30.366;  -10.550;  620.960
1026.072;   30.807;  -13.560;  606.420
1026.622;   29.696;  -15.120;  675.740
1027.172;   31.509;  -11.260;  715.660
1027.721;   29.943;  -11.410;  601.220
1028.270;   29.849;  -13.530;  663.400
1028.820;   30.120;  -13.680;  638.080
1029.369;   29.156;  -13.520;  612.700
1029.918;   29.976;  -10.980;  649.840
1030.468;   29.468;  -13.530;  564.780
1031.017;   29.507;  -13.170;  634.800
1031.566;   28.245;  -12.200;  608.900
1032.115;   29.404;   -9.960;  694.500
1032.664;   27.014;  -13.210;  596.480
1033.213;   28.800;  -12.500;  735.420
1033.762;   27.308;  -11.910;  635.620
1034.311;   28.131;   -9.640;  677.220
1034.860;   27.326;  -13.310;  691.000
1035.408;   27.739;  -11.830;  722.720
1035.957;   28.384;  -12.000;  719.540
1036.506;   25.726;  -11.690;  530.800
1037.055;   28.634;  -10.990;  844.320
1037.603;   26.514;  -15.120;  664.000
1038.152;   24.927;  -12.450;  534.760
1038.700;   25.597;  -10.560;  585.740
1039.249;   25.623;  -11.080;  681.220
1039.797;   26.280;  -12.540;  633.360
1040.345;   25.977;  -11.920;  705.420
1040.894;   25.679;  -11.410;  625.300
1041.442;   25.623;  -14.320;  632.200
1041.990;   24.501;  -16.240;  559.160
1042.538;   24.540;  -11.680;  536.180
1043.087;   24.161;  -10.760;  570.860
1043.635;   25.305;  -11.850;  670.500
1044.183;   24.106;  -15.480;  586.400
1044.731;   24.285;  -11.770;  576.000
1045.279;   24.631;  -13.090;  674.920
1045.827;   25.812;  -12.440;  892.400
1046.374;   22.443;  -13.840;  515.420
1046.922;   23.060;  -13.220;  590.580
1047.470;   24.831;  -10.230;  691.300
1048.018;   23.081;  -14.590;  647.960
1048.565;   24.030;  -12.050;  708.600
1049.113;   22.721;  -11.650;  557.000
1049.660;   22.534;  -10.510;  629.660
1050.208;   23.055;  -13.310;  675.640
1050.755;   22.611;  -15.900;  606.580
1051.303;   23.045;  -11.430;  686.820
1051.850;   22.063;   -8.480;  635.120
1052.397;   19.718;  -15.010;  473.960
1052.945;   22.002;  -13.960;  617.760
1053.492;   22.569;  -13.150;  741.840
1054.039;   22.592;   -9.630;  720.180
1054.586;   21.215;  -13.680;  557.240
1055.133;   21.552;  -14.570;  693.140
1055.680;   21.770;  -13.820;  646.620
1056.227;   21.586;  -11.730;  542.780
1056.774;   22.520;  -12.480;  794.980
1057.321;   19.748;  -13.930;  523.260
1057.868;   20.646;  -11.690;  651.320
1058.415;   19.932;   -9.520;  651.980
1058.961;   20.279;  -13.160;  678.940
1059.508;   20.027;  -12.920;  643.820
1060.055;   19.898;  -11.920;  581.780
1060.601;   20.446;  -11.500;  624.300
1061.148;   20.296;  -14.330;  616.820
1061.694;   19.427;  -16.870;  592.580
1062.241;   20.025;  -10.330;  596.320
1062.787;   19.596;  -10.620;  663.140
1063.334;   21.317;  -10.110;  808.560
1063.880;   19.886;  -13.400;  668.360
1064.426;   19.375;  -10.680;  706.820
1064.972;   18.665;   -9.920;  601.340
1065.518;   17.284;  -10.980;  566.640
1066.065;   18.992;  -14.890;  624.460
1066.611;   17.915;  -12.870;  598.800
1067.157;   18.431;  -12.950;  641.860
1067.703;   18.998;  -13.540;  668.480
1068.249;   18.047;  -13.540;  605.220
1068.794;   18.078;  -12.600;  626.880
1069.340;   17.592;  -10.620;  578.960
1069.886;   18.084;  -12.830;  590.700
1070.432;   16.644;  -14.870;  541.720
1070.977;   16.517;  -11.980;  601.080
1071.523;   17.133;   -8.200;  573.060
1072.068;   16.848;  -12.330;  582.000
1072.614;   16.567;  -16.370;  527.760
1073.160;   18.027;  -11.100;  687.040
1073.705;   16.603;  -10.480;  572.520
1074.250;   16.423;  -14.520;  559.900
1074.796;   17.352;  -11.460;  655.160
1075.341;   17.644;  -11.950;  664.100
1075.886;   16.631;  -11.460;  594.240
1076.431;   15.923;  -13.770;  649.880
1076.976;   15.740;  -12.680;  639.220
1077.521;   15.804;  -13.170;  583.080
1078.067;   15.193;  -10.860;  579.400
1078.612;   15.256;  -13.920;  661.620
1079.156;   15.271;  -13.880;  601.540
1079.701;   16.136;  -13.120;  693.260
1080.246;   16.304;   -9.940;  696.300
1080.791;   14.887;  -14.740;  625.020
1081.336;   15.240;  -13.750;  659.320
1081.880;   15.535;  -13.400;  649.680
1082.425;   14.132;  -12.220;  573.480
1082.970;   16.015;  -11.610;  717.040
1083.514;   14.149;  -13.580;  597.000
1084.059;   14.226;  -12.810;  586.720
1084.603;   13.800;  -12.320;  565.840
1085.147;   14.618;  -13.190;  645.220
1085.692;   15.467;  -12.480;  716.800
1086.236;   12.574;  -13.020;  503.140
1086.780;   15.239;   -9.190;  751.440
1087.325;   13.855;  -12.480;  654.620
1087.869;   14.292;  -12.450;  610.700
1088.413;   14.361;  -12.240;  705.040
1088.957;   12.204;   -9.020;  543.400
1089.501;   13.765;  -10.320;  766.640
1090.045;   13.928;  -12.720;  726.480
1090.589;   11.998;  -13.690;  569.920
1091.133;   13.031;  -10.020;  673.340
1091.676;   12.419;  -12.330;  591.940
1092.220;   12.478;  -14.970;  600.920
1092.764;   13.868;  -12.430;  706.960
1093.307;   13.492;   -9.800;  673.780
1093.851;   10.865;  -14.970;  556.540
1094.395;   13.471;  -15.310;  683.140
1094.938;   12.499;  -10.370;  632.520
1095.482;   11.972;  -11.050;  559.800
1096.025;   12.646;  -11.840;  710.880
1096.568;   13.219;  -12.840;  779.280
1097.112;    9.987;  -14.700;  508.180
1097.655;   12.273;   -8.720;  603.000
1098.198;   10.020;  -13.610;  600.180
1098.741;   10.613;  -13.350;  612.860
1099.285;   11.688;  -11.230;  657.300
1099.828;    9.854;  -11.840;  439.400
1100.371;   10.894;  -10.840;  608.160
1100.914;   11.401;  -14.190;  682.660
1101.457;   10.799;  -11.240;  679.900
1101.999;    9.467;  -11.270;  584.680
1102.542;   10.802;  -11.480;  641.440
1103.085;   10.040;  -11.750;  658.500
1103.628;   10.949;  -11.400;  762.060
1104.170;    9.478;  -10.490;  588.280
1104.713;    9.437;  -10.600;  646.700
1105.256;    9.865;  -14.360;  557.440
1105.798;    8.511;  -13.210;  499.980
1106.341;   10.933;  -10.270;  728.900
1106.883;    9.447;  -12.200;  521.340
1107.425;    9.525;  -13.110;  668.180
1107.968;    9.553;  -12.840;  612.380
1108.510;    9.998;   -6.480;  684.960
1109.052;    7.963;  -13.940;  612.620
1109.594;    9.003;  -13.690;  554.440
1110.136;    9.763;  -11.880;  643.220
1110.679;    8.486;   -9.500;  633.080
1111.221;    9.449;  -14.160;  604.460
1111.763;    8.206;  -13.980;  559.220
1112.304;    8.431;  -13.880;  547.140
1112.846;    8.517;  -12.210;  666.240
1113.388;   11.231;  -11.390;  942.180
1113.930;    8.597;  -14.540;  694.200
1114.472;    8.171;  -12.640;  606.540
1115.013;    6.083;  -11.620;  551.280
1115.555;    6.602;  -13.640;  587.100
1116.097;    6.390;  -15.380;  579.480
1116.638;    7.467;  -12.640;  684.600
1117.180;    8.080;   -9.850;  667.740
1117.721;    7.219;  -13.690;  568.580
1118.262;    7.746;  -12.680;  677.960
1118.804;    7.906;  -12.530;  637.340
1119.345;    6.840;  -11.690;  578.400
1119.886;    8.064;  -13.380;  704.040
1120.427;    6.927;  -14.070;  589.020
1120.969;    6.350;  -13.500;  597.920
1121.510;    5.320;  -11.480;  563.060
1122.051;    6.539;  -12.830;  723.580
1122.592;    5.719;  -14.290;  655.420
1123.133;    4.920;  -12.400;  547.940
1123.673;    7.087;  -10.130;  706.480
1124.214;    5.831;  -12.930;  612.460
1124.755;    6.634;  -14.380;  639.460
1125.296;    6.029;  -14.000;  627.320
1125.836;    6.174;  -10.070;  691.500
1126.377;    5.844;  -12.640;  599.660
1126.918;    5.702;  -12.960;  614.980
1127.458;    5.569;  -13.350;  622.220
1127.999;    6.157;  -10.750;  656.980
1128.539;    5.722;  -12.350;  694.240
1129.079;    4.420;  -14.860;  632.720
1129.620;    4.473;  -13.840;  558.100
1130.160;    4.641;  -12.330;  539.480
1130.700;    5.366;  -14.530;  640.840
1131.240;    6.127;  -12.530;  643.700
1131.781;    4.646;  -14.450;  619.680
1132.321;    4.893;   -9.790;  599.120
1132.861;    3.458;  -14.860;  564.200
1133.401;    3.870;  -14.290;  593.940
1133.941;    4.362;  -11.750;  626.280
1134.481;    4.679;   -9.920;  597.580
1135.020;    4.346;  -12.290;  609.160
1135.560;    4.248;  -11.650;  674.940
1136.100;    3.330;  -16.270;  501.160
1136.640;    3.630;  -10.890;  510.480
1137.179;    3.422;  -14.180;  537.960
1137.719;    3.845;  -16.250;  605.400
1138.258;    3.874;  -14.230;  587.360
1138.798;    4.237;   -9.090;  663.780
1139.337;    2.097;  -15.130;  482.840
1139.877;    3.535;  -13.680;  642.360
1140.416;    6.390;  -11.320;  878.060
1140.955;    2.557;  -10.860;  535.380
1141.494;    3.130;  -12.920;  669.280
1142.034;    2.523;  -13.930;  583.520
1142.573;    3.562;  -11.440;  646.280
1143.112;    2.616;  -12.000;  553.480
1143.651;    2.873;  -13.670;  536.480
1144.190;    3.741;  -12.730;  691.640
1144.729;    3.271;  -14.560;  607.420
1145.267;    3.056;  -11.830;  584.900
1145.806;    3.221;  -12.230;  637.040
1146.345;    2.365;  -14.130;  635.020
1146.884;    2.102;  -11.590;  622.500
1147.422;    1.226;  -12.550;  533.060
1147.961;    3.167;  -11.180;  708.460
1148.500;    3.712;  -11.510;  669.720
1149.038;    3.772;  -11.640;  632.500
1149.577;    3.155;  -10.130;  698.640
1150.115;    0.396;  -13.970;  452.280
1150.653;    2.413;  -14.520;  607.340
1151.192;    2.998;  -12.810;  552.920
1151.730;    2.497;   -9.100;  652.560
1152.268;    1.305;  -12.220;  589.520
1152.806;    1.466;  -14.140;  571.180
1153.344;    0.623;  -12.350;  577.640
1153.882;    1.935;   -8.980;  600.060
1154.421;   -0.551;  -15.190;  470.620
1154.958;    1.140;  -15.210;  595.240
1155.496;    2.068;  -12.850;  645.280
1156.034;    1.641;   -9.940;  721.880
1156.572;    1.827;  -13.570;  667.060
1157.110;    0.505;  -14.590;  473.940
1157.647;    1.852;  -13.030;  676.960
1158.185;   -0.178;  -12.140;  564.320
1158.723;   -0.502;  -14.390;  509.200
1159.260;    0.545;  -14.090;  701.700
1159.798;    1.326;  -11.920;  658.160
1160.335;    0.448;  -11.110;  631.820

