
Integration time [ms]:   3.276
Averaging Nr. [scans]: 1000
Smoothing Nr. [pixels]: 0
Data measured with spectrometer [name]: 7414430SP
Wave   ;Sample   ;Dark     ;Reference
[nm]   ;[counts] ;[counts] ;[counts] 

288.544;  150.703;    7.793;  793.890
289.143;  154.995;    7.462;  681.602
289.742;  154.459;    8.602;  828.814
290.341;  140.231;    1.321;  789.841
290.940;  129.040;   -0.709;  730.702
291.538;  130.874;    0.881;  881.108
292.137;  129.900;    0.122;  792.581
292.736;  135.455;   -1.929;  975.101
293.335;  130.750;   -8.229;  735.086
293.934;  132.474;   -5.279;  781.677
294.532;  129.778;   -1.369; 1031.958
295.131;  116.551;   -7.641;  834.394
295.730;  117.010;   -8.420;  809.588
296.328;  115.338;   -5.611;  783.442
296.927;  115.622;   -5.781;  779.652
297.525;  117.040;   -6.361;  781.236
298.124;  107.593;  -11.382;  654.009
298.722;  111.039;   -7.641;  761.933
299.321;  108.963;   -6.811;  708.597
299.919;  106.525;   -6.991;  751.918
300.518;  104.009;  -10.362;  689.338
301.116;  106.244;   -9.581;  691.381
301.715;  105.752;   -4.891;  730.222
302.313;  104.831;   -8.801;  704.943
302.911;   98.461;   -8.522;  733.830
303.509;  105.232;   -6.171;  925.627
304.108;  103.536;   -7.311;  760.383
304.706;  102.675;   -8.321;  801.664
305.304;   96.737;  -10.222;  796.707
305.902;  102.044;   -6.021;  784.484
306.500;   96.443;   -4.971;  728.200
307.098;   95.709;   -7.061;  746.560
307.696;   93.681;   -8.801;  780.432
308.294;   94.292;   -6.411;  731.359
308.892;   96.809;   -2.901;  759.769
309.490;   93.221;   -5.041;  712.161
310.088;   91.723;   -5.002;  788.444
310.686;   95.525;   -2.041;  821.749
311.284;   90.276;   -2.351;  766.040
311.882;   88.573;   -4.422;  731.225
312.480;   85.704;   -4.192;  697.167
313.078;   86.676;   -1.172;  808.331
313.675;   88.522;   -2.601;  691.600
314.273;   83.391;   -1.312;  797.837
314.871;   82.295;   -3.942;  589.829
315.468;   80.486;   -2.802;  652.090
316.066;   83.444;   -0.701;  694.427
316.664;   76.025;   -4.362;  656.351
317.261;   80.285;   -2.872;  910.128
317.859;   74.968;   -2.022;  768.735
318.456;   75.740;   -0.531;  830.096
319.054;   71.961;   -3.912;  787.828
319.651;   71.473;   -4.752;  759.928
320.249;   70.022;   -2.602;  810.188
320.846;   68.194;   -0.821;  714.286
321.443;   65.195;   -4.642;  832.135
322.041;   62.354;   -5.002;  812.315
322.638;   60.013;   -3.982;  701.456
323.235;   60.462;   -3.411;  665.683
323.833;   58.192;   -7.361;  740.354
324.430;   53.782;   -8.611;  615.900
325.027;   54.635;   -4.061;  876.855
325.624;   54.295;   -4.031;  644.532
326.221;   51.244;   -7.481;  689.717
326.818;   51.593;   -5.281;  818.332
327.415;   53.904;   -7.460;  748.828
328.012;   53.259;   -5.510;  690.585
328.609;   52.096;   -7.880;  731.389
329.206;   51.012;   -8.331;  778.621
329.803;   50.162;   -5.121;  737.841
330.400;   52.497;   -4.510;  704.260
330.997;   54.068;   -6.441;  817.147
331.594;   52.974;   -8.831;  788.185
332.191;   58.208;   -7.621;  728.722
332.787;   60.986;   -4.591;  844.463
333.384;   59.803;   -7.412;  763.093
333.981;   58.696;   -8.293;  815.687
334.578;   61.061;   -7.052;  708.378
335.174;   63.573;   -3.102;  731.469
335.771;   63.466;   -5.943;  836.456
336.367;   60.470;   -7.393;  710.631
336.964;   63.851;   -4.063;  793.266
337.561;   62.301;   -3.813;  731.112
338.157;   57.212;   -4.654;  911.916
338.754;   55.308;   -7.934;  796.589
339.350;   53.763;   -4.414;  722.493
339.946;   55.815;   -4.664;  773.135
340.543;   46.611;   -6.375;  846.136
341.139;   42.673;   -9.815;  720.836
341.735;   40.005;   -4.526;  772.593
342.332;   38.313;   -4.895;  691.472
342.928;   38.613;   -4.295;  795.394
343.524;   32.771;   -5.476;  761.684
344.120;   28.997;   -5.856;  738.562
344.716;   32.126;   -2.155;  723.717
345.313;   29.954;   -6.275;  795.342
345.909;   25.341;   -8.815;  627.336
346.505;   26.735;   -5.305;  740.247
347.101;   27.433;   -2.674;  827.864
347.697;   27.347;   -4.344;  785.398
348.293;   22.544;   -9.975;  627.244
348.889;   23.702;   -5.774;  745.914
349.485;   22.389;   -5.004;  688.205
350.081;   22.877;   -4.704;  772.592
350.676;   18.925;   -6.635;  691.606
351.272;   22.650;   -4.504;  809.530
351.868;   22.145;   -3.914;  780.497
352.464;   19.444;   -9.044;  723.932
353.059;   15.370;   -8.314;  646.017
353.655;   18.683;   -7.024;  777.063
354.251;   20.030;   -5.343;  759.845
354.846;   14.929;   -8.604;  740.646
355.442;   12.425;   -6.945;  753.071
356.038;   14.684;   -7.564;  751.708
356.633;   14.476;   -5.814;  728.594
357.229;   12.478;   -7.364;  724.757
357.824;   10.105;   -8.024;  703.600
358.420;    9.696;   -9.384;  679.726
359.015;   10.046;   -5.104;  695.357
359.610;   11.773;   -6.854;  763.920
360.206;    5.355;  -10.185;  603.240
360.801;    8.708;   -7.054;  646.503
361.396;   10.422;   -5.034;  725.975
361.992;    5.667;   -8.284;  668.220
362.587;    2.953;   -8.625;  670.160
363.182;    5.629;   -7.674;  689.631
363.777;    6.364;   -5.164;  738.242
364.372;    5.248;   -8.604;  737.314
364.967;    2.192;   -9.055;  680.744
365.563;    5.847;   -6.114;  815.567
366.158;    2.659;   -5.814;  685.161
366.753;    4.119;   -7.854;  649.263
367.348;    1.866;   -7.804;  746.056
367.942;    2.151;   -7.954;  697.298
368.537;    0.906;   -4.984;  754.245
369.132;    0.704;   -8.564;  703.428
369.727;   -2.343;   -8.855;  638.079
370.322;   -1.381;   -6.245;  580.186
370.917;   -1.582;   -6.425;  710.646
371.511;    1.002;   -6.294;  861.834
372.106;   -2.598;   -7.685;  776.964
372.701;   -5.406;   -7.335;  585.988
373.296;   -0.190;   -4.564;  863.135
373.890;   -4.844;  -10.235;  647.840
374.485;   -6.542;   -7.885;  691.199
375.079;   -2.758;   -7.324;  738.685
375.674;   -2.274;   -3.494;  812.970
376.268;   -5.571;   -8.525;  691.759
376.863;  -12.008;  -10.086;  580.327
377.457;   -6.004;   -7.025;  662.490
378.052;   -7.566;   -3.585;  764.884
378.646;   -8.639;   -7.595;  741.167
379.240;   -8.789;   -8.335;  721.176
379.835;   -7.953;   -5.785;  636.978
380.429;  -10.167;   -4.335;  562.557
381.023;   -9.840;   -6.805;  779.205
381.617;  -12.045;   -9.195;  680.106
382.212;   -8.412;   -6.905;  685.303
382.806;   -7.861;   -3.745;  760.690
383.400;  -12.429;   -7.745;  672.281
383.994;  -13.076;   -9.765;  664.870
384.588;   -8.604;   -6.564;  697.701
385.182;   -7.541;   -5.344;  726.624
385.776;   -9.638;   -8.514;  706.875
386.370;  -12.809;   -9.555;  681.968
386.964;  -11.239;   -8.715;  684.155
387.558;   -9.603;   -6.174;  598.360
388.152;  -12.897;   -8.725;  681.959
388.745;  -11.865;   -7.965;  814.707
389.339;   -9.572;   -5.924;  747.642
389.933;   -9.109;   -5.524;  695.370
390.527;  -10.017;   -7.114;  859.029
391.120;  -16.484;  -10.725;  595.318
391.714;  -13.256;   -8.035;  711.633
392.308;  -10.551;   -3.574;  780.253
392.901;  -13.582;   -7.245;  642.460
393.495;  -15.440;   -9.285;  595.414
394.089;  -13.027;   -5.895;  760.452
394.682;  -14.623;   -4.295;  697.188
395.275;  -14.669;   -9.875;  719.927
395.869;  -15.600;   -8.485;  667.314
396.462;  -14.547;   -7.455;  616.609
397.056;  -10.804;   -5.424;  776.621
397.649;  -15.504;   -6.605;  731.575
398.242;  -12.553;   -8.224;  712.645
398.836;  -12.373;   -7.474;  766.408
399.429;  -12.657;   -7.094;  631.041
400.022;  -16.528;   -9.475;  665.902
400.615;  -13.531;   -7.145;  805.609
401.208;  -12.154;   -7.174;  691.451
401.802;  -14.363;   -5.515;  699.329
402.395;  -15.623;   -9.875;  683.502
402.988;  -16.079;   -8.845;  696.627
403.581;  -13.124;   -8.874;  646.878
404.174;  -10.673;   -5.324;  686.568
404.767;  -13.819;   -9.575;  638.583
405.360;  -16.773;  -10.965;  621.445
405.953;  -11.272;   -8.764;  759.034
406.545;  -10.669;   -7.514;  725.342
407.138;  -14.707;  -10.025;  618.350
407.731;  -13.742;  -10.034;  613.303
408.324;   -9.659;   -9.374;  660.554
408.917;  -10.354;   -6.534;  681.864
409.509;  -12.066;   -8.004;  740.396
410.102;  -14.555;   -9.875;  643.948
410.695;   -8.018;   -8.604;  665.758
411.287;   -8.903;   -6.794;  599.821
411.880;  -11.604;   -9.334;  585.421
412.472;  -13.495;  -10.254;  613.092
413.065;  -10.655;   -6.714;  629.408
413.657;   -8.243;   -7.234;  576.678
414.250;   -8.547;  -10.544;  646.681
414.842;  -10.366;   -9.744;  676.353
415.434;   -8.412;   -6.994;  570.463
416.027;   -3.684;   -5.893;  652.196
416.619;   -5.612;   -7.264;  713.400
417.211;   -5.851;  -10.374;  599.352
417.804;   -3.117;   -7.993;  628.499
418.396;   -6.903;   -7.234;  607.643
418.988;   -4.584;   -9.443;  659.238
419.580;   -7.572;  -10.724;  568.276
420.172;   -5.657;  -10.323;  536.196
420.764;   -1.299;   -8.793;  672.482
421.356;   -2.883;  -11.143;  636.898
421.948;   -2.968;   -8.293;  677.661
422.540;    1.714;   -7.893;  680.027
423.132;    0.472;   -7.082;  600.641
423.724;   -2.872;   -8.653;  561.267
424.316;   -0.403;  -10.213;  621.345
424.908;    3.377;   -9.762;  591.517
425.500;    3.328;   -5.572;  647.978
426.092;    3.714;   -8.422;  648.268
426.683;    2.685;   -9.283;  684.836
427.275;    5.623;   -7.852;  641.471
427.867;    7.517;   -5.272;  668.948
428.458;    7.560;   -7.682;  732.344
429.050;    6.725;  -10.612;  680.749
429.642;    8.702;   -9.882;  743.124
430.233;    8.864;   -6.962;  569.356
430.825;   10.186;   -6.842;  724.809
431.416;    7.657;   -9.672;  698.241
432.008;   11.592;   -6.552;  651.723
432.599;   12.116;   -6.891;  656.073
433.190;    8.744;  -10.912;  637.670
433.782;    8.820;  -11.172;  590.395
434.373;   15.498;   -6.061;  884.765
434.964;   14.096;   -8.251;  602.920
435.556;   12.438;   -9.722;  634.537
436.147;   15.408;   -9.082;  758.490
436.738;   14.588;   -8.041;  701.099
437.329;   19.990;   -7.341;  721.723
437.920;   12.973;   -8.162;  666.688
438.511;   13.281;  -11.802;  564.526
439.103;   19.426;  -10.191;  623.998
439.694;   21.226;   -7.601;  681.583
440.285;   22.554;   -8.541;  764.432
440.876;   20.113;   -9.751;  845.738
441.466;   19.958;   -9.401;  575.162
442.057;   24.832;   -7.760;  665.814
442.648;   23.540;   -9.971;  746.255
443.239;   22.311;  -11.001;  620.477
443.830;   27.109;   -7.990;  704.958
444.421;   28.654;   -7.910;  655.474
445.011;   25.535;   -8.131;  693.619
445.602;   24.923;   -7.111;  743.126
446.193;   26.571;  -10.920;  488.117
446.783;   31.064;   -6.500;  640.397
447.374;   26.517;   -8.671;  692.759
447.964;   27.755;  -10.781;  713.770
448.555;   35.392;   -9.650;  822.742
449.145;   32.364;   -8.660;  662.853
449.736;   33.730;   -8.990;  803.179
450.326;   32.455;   -9.500;  713.626
450.917;   37.955;   -8.680;  675.324
451.507;   37.684;   -7.520;  600.661
452.097;   37.521;   -8.590;  746.267
452.688;   38.650;  -11.340;  742.160
453.278;   38.341;  -10.100;  566.840
453.868;   42.813;   -6.019;  793.550
454.458;   40.199;   -9.440;  651.141
455.048;   40.808;  -10.560;  711.783
455.639;   42.716;  -11.799;  567.096
456.229;   45.893;   -6.899;  710.694
456.819;   48.838;   -7.389;  751.158
457.409;   48.745;  -11.119;  773.993
457.999;   51.273;   -9.289;  737.505
458.589;   51.163;   -6.139;  686.606
459.179;   51.078;   -8.729;  717.658
459.769;   48.974;   -9.789;  627.099
460.358;   54.624;  -10.259;  797.262
460.948;   53.554;   -7.299;  689.503
461.538;   55.790;  -10.289;  660.677
462.128;   52.957;  -11.269;  664.934
462.717;   60.191;   -9.368;  710.326
463.307;   62.894;   -7.908;  705.846
463.897;   59.085;   -9.599;  656.942
464.486;   58.434;   -9.769;  837.128
465.076;   62.584;   -8.048;  733.776
465.666;   66.494;   -9.358;  652.900
466.255;   63.392;   -7.919;  785.651
466.845;   63.136;  -11.689;  666.749
467.434;   66.422;   -7.818;  725.873
468.023;   67.161;   -7.678;  658.357
468.613;   64.529;  -10.939;  713.946
469.202;   68.920;  -10.118;  646.507
469.791;   73.214;   -9.108;  737.811
470.381;   75.207;   -6.058;  742.813
470.970;   74.306;  -10.428;  711.099
471.559;   73.662;  -10.268;  733.291
472.148;   77.805;   -8.448;  675.737
472.738;   79.982;   -6.917;  765.466
473.327;   79.402;  -11.978;  637.529
473.916;   78.640;  -11.888;  737.446
474.505;   84.162;   -9.437;  751.703
475.094;   86.869;   -6.747;  806.570
475.683;   86.049;   -9.367;  797.699
476.272;   87.877;  -12.637;  730.632
476.861;   90.107;  -10.027;  706.754
477.449;   95.918;   -8.716;  728.487
478.038;   90.837;   -9.577;  692.513
478.627;   91.880;   -9.718;  714.852
479.216;   97.845;   -8.947;  769.441
479.805;  100.872;   -6.256;  783.375
480.393;  101.058;   -7.937; 1008.945
480.982;  100.234;   -7.717;  874.501
481.571;  106.280;   -9.266;  858.333
482.159;  106.736;   -7.636;  705.386
482.748;  106.694;   -9.667;  821.385
483.336;  110.911;  -10.376;  858.209
483.925;  112.019;   -7.147;  774.373
484.513;  118.639;   -7.996;  758.962
485.102;  115.035;  -10.027;  810.965
485.690;  123.905;  -10.446; 1011.050
486.278;  127.110;   -8.446;  979.329
486.867;  126.410;   -6.356;  809.662
487.455;  127.770;   -9.136;  898.229
488.043;  129.789;  -10.646;  748.361
488.631;  138.189;   -7.456; 1005.079
489.220;  142.059;   -6.636;  908.626
489.808;  142.789;  -11.036;  741.415
490.396;  150.539;  -10.246;  914.645
490.984;  156.484;   -8.556;  830.161
491.572;  166.002;   -5.886;  940.315
492.160;  171.728;   -9.486;  919.081
492.748;  183.168;  -10.976;  884.341
493.336;  206.127;   -8.776; 1019.693
493.924;  232.502;   -5.465;  958.077
494.512;  258.561;   -9.986; 1066.638
495.100;  295.850;  -10.636; 1103.280
495.687;  352.079;  -10.885; 1206.373
496.275;  415.401;   -8.126; 1150.796
496.863;  484.098;  -10.586; 1281.171
497.451;  584.784;  -11.926; 1386.805
498.038;  713.796;  -10.885; 1556.729
498.626;  818.336;   -6.315; 1741.407
499.214;  958.405;   -7.326; 2016.609
499.801; 1158.817;  -11.906; 2220.633
500.389; 1399.283;  -10.466; 2312.494
500.976; 1712.909;   -5.236; 2744.849
501.564; 2138.557;   -8.936; 3148.565
502.151; 2517.313;  -13.176; 3515.999
502.738; 2972.210;  -10.646; 3971.274
503.326; 3349.209;   -9.525; 4403.796
503.913; 3719.432;  -10.856; 5161.749
504.500; 4073.152;  -11.586; 5986.420
505.088; 4483.779;  -10.336; 6381.201
505.675; 5009.804;   -6.355; 6925.547
506.262; 5725.954;   -9.046; 7619.060
506.849; 6409.254;  -10.416; 8733.969
507.436; 6880.871;  -10.305; 9790.121
508.023; 7464.135;   -5.496; 9985.472
508.610; 7715.101;   -7.856;10434.618
509.197; 8349.399;  -10.097;11198.435
509.784; 9727.842;  -10.886;12391.194
510.371;10702.821;   -9.315;13603.713
510.958;11382.056;   -9.936;14426.586
511.545;12175.514;   -9.326;15243.775
512.132;13148.634;  -10.075;15945.876
512.719;13798.194;   -7.796;16340.369
513.305;14674.617;  -10.606;18011.766
513.892;15428.556;  -11.486;19754.971
514.479;16758.744;   -9.126;20967.805
515.066;18107.990;   -6.026;22299.793
515.652;19279.938;   -8.466;22908.660
516.239;20631.758;  -10.886;23798.875
516.825;21792.441;  -11.496;25567.275
517.412;22888.625;   -5.796;28154.959
517.998;23425.020;  -10.506;28344.111
518.585;23370.369;  -10.076;27134.219
519.171;23893.779;   -8.315;27268.576
519.758;25397.094;   -8.596;28964.129
520.344;27101.740;   -8.466;30664.494
520.930;27117.375;  -11.006;32550.605
521.516;28764.760;  -10.495;35422.895
522.103;31091.295;   -5.526;38280.004
522.689;31735.381;   -8.746;37835.117
523.275;31039.529;  -11.376;37288.613
523.861;31901.174;  -11.156;37281.395
524.447;33099.586;   -8.135;37846.949
525.033;32783.512;   -7.896;38321.949
525.619;32972.711;  -12.476;38579.285
526.205;34552.727;   -9.516;40622.875
526.791;36476.184;   -6.926;42258.836
527.377;36295.352;   -8.346;42966.902
527.963;37421.254;   -8.717;42018.949
528.549;34532.449;  -11.016;42476.828
529.135;31026.900;   -8.536;41854.852
529.721;29382.809;   -9.666;41237.711
530.306;30837.416;  -10.066;41259.445
530.892;33596.086;  -11.356;41506.047
531.478;36488.289;   -6.596;43559.613
532.063;39700.859;   -8.836;47695.563
532.649;39776.320;  -10.047;50808.324
533.235;40661.211;   -9.746;51787.500
533.820;41401.914;   -6.566;52145.035
534.406;42413.160;  -10.817;51133.488
534.991;41693.332;   -9.416;49996.805
535.576;39569.188;   -9.036;48882.852
536.162;38480.727;   -6.156;46942.285
536.747;36904.902;  -11.607;45711.746
537.333;36972.031;  -11.787;48510.180
537.918;37737.828;  -12.437;50439.891
538.503;39568.434;   -7.196;50863.711
539.088;42006.512;  -10.556;50906.922
539.673;45637.254;   -8.767;52621.965
540.259;46811.730;  -10.026;52368.094
540.844;44202.316;   -7.416;50879.109
541.429;45261.223;   -9.467;52077.777
542.014;48367.586;   -9.527;52716.695
542.599;47684.441;   -9.946;52363.281
543.184;45342.766;   -7.927;53187.137
543.769;46947.270;   -9.297;54697.605
544.354;46027.813;  -10.127;53913.914
544.938;44648.934;   -9.267;49680.164
545.523;46437.223;   -6.506;47386.277
546.108;48804.363;   -9.787;49151.949
546.693;51004.422;  -11.587;51384.637
547.278;50940.090;  -10.986;51853.254
547.862;47726.684;   -8.206;51173.750
548.447;43027.289;  -10.067;51691.395
549.031;42728.094;   -9.637;52456.703
549.616;47746.742;   -9.926;52714.516
550.201;46679.977;   -6.347;52414.598
550.785;47845.727;   -7.917;52355.059
551.370;47094.402;  -10.867;54589.453
551.954;47242.645;   -9.047;58267.348
552.538;47958.918;   -7.827;59062.176
553.123;46301.281;  -10.287;58115.285
553.707;44446.051;  -12.178;56556.285
554.291;45649.406;   -8.717;56201.668
554.876;47560.445;   -7.457;55335.762
555.460;47891.410;  -10.387;54155.703
556.044;49072.965;   -9.618;53721.484
556.628;47533.289;  -11.567;53731.016
557.212;46054.785;   -8.097;54312.531
557.796;44535.164;  -11.077;53797.773
558.380;44303.332;  -11.108;56145.984
558.964;44664.648;   -9.057;57277.930
559.548;45654.164;   -6.977;56459.641
560.132;44212.668;  -11.457;54434.543
560.716;43089.230;  -11.378;54800.617
561.300;44333.922;   -9.577;57606.945
561.884;45402.215;   -7.127;58972.445
562.467;43965.777;   -7.118;57327.570
563.051;43057.063;  -13.358;54962.434
563.635;43761.098;  -10.178;52594.473
564.219;44230.746;   -7.837;50610.410
564.802;45147.625;  -11.398;49551.180
565.386;45219.566;  -12.788;48370.953
565.969;44676.844;   -9.077;48178.871
566.553;44399.523;   -6.207;49957.305
567.136;44597.695;   -8.568;50369.594
567.720;40570.902;  -11.868;49492.004
568.303;38632.586;   -8.268;50616.352
568.887;38829.402;   -8.698;50727.148
569.470;38885.840;   -6.808;51698.379
570.053;37424.570;  -13.188;52122.078
570.637;35948.766;  -12.037;52536.438
571.220;35682.203;   -8.577;51186.098
571.803;36063.137;   -8.498;51032.762
572.386;38526.801;  -10.498;49609.887
572.969;40947.297;   -9.388;48285.926
573.552;38861.789;   -8.338;47624.285
574.135;37651.559;   -8.518;45498.641
574.718;35230.785;  -13.628;41970.434
575.301;33992.313;  -10.893;41447.137
575.884;32753.842;   -8.158;40923.836
576.467;34162.777;  -10.328;45267.723
577.050;36642.617;  -13.058;48175.543
577.633;37985.504;   -9.458;47729.328
578.216;36712.754;   -8.928;47579.793
578.799;35729.871;   -9.358;47820.996
579.381;34369.992;  -11.388;48115.551
579.964;32901.688;  -11.718;47333.766
580.547;34663.301;   -8.588;46668.969
581.129;35887.172;   -8.859;44466.141
581.712;36496.445;  -10.729;44164.922
582.294;37101.945;  -11.118;46477.855
582.877;36919.391;   -5.218;48244.254
583.459;34317.211;   -8.679;47437.895
584.042;32606.322;  -10.709;46943.219
584.624;33570.359;  -11.669;46792.227
585.206;33050.656;   -8.218;46557.250
585.789;33230.496;  -10.569;45793.773
586.371;35913.871;  -11.859;43836.391
586.953;36272.949;  -10.719;42972.492
587.536;37621.840;   -7.198;42487.211
588.118;37165.059;   -8.720;42086.414
588.700;33877.367;  -10.439;43389.930
589.282;33211.438;   -9.198;43646.039
589.864;34087.809;   -9.199;43438.109
590.446;34778.008;  -11.319;43151.926
591.028;34490.145;  -11.159;42781.867
591.610;33594.207;  -11.779;42839.098
592.192;31325.049;   -7.668;42820.402
592.774;29924.867;  -11.949;40724.277
593.356;28684.898;  -12.129;39874.789
593.937;27725.998;  -10.669;39980.648
594.519;29937.844;   -6.509;42069.633
595.101;32049.492;  -10.849;42976.031
595.683;32134.254;  -11.679;44084.441
596.264;33354.559;   -9.049;43478.797
596.846;32502.365;   -8.849;43803.672
597.427;32175.037;   -9.570;42986.934
598.009;33753.305;  -12.620;42832.219
598.591;33964.148;  -10.039;42580.086
599.172;32890.031;  -10.369;43061.805
599.753;32992.164;   -9.140;41691.469
600.335;34723.723;  -11.430;40692.520
600.916;33268.605;   -9.939;39982.422
601.498;30786.492;   -8.479;40318.617
602.079;29352.998;  -10.920;40670.609
602.660;29569.266;  -11.480;41450.898
603.241;31107.369;  -11.699;41137.738
603.823;29865.469;   -9.579;38868.797
604.404;29813.072;  -10.620;38182.785
604.985;31130.945;  -10.450;38078.047
605.566;30522.018;   -9.129;38056.633
606.147;30643.822;   -7.510;37020.418
606.728;32375.244;  -10.660;37883.359
607.309;31070.359;  -11.740;38748.273
607.890;30453.371;   -9.759;38850.230
608.471;30001.365;   -8.250;37457.918
609.051;29072.398;   -9.240;36066.457
609.632;28160.369;  -12.120;35991.074
610.213;29151.828;   -9.110;37402.641
610.794;29675.486;   -8.030;38383.363
611.374;29101.240;   -8.110;40562.387
611.955;29472.988;  -13.560;38533.727
612.536;30728.555;  -11.400;36951.789
613.116;30801.568;   -8.070;37197.891
613.697;31038.135;  -10.830;38411.125
614.277;29752.285;  -11.641;38673.938
614.858;30627.639;  -13.310;37075.863
615.438;29577.029;   -7.460;35092.906
616.019;26699.105;   -7.601;33666.301
616.599;27474.229;  -12.020;34189.023
617.179;29320.189;  -11.780;36952.047
617.760;30197.506;   -8.570;39582.574
618.340;31283.084;  -11.471;38943.977
618.920;32591.486;  -11.170;37594.156
619.500;32447.018;  -11.071;37866.938
620.080;31680.922;   -7.750;37869.043
620.660;32886.000;  -12.711;36868.617
621.241;34284.930;  -10.211;36352.309
621.821;34398.070;  -10.961;35459.520
622.401;33332.102;   -7.720;35207.414
622.980;32556.678;   -8.981;35980.422
623.560;31118.930;   -9.331;37351.328
624.140;30120.574;   -9.850;34388.582
624.720;24817.672;   -7.451;32368.764
625.300;21298.875;   -9.070;32638.629
625.880;24697.379;  -12.601;34599.035
626.459;28725.533;  -11.751;36831.738
627.039;31909.105;   -9.281;38299.098
627.619;31819.213;   -8.801;38289.574
628.198;30146.943;  -12.071;37220.695
628.778;29270.969;   -9.461;37632.563
629.357;30017.148;   -8.491;38003.012
629.937;30148.713;   -9.721;38402.039
630.516;29551.158;   -9.951;37868.801
631.096;29088.748;  -11.731;35760.410
631.675;32210.289;   -8.572;35225.219
632.254;37222.789;  -11.282;35130.289
632.834;36553.391;  -13.322;35794.570
633.413;34492.488;  -10.301;35788.922
633.992;31341.418;   -8.582;34532.863
634.571;32249.100;   -8.352;33590.113
635.151;35133.809;  -11.912;34943.863
635.730;33552.191;  -10.511;35352.523
636.309;30309.604;   -7.731;35366.605
636.888;28154.498;   -9.952;36165.637
637.467;29238.578;  -11.672;37515.902
638.046;30906.307;   -8.901;39288.695
638.625;33933.664;   -7.912;38279.699
639.204;33508.988;  -10.022;37741.598
639.782;31905.988;  -12.252;38364.551
640.361;28131.678;  -10.041;36740.621
640.940;25242.102;  -11.161;34950.082
641.519;25861.451;   -9.701;34137.398
642.097;28946.422;  -11.271;35654.258
642.676;31769.355;   -8.651;35637.957
643.255;32196.303;   -8.711;36567.074
643.833;31284.191;   -9.581;37809.434
644.412;31509.287;  -13.711;37337.293
644.990;30799.219;  -11.811;37018.531
645.569;31089.434;   -9.411;36518.469
646.147;29794.455;  -10.291;36186.430
646.726;29091.178;  -12.401;36267.688
647.304;30165.875;  -10.411;36647.625
647.882;32267.146;   -9.651;39286.742
648.461;34016.207;   -9.631;39157.703
649.039;32066.287;  -11.881;35412.883
649.617;31441.412;   -9.661;34744.918
650.195;31237.066;   -9.301;35403.098
650.773;29733.564;  -10.511;35053.797
651.352;27385.467;  -11.521;33756.816
651.930;25195.049;  -12.211;31868.773
652.508;23691.443;   -9.171;33121.551
653.086;27621.549;   -9.371;33564.793
653.663;30198.109;  -13.161;34054.668
654.241;29312.691;  -13.031;35693.309
654.819;31115.105;   -9.371;36422.906
655.397;31162.398;  -10.511;38213.484
655.975;31015.074;  -10.371;39507.625
656.553;30678.666;  -10.051;39498.223
657.130;28968.129;  -10.061;40395.480
657.708;28388.850;   -9.561;39242.020
658.286;28341.383;  -11.511;38920.020
658.863;29530.666;  -10.261;40202.898
659.441;32639.340;   -7.531;39677.938
660.018;31986.875;   -9.501;40413.355
660.596;30924.613;  -13.301;39931.414
661.173;33044.523;  -11.211;39604.531
661.750;33153.820;   -9.951;39700.070
662.328;32075.795;   -9.390;39292.809
662.905;31133.494;  -11.330;38235.648
663.482;26522.146;   -9.050;36212.305
664.060;24684.182;   -8.240;35944.945
664.637;27635.160;  -10.050;35170.785
665.214;29561.822;  -11.760;34197.523
665.791;30869.887;  -10.530;34549.520
666.368;29546.453;   -9.690;35118.578
666.945;30513.203;   -9.320;36019.418
667.522;32058.881;  -11.860;36048.438
668.099;31913.273;  -10.770;36243.914
668.676;30826.459;   -6.260;35958.875
669.253;29340.205;   -7.000;37384.730
669.830;30003.762;  -10.190;36779.629
670.407;29717.781;   -9.550;35231.289
670.984;29891.717;   -9.260;35544.270
671.560;30218.092;   -9.280;35466.867
672.137;29193.367;  -11.810;34280.863
672.714;30028.043;  -11.490;34632.863
673.290;30452.533;   -7.740;35135.422
673.867;30867.461;  -10.660;36114.480
674.443;30525.355;  -12.230;36152.859
675.020;28791.633;  -10.450;35327.238
675.596;30013.600;   -9.260;35795.176
676.173;30450.959;  -10.780;35430.355
676.749;30357.766;  -13.690;33549.516
677.326;30508.451;  -11.980;32210.012
677.902;30482.354;   -8.630;32068.871
678.478;29706.971;  -10.730;32583.891
679.054;29253.389;  -10.520;32088.928
679.631;29461.436;  -11.920;30978.848
680.207;31004.244;   -7.490;33160.887
680.783;32623.588;   -9.860;35570.363
681.359;31720.031;  -13.380;36125.184
681.935;31024.887;  -12.480;35240.922
682.511;29941.717;   -7.900;34429.961
683.087;30092.164;   -7.710;34463.680
683.663;29865.221;  -11.480;34648.898
684.239;28551.863;  -14.090;34546.457
684.815;28154.090;   -7.560;35586.375
685.390;28531.348;   -9.910;35821.895
685.966;29037.266;  -11.159;35085.871
686.542;31619.602;  -11.169;34198.230
687.118;33627.496;   -5.959;32847.707
687.693;33666.852;  -10.329;32794.027
688.269;33344.875;  -12.059;33072.367
688.844;31369.617;  -10.909;33141.664
689.420;28993.078;   -8.019;33965.742
689.995;26626.408;   -8.399;34655.523
690.571;25402.334;  -10.949;33576.742
691.146;26033.352;   -9.619;32657.219
691.722;25548.109;   -8.999;32526.979
692.297;25838.955;  -11.589;33014.617
692.872;27839.355;  -11.739;34012.254
693.448;27154.660;  -11.059;34237.434
694.023;26360.961;  -10.139;34142.672
694.598;28406.158;   -9.029;34132.031
695.173;28588.412;  -13.319;34205.250
695.748;27825.414;  -10.169;32882.488
696.323;27718.109;   -8.339;32864.906
696.898;28007.199;   -8.169;33170.004
697.473;27848.527;  -12.309;32432.984
698.048;27368.291;  -10.989;31649.303
698.623;27576.059;   -9.329;30778.141
699.198;29727.844;   -9.849;31140.119
699.773;30426.244;  -12.329;31764.299
700.348;28630.422;  -10.389;31780.816
700.922;28541.691;   -9.269;32046.375
701.497;29158.881;   -9.329;32603.574
702.072;29308.879;  -10.789;34799.871
702.646;28134.396;  -10.839;35793.172
703.221;26348.670;   -9.099;35201.590
703.795;28336.566;  -10.939;34764.527
704.370;28586.564;  -12.859;34307.367
704.944;29132.100;  -11.559;33509.887
705.519;30101.732;   -7.939;31388.584
706.093;31637.928;  -10.499;31340.104
706.668;31704.863;  -11.289;32630.281
707.242;30632.949;  -11.509;32728.779
707.816;29108.592;   -9.639;32947.238
708.390;27547.088;  -11.429;33277.855
708.965;28296.551;  -11.869;33834.336
709.539;28707.578;  -11.689;33709.273
710.113;29209.385;  -10.478;33044.313
710.687;28346.586;  -10.228;31953.992
711.261;26512.078;  -13.698;30505.949
711.835;26470.918;  -13.378;30262.369
712.409;27491.623;   -9.698;31254.447
712.983;29284.547;  -11.898;32754.986
713.557;30043.684;  -15.138;34018.824
714.131;29670.061;  -14.098;34579.625
714.704;28760.098;   -9.958;33890.262
715.278;26521.734;  -10.028;33531.102
715.852;25675.598;  -11.148;33601.660
716.425;26593.148;   -9.068;33515.117
716.999;27210.717;  -10.038;33185.555
717.573;28226.623;   -9.798;33905.996
718.146;29312.350;  -12.378;35199.293
718.720;29088.889;  -11.918;35060.551
719.293;28511.291;   -8.088;34973.230
719.867;31400.813;  -10.888;36394.449
720.440;30843.393;  -11.938;36663.008
721.013;29057.432;  -12.818;35102.426
721.587;27831.775;  -10.298;33985.266
722.160;27065.225;  -10.048;33524.965
722.733;26059.379;  -12.108;32987.043
723.306;26375.549;  -10.818;33066.301
723.880;28651.322;   -8.908;33399.500
724.453;30160.592;   -9.878;33468.297
725.026;29110.932;  -11.188;33816.637
725.599;26819.279;  -11.678;32797.996
726.172;27633.607;   -9.618;33187.434
726.745;28727.027;   -8.258;35136.613
727.318;29966.670;  -12.978;35751.730
727.891;29966.451;  -12.148;35890.430
728.463;29405.174;   -8.968;34822.090
729.036;28632.076;  -10.188;32895.086
729.609;29230.115;  -11.788;31823.225
730.182;26232.873;  -11.788;31445.283
730.754;23771.648;  -10.268;32373.223
731.327;23766.291;   -9.998;33676.820
731.900;24211.719;  -12.228;33417.000
732.472;25705.105;  -13.848;31978.498
733.045;27524.127;   -8.698;30368.777
733.617;27659.174;  -10.607;30574.215
734.190;27068.301;  -11.507;31280.975
734.762;23892.059;  -13.647;31674.412
735.334;22365.615;   -9.767;31247.291
735.907;23225.664;   -9.897;29876.211
736.479;23208.139;  -11.637;29808.488
737.051;22798.814;   -9.567;30233.547
737.623;23803.486;   -8.187;31469.086
738.195;24855.443;  -11.187;31784.225
738.768;26910.436;  -12.337;32120.523
739.340;26694.584;  -12.227;32094.342
739.912;25255.273;  -11.057;31312.680
740.484;23871.268;  -10.207;31946.238
741.056;23040.936;  -10.047;32984.059
741.628;24949.316;  -13.627;33897.715
742.199;27212.117;   -7.177;33213.016
742.771;25473.463;  -10.797;31369.113
743.343;23022.551;  -11.997;31865.473
743.915;22053.369;  -12.867;32388.631
744.487;22291.814;   -7.617;31079.568
745.058;22458.723;   -9.557;30570.107
745.630;22844.535;   -9.877;29970.127
746.201;23389.326;  -14.177;29186.766
746.773;23486.682;   -9.237;28805.723
747.344;23303.303;   -9.847;29591.223
747.916;22157.488;  -11.657;31412.201
748.487;22640.266;  -10.587;32194.898
749.059;23918.189;   -8.707;32533.719
749.630;24669.123;  -10.537;32158.518
750.201;23847.861;  -11.687;30855.395
750.773;22069.740;  -11.647;28622.555
751.344;22078.752;   -7.147;28405.732
751.915;23291.143;   -9.757;28461.551
752.486;22895.176;  -12.427;27842.850
753.057;20633.434;  -12.227;27845.008
753.628;19553.004;  -10.417;27728.107
754.199;20815.203;  -11.767;27381.086
754.770;21789.904;  -11.187;25882.203
755.341;21721.104;  -10.507;25886.184
755.912;21600.561;   -9.387;26050.861
756.483;21023.166;  -10.647;26798.779
757.054;19210.775;  -11.837;27048.238
757.625;17970.766;  -12.716;26294.838
758.195;17853.682;   -9.666;26142.076
758.766;17625.436;   -8.656;26392.234
759.337;18441.502;  -12.856;26334.594
759.907;20281.895;  -13.366;27579.652
760.478;21141.369;   -8.576;28352.770
761.048;20348.336;  -10.526;27325.088
761.619;19507.545;  -11.116;26460.428
762.189;19649.277;  -12.136;26029.826
762.760;20936.939;   -9.456;26430.145
763.330;21907.344;   -7.136;26670.902
763.900;21148.035;  -11.786;26603.021
764.471;18448.070;  -11.546;25542.740
765.041;17176.180;   -8.096;24358.459
765.611;17284.801;   -8.876;23991.297
766.181;17749.488;  -12.196;24470.236
766.751;18700.875;  -11.636;24845.975
767.321;18356.648;  -10.156;24533.633
767.891;16308.550;  -11.766;24916.492
768.461;15853.213;  -14.936;24776.771
769.031;16455.104;  -12.356;24757.988
769.601;17965.279;   -7.526;24181.088
770.171;17759.951;  -10.766;23670.387
770.741;17171.104;  -13.176;22960.045
771.311;17489.336;  -10.616;22917.523
771.880;17726.979;   -9.576;23562.941
772.450;17366.885;  -10.336;24216.500
773.020;17511.953;  -13.516;24140.398
773.589;16926.623;  -13.466;24414.857
774.159;16280.220;   -8.686;23858.717
774.729;15859.196;   -9.476;22942.135
775.298;15311.432;  -13.666;22324.033
775.867;14902.246;  -11.716;21140.313
776.437;14883.863;   -9.906;20838.092
777.006;14629.468;  -12.166;20599.510
777.576;14576.021;  -12.356;20508.809
778.145;14784.453;  -11.646;20732.947
778.714;14633.090;   -8.226;21062.465
779.283;13836.102;   -9.556;20949.664
779.853;13429.580;  -14.116;20508.623
780.422;13933.236;  -11.506;20649.082
780.991;13506.330;   -9.556;21527.520
781.560;12348.621;   -9.095;22632.658
782.129;12187.556;  -12.135;23048.277
782.698;12206.415;  -10.865;23438.555
783.267;11818.972;   -9.335;23267.734
783.836;11829.554;  -11.045;22415.133
784.404;12904.433;  -13.865;20443.152
784.973;13428.806;  -13.095;19699.150
785.542;13357.628;  -11.575;19763.828
786.111;13205.673;   -9.705;20341.408
786.679;12642.503;  -12.105;20207.967
787.248;12398.096;  -12.455;19516.465
787.817;12208.518;  -11.535;18900.363
788.385;11766.533;   -9.765;17879.121
788.954;11154.970;  -14.005;17658.301
789.522;10654.939;  -11.955;17788.879
790.090;11231.238;  -10.135;18118.277
790.659;11576.867;  -10.975;18338.736
791.227;11069.007;  -13.375;18508.615
791.795;11561.981;  -12.375;17898.254
792.364;11888.630;  -10.725;17295.133
792.932;12117.359;   -9.715;16822.051
793.500;12295.821;  -12.675;17040.148
794.068;12551.335;  -13.495;17179.787
794.636;12637.301;  -10.885;16664.246
795.204;12123.071;  -11.045;16524.545
795.772;12208.853;  -13.175;17274.564
796.340;11745.191;  -12.445;17891.002
796.908;11593.680;   -9.735;17648.561
797.476;11453.439;   -9.815;17064.080
798.044;10994.320;  -13.985;16672.777
798.612;10166.021;  -13.115;17023.996
799.180; 9773.877;  -10.185;16561.615
799.747; 9699.301;   -9.055;15962.773
800.315; 9434.682;  -12.385;15296.992
800.883; 9069.808;  -15.035;14801.771
801.450; 9040.293;  -10.365;14534.430
802.018; 9094.321;   -9.855;14173.248
802.585; 9253.680;  -11.905;14029.547
803.153; 9347.550;  -11.585;13836.846
803.720; 9188.534;   -9.095;13567.324
804.287; 8733.271;   -9.135;13360.622
804.855; 8327.540;  -11.604;13681.981
805.422; 8193.151;  -11.794;13536.560
805.989; 8188.846;  -10.734;13355.958
806.556; 8409.439;  -10.444;13747.896
807.124; 8691.771;  -12.764;13987.376
807.691; 8659.780;  -12.964;14038.674
808.258; 8425.111;  -11.134;14120.152
808.825; 8055.244;   -9.854;13860.111
809.392; 8103.949;  -10.504;13268.790
809.959; 7643.387;  -13.054;12680.389
810.526; 7258.235;   -8.294;12427.308
811.093; 7329.420;   -8.394;12030.105
811.659; 7895.728;  -12.304;11653.664
812.226; 8334.230;  -13.944;11637.183
812.793; 7968.479;  -10.484;11611.521
813.360; 7326.776;  -10.144;11885.181
813.926; 7042.492;  -11.684;12770.539
814.493; 6841.958;  -13.644;12677.638
815.060; 6483.867;   -9.724;11974.336
815.626; 6529.209;   -9.854;11594.715
816.193; 6946.052;  -13.254;11579.474
816.759; 6959.203;  -13.204;11666.972
817.325; 7048.563;   -9.434;11325.530
817.892; 7434.960;  -10.134;11105.369
818.458; 7866.029;  -13.474;10843.928
819.024; 7440.365;  -11.854;10714.406
819.591; 7098.502;  -10.244;10469.165
820.157; 6886.758;  -10.704;10235.523
820.723; 6401.584;  -12.324;10847.563
821.289; 6090.381;   -9.444;11040.980
821.855; 5955.199;   -8.374;10357.100
822.421; 5862.416;  -10.234; 9978.918
822.987; 5836.833;  -13.294; 9754.177
823.553; 5566.790;  -10.884;10065.755
824.119; 5426.013;   -8.884;10036.294
824.685; 5492.726;   -6.784;10029.192
825.251; 5565.362;  -12.004;10199.230
825.816; 5531.986;  -11.474; 9820.189
826.382; 5330.221;   -9.174; 9297.248
826.948; 5582.579;   -9.214; 9381.347
827.513; 5937.925;  -10.774; 9450.726
828.079; 5707.953;  -11.924; 9472.444
828.645; 5153.850;  -10.543; 9292.643
829.210; 5128.198;  -10.533; 9065.341
829.776; 5113.818;  -10.753; 9132.620
830.341; 4984.195;  -10.173; 9092.878
830.906; 5181.319;  -10.743; 9078.557
831.472; 5494.917;  -11.113; 8534.535
832.037; 5176.131;  -10.603; 8677.874
832.602; 4602.838;  -13.323; 8628.692
833.167; 4362.735;  -10.823; 8879.031
833.733; 4312.977;  -10.113; 9189.790
834.298; 4428.500;  -13.583; 9052.608
834.863; 4469.712;  -12.703; 8895.087
835.428; 4447.926;  -10.523; 8824.266
835.993; 4336.349;   -6.963; 8845.385
836.558; 4219.131;  -10.763; 8888.563
837.123; 4379.703;   -9.903; 8966.582
837.688; 4599.011;   -9.913; 8617.860
838.253; 4806.076;  -10.283; 8590.699
838.817; 5009.295;  -12.963; 8443.797
839.382; 4913.442;  -14.243; 8799.356
839.947; 4602.708;  -10.733; 8810.595
840.511; 4291.335;   -9.383; 8796.394
841.076; 3921.049;  -12.563; 8347.231
841.641; 3991.665;  -12.953; 8224.330
842.205; 4093.796;   -7.043; 8223.349
842.770; 4233.907;   -8.163; 8622.107
843.334; 4429.257;  -12.503; 8410.386
843.898; 4387.817;  -11.693; 8337.465
844.463; 4403.243;  -10.203; 8506.283
845.027; 4164.125;   -9.533; 8280.962
845.591; 3982.154;  -13.443; 8231.141
846.156; 3940.421;  -13.143; 7969.179
846.720; 3815.488;   -9.433; 7768.278
847.284; 3678.049;  -11.033; 7630.957
847.848; 3543.145;  -10.403; 7472.395
848.412; 3444.231;  -11.553; 7437.394
848.976; 3483.151;   -8.393; 7674.592
849.540; 3434.853;   -8.713; 7836.011
850.104; 3576.790;  -12.463; 7913.669
850.668; 3921.403;  -12.973; 7694.508
851.232; 3999.277;  -10.793; 7756.887
851.796; 3836.639;  -10.662; 7926.545
852.359; 3543.954;  -13.082; 7827.844
852.923; 3390.131;  -12.192; 7641.163
853.487; 3213.624;  -11.912; 7342.501
854.050; 3162.798;  -10.892; 7042.820
854.614; 3290.917;  -13.992; 7151.338
855.177; 3412.085;  -11.732; 7105.077
855.741; 3444.365;   -8.962; 6989.675
856.304; 3340.911;   -9.442; 6596.634
856.868; 3290.420;  -14.192; 6356.272
857.431; 3398.627;  -12.702; 6468.571
857.995; 3529.719;   -9.942; 6373.210
858.558; 3532.920;   -9.112; 6324.448
859.121; 3257.304;  -12.932; 6408.327
859.684; 3141.468;  -13.442; 6347.886
860.247; 3245.791;  -10.632; 6321.264
860.810; 3222.137;  -11.272; 6301.903
861.374; 2958.553;   -9.832; 6607.881
861.937; 2707.423;  -11.762; 6408.200
862.500; 2715.189;   -9.722; 6572.639
863.062; 2904.478;  -10.512; 6387.297
863.625; 3082.008;  -11.232; 6190.836
864.188; 3244.450;  -14.112; 5807.254
864.751; 3308.468;  -11.302; 5682.413
865.314; 3190.583;  -10.112; 5547.492
865.876; 2989.292;  -12.182; 5500.150
866.439; 2986.991;  -10.722; 5415.909
867.002; 2922.513;   -9.252; 5501.567
867.564; 2697.895;   -9.572; 5413.946
868.127; 2463.829;  -13.142; 5160.325
868.689; 2361.127;  -12.902; 5133.183
869.252; 2256.967;   -9.732; 5252.382
869.814; 2163.320;   -9.432; 5297.141
870.377; 2182.485;  -11.552; 5390.919
870.939; 2258.221;   -9.052; 5599.898
871.501; 2318.875;  -10.982; 5248.336
872.063; 2320.716;  -12.292; 4854.235
872.626; 2288.138;  -14.912; 4817.074
873.188; 2326.820;  -13.112; 4987.732
873.750; 2293.433;  -13.442; 4868.651
874.312; 2197.274;   -9.402; 4779.330
874.874; 2101.484;  -11.062; 4866.348
875.436; 2009.715;  -13.931; 4718.887
875.998; 1998.139;   -9.561; 4660.005
876.560; 2022.257;  -11.321; 4462.964
877.122; 1967.144;  -12.221; 4145.042
877.683; 1891.273;  -12.191; 4056.481
878.245; 1826.255;  -12.101; 3950.740
878.807; 1872.621;   -8.971; 4058.958
879.369; 1900.558;  -12.071; 3954.677
879.930; 1796.272;  -14.621; 3941.495
880.492; 1728.265;  -10.311; 4067.014
881.053; 1684.070;  -10.901; 3859.633
881.615; 1583.142;  -14.411; 3776.071
882.176; 1542.230;  -13.761; 3734.750
882.738; 1583.272;   -9.181; 3678.489
883.299; 1618.694;  -11.791; 3405.407
883.860; 1592.206;  -13.121; 3351.106
884.422; 1409.394;  -11.211; 3394.044
884.983; 1076.644;  -10.091; 3166.443
885.544;  786.376;   -8.461; 3189.802
886.105;  657.308;  -12.361; 3160.360
886.666;  645.147;  -14.141; 3093.059
887.227;  661.497;  -11.361; 2941.957
887.788;  668.864;  -11.401; 2974.836
888.349;  668.013;  -13.791; 2721.214
888.910;  702.966;  -13.191; 2696.493
889.471;  736.687;   -9.881; 2560.172
890.032;  739.492;   -9.881; 2558.190
890.593;  733.638;  -10.371; 2567.669
891.153;  721.538;  -13.301; 2460.307
891.714;  684.940;  -11.431; 2372.046
892.275;  654.661;  -11.291; 2309.505
892.835;  620.425;  -11.471; 2382.543
893.396;  573.559;  -11.541; 2295.502
893.956;  525.517;  -11.181; 2162.420
894.517;  494.711;  -11.741; 2125.439
895.077;  494.134;  -11.671; 2086.978
895.638;  495.705;  -11.311; 2126.316
896.198;  470.056;   -9.831; 1838.275
896.758;  430.738;   -8.421; 1892.813
897.319;  403.662;  -12.351; 1792.232
897.879;  387.405;  -13.511; 1762.751
898.439;  363.965;  -12.001; 1661.149
898.999;  341.775;  -10.180; 1781.468
899.559;  334.464;  -12.030; 1703.347
900.119;  329.345;  -15.710; 1537.525
900.679;  326.091;   -8.900; 1638.384
901.239;  312.219;   -8.340; 1527.902
901.799;  303.445;  -13.910; 1456.441
902.359;  298.244;  -13.460; 1357.140
902.919;  292.270;  -11.490; 1331.118
903.479;  279.847;  -12.110; 1317.257
904.038;  259.926;  -11.720; 1262.595
904.598;  244.850;  -13.610; 1152.034
905.158;  242.274;  -11.040; 1240.893
905.717;  234.795;  -10.900; 1233.691
906.277;  224.473;  -15.080; 1217.330
906.836;  214.865;  -13.380; 1222.408
907.396;  206.266;  -10.780; 1193.047
907.955;  198.248;   -8.500; 1182.526
908.515;  190.923;  -12.760; 1099.364
909.074;  182.071;  -11.900; 1092.863
909.633;  175.357;   -8.950; 1069.121
910.192;  171.965;   -8.770; 1196.460
910.752;  167.305;  -12.390; 1029.960
911.311;  164.558;  -13.680; 1009.780
911.870;  163.012;  -12.370;  971.460
912.429;  164.525;  -10.900; 1094.080
912.988;  164.138;  -11.690; 1081.060
913.547;  159.933;  -13.240;  940.380
914.106;  155.124;  -11.990;  999.420
914.665;  151.994;   -9.990;  984.020
915.224;  150.790;  -12.880; 1035.760
915.782;  152.157;  -12.350;  922.560
916.341;  151.848;   -9.110; 1049.840
916.900;  147.778;   -9.270;  925.260
917.458;  145.663;  -13.240;  884.220
918.017;  145.480;  -13.550;  942.600
918.576;  144.952;  -12.320;  904.440
919.134;  143.938;  -11.490;  837.980
919.693;  141.063;  -13.670;  893.060
920.251;  139.441;  -15.470;  876.500
920.809;  138.238;  -11.290;  839.580
921.368;  138.356;  -10.210;  885.360
921.926;  136.588;  -12.140;  842.940
922.484;  136.361;  -13.080;  903.360
923.042;  136.004;  -11.720;  880.340
923.601;  138.853;   -7.480;  998.680
924.159;  137.293;  -11.570;  935.560
924.717;  133.740;  -13.840;  841.080
925.275;  134.134;  -10.640;  903.240
925.833;  133.755;  -11.540;  779.320
926.391;  134.083;  -12.960;  938.380
926.949;  132.764;  -14.130;  857.680
927.506;  133.221;  -11.750;  903.500
928.064;  133.391;  -10.250;  877.580
928.622;  131.970;  -13.030;  880.100
929.180;  131.262;  -13.400;  814.180
929.737;  133.392;  -10.700;  808.540
930.295;  136.772;  -10.070;  928.480
930.853;  137.984;  -11.960;  849.100
931.410;  138.877;  -13.120;  821.120
931.968;  138.769;  -10.770;  940.660
932.525;  138.601;  -10.680;  909.380
933.082;  137.958;  -13.130;  811.440
933.640;  139.149;  -13.210;  925.900
934.197;  137.311;  -11.060;  886.360
934.754;  138.159;   -9.580;  897.780
935.312;  141.910;  -14.000;  863.340
935.869;  145.263;  -10.710; 1012.980
936.426;  145.830;   -9.860;  872.800
936.983;  146.912;   -9.710;  889.020
937.540;  145.645;  -13.990;  838.280
938.097;  144.602;  -14.040;  940.120
938.654;  145.161;  -10.310;  898.860
939.211;  147.346;  -10.560;  952.480
939.768;  150.984;  -13.900;  915.420
940.324;  154.332;  -14.760;  904.200
940.881;  155.368;  -10.370;  878.500
941.438;  155.937;   -8.260; 1021.200
941.995;  151.087;  -12.540;  992.560
942.551;  149.502;  -14.670;  875.620
943.108;  149.994;  -10.450;  937.920
943.664;  152.807;  -10.750;  869.340
944.221;  155.699;  -11.550; 1088.140
944.777;  153.595;  -14.770;  869.680
945.334;  154.833;  -12.820;  884.840
945.890;  156.386;  -10.130;  946.480
946.446;  155.370;  -13.470;  947.020
947.003;  157.689;  -12.120;  964.940
947.559;  160.803;   -9.980; 1063.040
948.115;  159.882;   -9.080; 1026.540
948.671;  157.855;  -10.830;  967.300
949.227;  155.114;  -12.440;  859.560
949.783;  152.968;  -12.910;  858.900
950.339;  153.902;  -10.270;  991.000
950.895;  153.809;  -13.630; 1023.840
951.451;  154.581;  -15.100;  925.280
952.007;  154.620;  -11.330;  998.540
952.563;  154.285;  -10.580;  937.780
953.118;  153.112;  -13.440;  904.940
953.674;  154.105;  -12.710;  935.780
954.230;  152.711;  -10.350;  949.640
954.785;  150.762;   -9.190;  936.640
955.341;  147.847;  -11.200;  998.160
955.897;  145.402;  -16.560;  834.660
956.452;  147.793;  -12.570;  953.840
957.008;  146.585;   -7.970; 1083.640
957.563;  143.994;  -11.940; 1009.540
958.118;  139.987;  -13.450;  877.700
958.674;  139.995;  -12.030;  946.780
959.229;  141.918;   -9.410; 1013.980
959.784;  139.297;  -12.000;  832.400
960.339;  138.088;  -14.780; 1001.280
960.894;  134.892;   -9.860;  963.760
961.449;  130.723;   -9.970;  859.960
962.004;  131.180;  -10.900; 1212.840
962.559;  125.895;  -13.150;  860.140
963.114;  123.053;  -13.740;  742.480
963.669;  123.609;   -9.820;  915.500
964.224;  121.982;  -13.890;  874.340
964.779;  119.996;  -12.600;  828.420
965.334;  121.093;  -10.950; 1017.860
965.888;  120.941;  -11.170;  875.360
966.443;  123.094;  -12.540;  972.380
966.998;  121.942;  -15.780;  819.460
967.552;  122.344;   -9.760;  908.380
968.107;  117.621;   -9.060;  868.300
968.661;  119.263;  -11.950;  922.440
969.216;  119.476;  -12.800;  856.280
969.770;  119.918;  -11.210;  917.200
970.324;  119.860;  -11.610;  923.140
970.879;  115.584;  -11.370;  947.180
971.433;  112.658;  -12.540;  952.720
971.987;  107.204;  -11.320;  895.340
972.541;  104.417;  -10.720;  917.100
973.095;  104.006;   -9.680; 1009.460
973.649;  102.836;  -11.440;  809.480
974.203;  101.732;  -11.210;  829.040
974.757;  101.211;  -10.240;  855.220
975.311;  101.640;  -13.720;  872.600
975.865;  100.405;  -13.770;  881.820
976.419;   98.929;  -11.690;  857.400
976.973;   98.261;   -9.510;  849.620
977.526;  100.186;  -12.620;  949.920
978.080;   99.923;  -12.010;  796.780
978.634;  101.212;  -10.170;  921.320
979.187;   98.353;   -9.020;  905.400
979.741;   96.141;   -9.820; 1018.380
980.294;   90.719;  -14.870;  789.160
980.848;   88.449;  -12.380;  717.220
981.401;   91.644;  -10.350;  816.540
981.955;   93.143;  -13.720;  844.300
982.508;   92.165;  -11.490;  746.340
983.061;   92.850;  -10.000;  915.260
983.615;   89.188;  -11.480;  798.800
984.168;   85.068;  -13.220;  770.080
984.721;   84.701;  -13.960;  880.760
985.274;   84.632;  -10.870;  867.500
985.827;   83.368;   -9.790;  834.220
986.380;   80.877;  -13.120;  721.340
986.933;   79.563;  -12.450;  864.800
987.486;   77.832;  -10.210;  861.920
988.039;   78.173;   -8.430;  863.100
988.591;   74.912;  -10.520;  893.260
989.144;   72.397;  -14.860;  737.260
989.697;   71.987;  -13.080;  758.740
990.250;   73.442;  -10.150;  858.100
990.802;   71.613;  -13.430;  755.860
991.355;   72.769;  -12.750;  974.880
991.907;   70.627;  -12.040;  864.320
992.460;   68.485;  -11.330;  753.760
993.012;   67.200;  -13.610;  749.540
993.565;   65.939;  -13.460;  711.360
994.117;   68.252;   -9.360;  950.780
994.669;   64.030;  -11.300;  701.320
995.221;   61.602;  -13.540;  791.920
995.774;   60.301;  -13.430;  787.580
996.326;   59.307;  -12.520;  740.220
996.878;   59.241;  -10.950;  838.420
997.430;   56.620;  -14.300;  699.860
997.982;   56.034;  -13.760;  750.140
998.534;   54.880;  -11.530;  739.060
999.086;   54.379;  -10.310;  738.220
999.638;   52.120;  -12.530;  661.380
1000.190;   51.822;  -11.840;  699.320
1000.741;   51.637;  -10.260;  742.700
1001.293;   51.517;   -8.860;  686.020
1001.845;   50.000;  -13.700;  676.640
1002.396;   50.030;  -12.100;  743.400
1002.948;   49.460;  -12.760;  737.400
1003.500;   48.462;  -10.380;  723.780
1004.051;   48.932;  -11.900;  907.580
1004.603;   47.130;  -12.250;  791.820
1005.154;   43.299;  -13.210;  608.980
1005.705;   42.707;  -10.950;  723.960
1006.257;   41.517;  -13.880;  707.220
1006.808;   41.050;  -12.840;  685.460
1007.359;   40.997;  -10.570;  763.240
1007.910;   40.647;   -9.620;  646.640
1008.461;   39.771;  -13.630;  732.940
1009.013;   39.101;  -17.200;  588.340
1009.564;   40.149;  -10.200;  793.520
1010.115;   37.503;  -12.570;  597.040
1010.665;   37.145;  -15.150;  602.160
1011.216;   37.237;  -14.480;  667.920
1011.767;   37.124;  -11.340;  697.920
1012.318;   36.858;   -9.780;  736.980
1012.869;   36.046;  -12.380;  679.000
1013.419;   34.873;  -15.560;  603.120
1013.970;   35.352;  -11.010;  666.640
1014.521;   35.061;  -11.610;  620.620
1015.071;   35.219;  -13.450;  670.380
1015.622;   34.232;  -13.870;  635.460
1016.172;   34.738;  -11.610;  596.820
1016.723;   33.622;  -12.120;  614.380
1017.273;   33.643;  -13.620;  604.160
1017.823;   34.069;  -14.140;  650.340
1018.374;   32.821;  -12.800;  611.760
1018.924;   33.293;  -12.340;  716.880
1019.474;   33.314;  -11.410;  718.880
1020.024;   32.268;  -14.770;  657.580
1020.574;   33.349;   -9.780;  726.160
1021.124;   32.804;   -8.560;  673.580
1021.674;   31.026;  -15.190;  559.120
1022.224;   32.526;  -13.530;  708.940
1022.774;   32.220;  -13.280;  668.820
1023.324;   32.332;  -10.690;  753.520
1023.874;   33.193;  -10.240;  875.760
1024.423;   30.789;  -12.540;  613.700
1024.973;   30.719;  -10.010;  610.760
1025.523;   30.069;  -10.550;  620.960
1026.072;   29.824;  -13.560;  606.420
1026.622;   29.539;  -15.120;  675.740
1027.172;   30.760;  -11.260;  715.660
1027.721;   29.202;  -11.410;  601.220
1028.270;   29.641;  -13.530;  663.400
1028.820;   29.525;  -13.680;  638.080
1029.369;   29.233;  -13.520;  612.700
1029.918;   29.291;  -10.980;  649.840
1030.468;   28.291;  -13.530;  564.780
1031.017;   28.858;  -13.170;  634.800
1031.566;   27.649;  -12.200;  608.900
1032.115;   28.663;   -9.960;  694.500
1032.664;   27.456;  -13.210;  596.480
1033.213;   27.994;  -12.500;  735.420
1033.762;   27.344;  -11.910;  635.620
1034.311;   27.481;   -9.640;  677.220
1034.860;   27.448;  -13.310;  691.000
1035.408;   27.876;  -11.830;  722.720
1035.957;   28.085;  -12.000;  719.540
1036.506;   26.029;  -11.690;  530.800
1037.055;   27.691;  -10.990;  844.320
1037.603;   26.588;  -15.120;  664.000
1038.152;   25.451;  -12.450;  534.760
1038.700;   26.144;  -10.560;  585.740
1039.249;   25.119;  -11.080;  681.220
1039.797;   25.406;  -12.540;  633.360
1040.345;   25.686;  -11.920;  705.420
1040.894;   25.659;  -11.410;  625.300
1041.442;   24.869;  -14.320;  632.200
1041.990;   24.110;  -16.240;  559.160
1042.538;   23.756;  -11.680;  536.180
1043.087;   23.381;  -10.760;  570.860
1043.635;   24.548;  -11.850;  670.500
1044.183;   23.716;  -15.480;  586.400
1044.731;   23.886;  -11.770;  576.000
1045.279;   23.443;  -13.090;  674.920
1045.827;   25.177;  -12.440;  892.400
1046.374;   22.345;  -13.840;  515.420
1046.922;   22.198;  -13.220;  590.580
1047.470;   23.628;  -10.230;  691.300
1048.018;   23.344;  -14.590;  647.960
1048.565;   24.653;  -12.050;  708.600
1049.113;   21.945;  -11.650;  557.000
1049.660;   22.475;  -10.510;  629.660
1050.208;   22.388;  -13.310;  675.640
1050.755;   22.143;  -15.900;  606.580
1051.303;   21.871;  -11.430;  686.820
1051.850;   21.453;   -8.480;  635.120
1052.397;   19.982;  -15.010;  473.960
1052.945;   20.344;  -13.960;  617.760
1053.492;   22.109;  -13.150;  741.840
1054.039;   22.312;   -9.630;  720.180
1054.586;   20.505;  -13.680;  557.240
1055.133;   21.504;  -14.570;  693.140
1055.680;   21.522;  -13.820;  646.620
1056.227;   20.710;  -11.730;  542.780
1056.774;   21.717;  -12.480;  794.980
1057.321;   19.847;  -13.930;  523.260
1057.868;   19.861;  -11.690;  651.320
1058.415;   19.483;   -9.520;  651.980
1058.961;   20.241;  -13.160;  678.940
1059.508;   19.765;  -12.920;  643.820
1060.055;   20.123;  -11.920;  581.780
1060.601;   19.811;  -11.500;  624.300
1061.148;   19.507;  -14.330;  616.820
1061.694;   18.597;  -16.870;  592.580
1062.241;   19.023;  -10.330;  596.320
1062.787;   19.214;  -10.620;  663.140
1063.334;   19.754;  -10.110;  808.560
1063.880;   18.993;  -13.400;  668.360
1064.426;   19.179;  -10.680;  706.820
1064.972;   17.889;   -9.920;  601.340
1065.518;   16.976;  -10.980;  566.640
1066.065;   18.760;  -14.890;  624.460
1066.611;   17.521;  -12.870;  598.800
1067.157;   18.643;  -12.950;  641.860
1067.703;   17.624;  -13.540;  668.480
1068.249;   17.653;  -13.540;  605.220
1068.794;   17.975;  -12.600;  626.880
1069.340;   16.019;  -10.620;  578.960
1069.886;   16.635;  -12.830;  590.700
1070.432;   15.884;  -14.870;  541.720
1070.977;   16.352;  -11.980;  601.080
1071.523;   17.032;   -8.200;  573.060
1072.068;   16.140;  -12.330;  582.000
1072.614;   16.032;  -16.370;  527.760
1073.160;   16.694;  -11.100;  687.040
1073.705;   16.080;  -10.480;  572.520
1074.250;   15.768;  -14.520;  559.900
1074.796;   16.445;  -11.460;  655.160
1075.341;   16.223;  -11.950;  664.100
1075.886;   15.550;  -11.460;  594.240
1076.431;   15.405;  -13.770;  649.880
1076.976;   15.527;  -12.680;  639.220
1077.521;   14.441;  -13.170;  583.080
1078.067;   14.373;  -10.860;  579.400
1078.612;   16.022;  -13.920;  661.620
1079.156;   14.793;  -13.880;  601.540
1079.701;   15.424;  -13.120;  693.260
1080.246;   15.990;   -9.940;  696.300
1080.791;   14.878;  -14.740;  625.020
1081.336;   14.155;  -13.750;  659.320
1081.880;   14.620;  -13.400;  649.680
1082.425;   13.739;  -12.220;  573.480
1082.970;   15.417;  -11.610;  717.040
1083.514;   13.481;  -13.580;  597.000
1084.059;   12.956;  -12.810;  586.720
1084.603;   13.170;  -12.320;  565.840
1085.147;   13.310;  -13.190;  645.220
1085.692;   14.266;  -12.480;  716.800
1086.236;   12.994;  -13.020;  503.140
1086.780;   14.775;   -9.190;  751.440
1087.325;   13.719;  -12.480;  654.620
1087.869;   13.516;  -12.450;  610.700
1088.413;   13.892;  -12.240;  705.040
1088.957;   11.338;   -9.020;  543.400
1089.501;   13.511;  -10.320;  766.640
1090.045;   13.392;  -12.720;  726.480
1090.589;   11.259;  -13.690;  569.920
1091.133;   12.428;  -10.020;  673.340
1091.676;   12.479;  -12.330;  591.940
1092.220;   11.842;  -14.970;  600.920
1092.764;   13.063;  -12.430;  706.960
1093.307;   12.885;   -9.800;  673.780
1093.851;   10.654;  -14.970;  556.540
1094.395;   12.593;  -15.310;  683.140
1094.938;   11.112;  -10.370;  632.520
1095.482;   11.375;  -11.050;  559.800
1096.025;   11.935;  -11.840;  710.880
1096.568;   12.393;  -12.840;  779.280
1097.112;    9.433;  -14.700;  508.180
1097.655;   11.244;   -8.720;  603.000
1098.198;    9.826;  -13.610;  600.180
1098.741;    9.625;  -13.350;  612.860
1099.285;   11.207;  -11.230;  657.300
1099.828;    9.162;  -11.840;  439.400
1100.371;   10.361;  -10.840;  608.160
1100.914;   10.397;  -14.190;  682.660
1101.457;   10.347;  -11.240;  679.900
1101.999;    9.606;  -11.270;  584.680
1102.542;    9.859;  -11.480;  641.440
1103.085;    9.419;  -11.750;  658.500
1103.628;   10.785;  -11.400;  762.060
1104.170;   10.137;  -10.490;  588.280
1104.713;    9.593;  -10.600;  646.700
1105.256;    9.254;  -14.360;  557.440
1105.798;    8.262;  -13.210;  499.980
1106.341;   10.460;  -10.270;  728.900
1106.883;    8.643;  -12.200;  521.340
1107.425;    9.581;  -13.110;  668.180
1107.968;    9.406;  -12.840;  612.380
1108.510;    8.953;   -6.480;  684.960
1109.052;    7.562;  -13.940;  612.620
1109.594;    7.869;  -13.690;  554.440
1110.136;    9.015;  -11.880;  643.220
1110.679;    7.640;   -9.500;  633.080
1111.221;    8.669;  -14.160;  604.460
1111.763;    7.146;  -13.980;  559.220
1112.304;    7.484;  -13.880;  547.140
1112.846;    8.746;  -12.210;  666.240
1113.388;   10.279;  -11.390;  942.180
1113.930;    7.717;  -14.540;  694.200
1114.472;    6.932;  -12.640;  606.540
1115.013;    6.250;  -11.620;  551.280
1115.555;    6.503;  -13.640;  587.100
1116.097;    6.152;  -15.380;  579.480
1116.638;    7.904;  -12.640;  684.600
1117.180;    8.057;   -9.850;  667.740
1117.721;    6.715;  -13.690;  568.580
1118.262;    7.663;  -12.680;  677.960
1118.804;    7.993;  -12.530;  637.340
1119.345;    6.939;  -11.690;  578.400
1119.886;    7.712;  -13.380;  704.040
1120.427;    5.936;  -14.070;  589.020
1120.969;    5.561;  -13.500;  597.920
1121.510;    5.713;  -11.480;  563.060
1122.051;    6.172;  -12.830;  723.580
1122.592;    6.366;  -14.290;  655.420
1123.133;    4.780;  -12.400;  547.940
1123.673;    6.863;  -10.130;  706.480
1124.214;    5.580;  -12.930;  612.460
1124.755;    5.983;  -14.380;  639.460
1125.296;    5.853;  -14.000;  627.320
1125.836;    6.297;  -10.070;  691.500
1126.377;    5.216;  -12.640;  599.660
1126.918;    5.739;  -12.960;  614.980
1127.458;    5.010;  -13.350;  622.220
1127.999;    5.632;  -10.750;  656.980
1128.539;    5.504;  -12.350;  694.240
1129.079;    4.134;  -14.860;  632.720
1129.620;    4.415;  -13.840;  558.100
1130.160;    4.267;  -12.330;  539.480
1130.700;    4.902;  -14.530;  640.840
1131.240;    5.116;  -12.530;  643.700
1131.781;    4.545;  -14.450;  619.680
1132.321;    4.503;   -9.790;  599.120
1132.861;    3.304;  -14.860;  564.200
1133.401;    3.115;  -14.290;  593.940
1133.941;    4.034;  -11.750;  626.280
1134.481;    3.895;   -9.920;  597.580
1135.020;    3.589;  -12.290;  609.160
1135.560;    4.353;  -11.650;  674.940
1136.100;    3.566;  -16.270;  501.160
1136.640;    2.999;  -10.890;  510.480
1137.179;    3.012;  -14.180;  537.960
1137.719;    3.161;  -16.250;  605.400
1138.258;    2.433;  -14.230;  587.360
1138.798;    4.176;   -9.090;  663.780
1139.337;    2.245;  -15.130;  482.840
1139.877;    3.338;  -13.680;  642.360
1140.416;    5.411;  -11.320;  878.060
1140.955;    3.120;  -10.860;  535.380
1141.494;    3.107;  -12.920;  669.280
1142.034;    2.651;  -13.930;  583.520
1142.573;    3.098;  -11.440;  646.280
1143.112;    1.761;  -12.000;  553.480
1143.651;    2.376;  -13.670;  536.480
1144.190;    3.003;  -12.730;  691.640
1144.729;    2.414;  -14.560;  607.420
1145.267;    3.058;  -11.830;  584.900
1145.806;    2.263;  -12.230;  637.040
1146.345;    1.821;  -14.130;  635.020
1146.884;    2.070;  -11.590;  622.500
1147.422;    0.857;  -12.550;  533.060
1147.961;    2.625;  -11.180;  708.460
1148.500;    2.820;  -11.510;  669.720
1149.038;    2.789;  -11.640;  632.500
1149.577;    2.455;  -10.130;  698.640
1150.115;    0.272;  -13.970;  452.280
1150.653;    2.188;  -14.520;  607.340
1151.192;    1.784;  -12.810;  552.920
1151.730;    1.873;   -9.100;  652.560
1152.268;    0.783;  -12.220;  589.520
1152.806;    1.081;  -14.140;  571.180
1153.344;   -0.061;  -12.350;  577.640
1153.882;    1.570;   -8.980;  600.060
1154.421;   -0.018;  -15.190;  470.620
1154.958;    0.022;  -15.210;  595.240
1155.496;    2.021;  -12.850;  645.280
1156.034;    1.073;   -9.940;  721.880
1156.572;    1.861;  -13.570;  667.060
1157.110;    0.110;  -14.590;  473.940
1157.647;    1.208;  -13.030;  676.960
1158.185;    0.299;  -12.140;  564.320
1158.723;   -1.214;  -14.390;  509.200
1159.260;    1.010;  -14.090;  701.700
1159.798;    0.850;  -11.920;  658.160
1160.335;    0.570;  -11.110;  631.820

