
Integration time [ms]:   3.276
Averaging Nr. [scans]: 1000
Smoothing Nr. [pixels]: 0
Data measured with spectrometer [name]: 7414430SP
Wave   ;Sample   ;Dark     ;Reference
[nm]   ;[counts] ;[counts] ;[counts] 

288.544;  149.246;    7.793;  793.890
289.143;  153.920;    7.462;  681.602
289.742;  154.529;    8.602;  828.814
290.341;  139.913;    1.321;  789.841
290.940;  127.971;   -0.709;  730.702
291.538;  129.115;    0.881;  881.108
292.137;  130.596;    0.122;  792.581
292.736;  133.638;   -1.929;  975.101
293.335;  130.029;   -8.229;  735.086
293.934;  130.550;   -5.279;  781.677
294.532;  129.853;   -1.369; 1031.958
295.131;  114.712;   -7.641;  834.394
295.730;  114.830;   -8.420;  809.588
296.328;  114.367;   -5.611;  783.442
296.927;  115.227;   -5.781;  779.652
297.525;  116.541;   -6.361;  781.236
298.124;  106.187;  -11.382;  654.009
298.722;  110.931;   -7.641;  761.933
299.321;  108.238;   -6.811;  708.597
299.919;  106.264;   -6.991;  751.918
300.518;  102.740;  -10.362;  689.338
301.116;  104.693;   -9.581;  691.381
301.715;  105.234;   -4.891;  730.222
302.313;  103.294;   -8.801;  704.943
302.911;   98.047;   -8.522;  733.830
303.509;  104.497;   -6.171;  925.627
304.108;  101.896;   -7.311;  760.383
304.706;  101.378;   -8.321;  801.664
305.304;   95.206;  -10.222;  796.707
305.902;  100.893;   -6.021;  784.484
306.500;   97.500;   -4.971;  728.200
307.098;   94.859;   -7.061;  746.560
307.696;   93.109;   -8.801;  780.432
308.294;   94.336;   -6.411;  731.359
308.892;   97.031;   -2.901;  759.769
309.490;   92.121;   -5.041;  712.161
310.088;   89.615;   -5.002;  788.444
310.686;   94.353;   -2.041;  821.749
311.284;   90.235;   -2.351;  766.040
311.882;   87.805;   -4.422;  731.225
312.480;   85.011;   -4.192;  697.167
313.078;   85.788;   -1.172;  808.331
313.675;   87.441;   -2.601;  691.600
314.273;   82.005;   -1.312;  797.837
314.871;   81.862;   -3.942;  589.829
315.468;   80.333;   -2.802;  652.090
316.066;   82.805;   -0.701;  694.427
316.664;   74.842;   -4.362;  656.351
317.261;   78.678;   -2.872;  910.128
317.859;   75.725;   -2.022;  768.735
318.456;   76.077;   -0.531;  830.096
319.054;   71.506;   -3.912;  787.828
319.651;   70.118;   -4.752;  759.928
320.249;   68.917;   -2.602;  810.188
320.846;   67.579;   -0.821;  714.286
321.443;   64.192;   -4.642;  832.135
322.041;   61.282;   -5.002;  812.315
322.638;   59.404;   -3.982;  701.456
323.235;   60.832;   -3.411;  665.683
323.833;   57.551;   -7.361;  740.354
324.430;   52.875;   -8.611;  615.900
325.027;   53.326;   -4.061;  876.855
325.624;   53.802;   -4.031;  644.532
326.221;   50.768;   -7.481;  689.717
326.818;   49.885;   -5.281;  818.332
327.415;   53.555;   -7.460;  748.828
328.012;   52.848;   -5.510;  690.585
328.609;   51.479;   -7.880;  731.389
329.206;   48.480;   -8.331;  778.621
329.803;   50.044;   -5.121;  737.841
330.400;   52.609;   -4.510;  704.260
330.997;   53.595;   -6.441;  817.147
331.594;   52.318;   -8.831;  788.185
332.191;   57.709;   -7.621;  728.722
332.787;   60.969;   -4.591;  844.463
333.384;   59.317;   -7.412;  763.093
333.981;   57.633;   -8.293;  815.687
334.578;   60.779;   -7.052;  708.378
335.174;   63.811;   -3.102;  731.469
335.771;   63.221;   -5.943;  836.456
336.367;   60.095;   -7.393;  710.631
336.964;   64.039;   -4.063;  793.266
337.561;   61.811;   -3.813;  731.112
338.157;   56.614;   -4.654;  911.916
338.754;   54.710;   -7.934;  796.589
339.350;   53.126;   -4.414;  722.493
339.946;   55.269;   -4.664;  773.135
340.543;   47.024;   -6.375;  846.136
341.139;   41.612;   -9.815;  720.836
341.735;   38.785;   -4.526;  772.593
342.332;   38.595;   -4.895;  691.472
342.928;   38.486;   -4.295;  795.394
343.524;   32.565;   -5.476;  761.684
344.120;   29.006;   -5.856;  738.562
344.716;   32.925;   -2.155;  723.717
345.313;   29.979;   -6.275;  795.342
345.909;   23.756;   -8.815;  627.336
346.505;   26.855;   -5.305;  740.247
347.101;   26.881;   -2.674;  827.864
347.697;   27.042;   -4.344;  785.398
348.293;   21.821;   -9.975;  627.244
348.889;   22.199;   -5.774;  745.914
349.485;   21.857;   -5.004;  688.205
350.081;   23.005;   -4.704;  772.592
350.676;   17.879;   -6.635;  691.606
351.272;   22.606;   -4.504;  809.530
351.868;   22.556;   -3.914;  780.497
352.464;   19.612;   -9.044;  723.932
353.059;   14.623;   -8.314;  646.017
353.655;   19.142;   -7.024;  777.063
354.251;   19.698;   -5.343;  759.845
354.846;   14.387;   -8.604;  740.646
355.442;   11.904;   -6.945;  753.071
356.038;   13.612;   -7.564;  751.708
356.633;   14.719;   -5.814;  728.594
357.229;   11.813;   -7.364;  724.757
357.824;   10.187;   -8.024;  703.600
358.420;    9.559;   -9.384;  679.726
359.015;    9.615;   -5.104;  695.357
359.610;   11.343;   -6.854;  763.920
360.206;    4.688;  -10.185;  603.240
360.801;    8.078;   -7.054;  646.503
361.396;   10.457;   -5.034;  725.975
361.992;    5.333;   -8.284;  668.220
362.587;    2.082;   -8.625;  670.160
363.182;    4.535;   -7.674;  689.631
363.777;    5.877;   -5.164;  738.242
364.372;    5.262;   -8.604;  737.314
364.967;    0.868;   -9.055;  680.744
365.563;    5.890;   -6.114;  815.567
366.158;    3.291;   -5.814;  685.161
366.753;    3.472;   -7.854;  649.263
367.348;    1.032;   -7.804;  746.056
367.942;    1.040;   -7.954;  697.298
368.537;    0.828;   -4.984;  754.245
369.132;    0.967;   -8.564;  703.428
369.727;   -3.406;   -8.855;  638.079
370.322;   -1.475;   -6.245;  580.186
370.917;   -2.126;   -6.425;  710.646
371.511;    0.662;   -6.294;  861.834
372.106;   -2.677;   -7.685;  776.964
372.701;   -6.256;   -7.335;  585.988
373.296;   -0.549;   -4.564;  863.135
373.890;   -5.443;  -10.235;  647.840
374.485;   -7.752;   -7.885;  691.199
375.079;   -3.502;   -7.324;  738.685
375.674;   -2.211;   -3.494;  812.970
376.268;   -6.536;   -8.525;  691.759
376.863;  -11.722;  -10.086;  580.327
377.457;   -6.117;   -7.025;  662.490
378.052;   -7.964;   -3.585;  764.884
378.646;   -9.329;   -7.595;  741.167
379.240;   -9.711;   -8.335;  721.176
379.835;   -8.448;   -5.785;  636.978
380.429;  -10.006;   -4.335;  562.557
381.023;  -10.360;   -6.805;  779.205
381.617;  -13.059;   -9.195;  680.106
382.212;   -9.082;   -6.905;  685.303
382.806;   -8.148;   -3.745;  760.690
383.400;  -12.936;   -7.745;  672.281
383.994;  -13.470;   -9.765;  664.870
384.588;   -9.393;   -6.564;  697.701
385.182;   -7.664;   -5.344;  726.624
385.776;   -9.523;   -8.514;  706.875
386.370;  -14.169;   -9.555;  681.968
386.964;  -11.518;   -8.715;  684.155
387.558;  -10.491;   -6.174;  598.360
388.152;  -13.800;   -8.725;  681.959
388.745;  -11.877;   -7.965;  814.707
389.339;  -10.374;   -5.924;  747.642
389.933;   -9.410;   -5.524;  695.370
390.527;  -10.465;   -7.114;  859.029
391.120;  -16.569;  -10.725;  595.318
391.714;  -13.671;   -8.035;  711.633
392.308;  -10.533;   -3.574;  780.253
392.901;  -14.195;   -7.245;  642.460
393.495;  -15.749;   -9.285;  595.414
394.089;  -14.011;   -5.895;  760.452
394.682;  -13.839;   -4.295;  697.188
395.275;  -15.284;   -9.875;  719.927
395.869;  -16.689;   -8.485;  667.314
396.462;  -15.287;   -7.455;  616.609
397.056;  -10.869;   -5.424;  776.621
397.649;  -16.452;   -6.605;  731.575
398.242;  -13.562;   -8.224;  712.645
398.836;  -12.323;   -7.474;  766.408
399.429;  -13.217;   -7.094;  631.041
400.022;  -16.798;   -9.475;  665.902
400.615;  -14.474;   -7.145;  805.609
401.208;  -12.403;   -7.174;  691.451
401.802;  -14.801;   -5.515;  699.329
402.395;  -15.681;   -9.875;  683.502
402.988;  -16.856;   -8.845;  696.627
403.581;  -14.489;   -8.874;  646.878
404.174;  -11.178;   -5.324;  686.568
404.767;  -15.302;   -9.575;  638.583
405.360;  -17.538;  -10.965;  621.445
405.953;  -11.371;   -8.764;  759.034
406.545;  -10.447;   -7.514;  725.342
407.138;  -14.614;  -10.025;  618.350
407.731;  -14.773;  -10.034;  613.303
408.324;  -10.217;   -9.374;  660.554
408.917;  -10.718;   -6.534;  681.864
409.509;  -12.803;   -8.004;  740.396
410.102;  -15.478;   -9.875;  643.948
410.695;   -8.690;   -8.604;  665.758
411.287;   -9.683;   -6.794;  599.821
411.880;  -10.728;   -9.334;  585.421
412.472;  -13.721;  -10.254;  613.092
413.065;  -11.078;   -6.714;  629.408
413.657;   -9.255;   -7.234;  576.678
414.250;   -8.541;  -10.544;  646.681
414.842;  -11.343;   -9.744;  676.353
415.434;   -7.830;   -6.994;  570.463
416.027;   -4.291;   -5.893;  652.196
416.619;   -6.542;   -7.264;  713.400
417.211;   -7.095;  -10.374;  599.352
417.804;   -3.673;   -7.993;  628.499
418.396;   -7.105;   -7.234;  607.643
418.988;   -5.457;   -9.443;  659.238
419.580;   -8.775;  -10.724;  568.276
420.172;   -5.703;  -10.323;  536.196
420.764;   -2.047;   -8.793;  672.482
421.356;   -2.993;  -11.143;  636.898
421.948;   -4.583;   -8.293;  677.661
422.540;    0.249;   -7.893;  680.027
423.132;    0.688;   -7.082;  600.641
423.724;   -3.201;   -8.653;  561.267
424.316;   -1.620;  -10.213;  621.345
424.908;    2.098;   -9.762;  591.517
425.500;    2.977;   -5.572;  647.978
426.092;    3.493;   -8.422;  648.268
426.683;    2.263;   -9.283;  684.836
427.275;    5.227;   -7.852;  641.471
427.867;    7.100;   -5.272;  668.948
428.458;    7.463;   -7.682;  732.344
429.050;    5.775;  -10.612;  680.749
429.642;    7.349;   -9.882;  743.124
430.233;    9.376;   -6.962;  569.356
430.825;    9.968;   -6.842;  724.809
431.416;    6.360;   -9.672;  698.241
432.008;   10.769;   -6.552;  651.723
432.599;   11.123;   -6.891;  656.073
433.190;    8.080;  -10.912;  637.670
433.782;    6.841;  -11.172;  590.395
434.373;   14.511;   -6.061;  884.765
434.964;   13.998;   -8.251;  602.920
435.556;   11.741;   -9.722;  634.537
436.147;   14.255;   -9.082;  758.490
436.738;   14.015;   -8.041;  701.099
437.329;   19.870;   -7.341;  721.723
437.920;   11.851;   -8.162;  666.688
438.511;   11.890;  -11.802;  564.526
439.103;   18.424;  -10.191;  623.998
439.694;   20.806;   -7.601;  681.583
440.285;   21.351;   -8.541;  764.432
440.876;   19.513;   -9.751;  845.738
441.466;   19.060;   -9.401;  575.162
442.057;   23.638;   -7.760;  665.814
442.648;   23.024;   -9.971;  746.255
443.239;   20.732;  -11.001;  620.477
443.830;   25.789;   -7.990;  704.958
444.421;   28.358;   -7.910;  655.474
445.011;   23.932;   -8.131;  693.619
445.602;   23.663;   -7.111;  743.126
446.193;   25.656;  -10.920;  488.117
446.783;   31.730;   -6.500;  640.397
447.374;   25.908;   -8.671;  692.759
447.964;   26.478;  -10.781;  713.770
448.555;   34.212;   -9.650;  822.742
449.145;   31.829;   -8.660;  662.853
449.736;   31.770;   -8.990;  803.179
450.326;   32.404;   -9.500;  713.626
450.917;   37.275;   -8.680;  675.324
451.507;   36.536;   -7.520;  600.661
452.097;   37.284;   -8.590;  746.267
452.688;   37.160;  -11.340;  742.160
453.278;   37.399;  -10.100;  566.840
453.868;   42.703;   -6.019;  793.550
454.458;   40.341;   -9.440;  651.141
455.048;   39.353;  -10.560;  711.783
455.639;   41.362;  -11.799;  567.096
456.229;   45.705;   -6.899;  710.694
456.819;   46.824;   -7.389;  751.158
457.409;   46.707;  -11.119;  773.993
457.999;   49.382;   -9.289;  737.505
458.589;   49.840;   -6.139;  686.606
459.179;   49.359;   -8.729;  717.658
459.769;   47.148;   -9.789;  627.099
460.358;   52.856;  -10.259;  797.262
460.948;   52.907;   -7.299;  689.503
461.538;   54.213;  -10.289;  660.677
462.128;   52.073;  -11.269;  664.934
462.717;   58.880;   -9.368;  710.326
463.307;   62.715;   -7.908;  705.846
463.897;   57.518;   -9.599;  656.942
464.486;   56.658;   -9.769;  837.128
465.076;   61.657;   -8.048;  733.776
465.666;   66.168;   -9.358;  652.900
466.255;   62.316;   -7.919;  785.651
466.845;   61.197;  -11.689;  666.749
467.434;   64.575;   -7.818;  725.873
468.023;   66.211;   -7.678;  658.357
468.613;   62.988;  -10.939;  713.946
469.202;   66.843;  -10.118;  646.507
469.791;   71.533;   -9.108;  737.811
470.381;   74.520;   -6.058;  742.813
470.970;   72.629;  -10.428;  711.099
471.559;   72.815;  -10.268;  733.291
472.148;   76.334;   -8.448;  675.737
472.738;   78.809;   -6.917;  765.466
473.327;   77.637;  -11.978;  637.529
473.916;   77.752;  -11.888;  737.446
474.505;   82.354;   -9.437;  751.703
475.094;   86.581;   -6.747;  806.570
475.683;   84.884;   -9.367;  797.699
476.272;   85.251;  -12.637;  730.632
476.861;   88.696;  -10.027;  706.754
477.449;   94.790;   -8.716;  728.487
478.038;   89.076;   -9.577;  692.513
478.627;   89.572;   -9.718;  714.852
479.216;   96.743;   -8.947;  769.441
479.805;   99.414;   -6.256;  783.375
480.393;   99.570;   -7.937; 1008.945
480.982;   98.237;   -7.717;  874.501
481.571;  104.794;   -9.266;  858.333
482.159;  104.765;   -7.636;  705.386
482.748;  104.984;   -9.667;  821.385
483.336;  108.962;  -10.376;  858.209
483.925;  109.894;   -7.147;  774.373
484.513;  116.426;   -7.996;  758.962
485.102;  113.724;  -10.027;  810.965
485.690;  122.030;  -10.446; 1011.050
486.278;  123.553;   -8.446;  979.329
486.867;  124.940;   -6.356;  809.662
487.455;  126.042;   -9.136;  898.229
488.043;  127.665;  -10.646;  748.361
488.631;  136.677;   -7.456; 1005.079
489.220;  140.133;   -6.636;  908.626
489.808;  139.427;  -11.036;  741.415
490.396;  147.051;  -10.246;  914.645
490.984;  153.654;   -8.556;  830.161
491.572;  163.910;   -5.886;  940.315
492.160;  169.362;   -9.486;  919.081
492.748;  179.682;  -10.976;  884.341
493.336;  201.913;   -8.776; 1019.693
493.924;  227.949;   -5.465;  958.077
494.512;  253.487;   -9.986; 1066.638
495.100;  289.341;  -10.636; 1103.280
495.687;  342.574;  -10.885; 1206.373
496.275;  404.624;   -8.126; 1150.796
496.863;  470.200;  -10.586; 1281.171
497.451;  569.910;  -11.926; 1386.805
498.038;  696.355;  -10.885; 1556.729
498.626;  796.996;   -6.315; 1741.407
499.214;  934.648;   -7.326; 2016.609
499.801; 1128.763;  -11.906; 2220.633
500.389; 1362.909;  -10.466; 2312.494
500.976; 1668.053;   -5.236; 2744.849
501.564; 2086.292;   -8.936; 3148.565
502.151; 2457.904;  -13.176; 3515.999
502.738; 2896.786;  -10.646; 3971.274
503.326; 3262.862;   -9.525; 4403.796
503.913; 3628.179;  -10.856; 5161.749
504.500; 3973.540;  -11.586; 5986.420
505.088; 4366.773;  -10.336; 6381.201
505.675; 4885.808;   -6.355; 6925.547
506.262; 5583.473;   -9.046; 7619.060
506.849; 6253.770;  -10.416; 8733.969
507.436; 6709.555;  -10.305; 9790.121
508.023; 7279.069;   -5.496; 9985.472
508.610; 7525.813;   -7.856;10434.618
509.197; 8153.600;  -10.097;11198.435
509.784; 9507.632;  -10.886;12391.194
510.371;10482.821;   -9.315;13603.713
510.958;11151.988;   -9.936;14426.586
511.545;11905.439;   -9.326;15243.775
512.132;12832.130;  -10.075;15945.876
512.719;13484.144;   -7.796;16340.369
513.305;14384.209;  -10.606;18011.766
513.892;15100.247;  -11.486;19754.971
514.479;16389.260;   -9.126;20967.805
515.066;17740.186;   -6.026;22299.793
515.652;18908.168;   -8.466;22908.660
516.239;20263.023;  -10.886;23798.875
516.825;21449.631;  -11.496;25567.275
517.412;22552.445;   -5.796;28154.959
517.998;23084.832;  -10.506;28344.111
518.585;23044.277;  -10.076;27134.219
519.171;23604.672;   -8.315;27268.576
519.758;25054.629;   -8.596;28964.129
520.344;26739.518;   -8.466;30664.494
520.930;26801.018;  -11.006;32550.605
521.516;28470.100;  -10.495;35422.895
522.103;30786.498;   -5.526;38280.004
522.689;31488.348;   -8.746;37835.117
523.275;30776.207;  -11.376;37288.613
523.861;31630.646;  -11.156;37281.395
524.447;32936.102;   -8.135;37846.949
525.033;32745.467;   -7.896;38321.949
525.619;32923.668;  -12.476;38579.285
526.205;34650.535;   -9.516;40622.875
526.791;36968.395;   -6.926;42258.836
527.377;37133.355;   -8.346;42966.902
527.963;38766.871;   -8.717;42018.949
528.549;37089.590;  -11.016;42476.828
529.135;35909.375;   -8.536;41854.852
529.721;35526.008;   -9.666;41237.711
530.306;34967.887;  -10.066;41259.445
530.892;34710.898;  -11.356;41506.047
531.478;36072.480;   -6.596;43559.613
532.063;38870.848;   -8.836;47695.563
532.649;39080.320;  -10.047;50808.324
533.235;40164.020;   -9.746;51787.500
533.820;41160.625;   -6.566;52145.035
534.406;42552.227;  -10.817;51133.488
534.991;42440.480;   -9.416;49996.805
535.576;41086.230;   -9.036;48882.852
536.162;41414.016;   -6.156;46942.285
536.747;42389.594;  -11.607;45711.746
537.333;46307.527;  -11.787;48510.180
537.918;48944.047;  -12.437;50439.891
538.503;47359.859;   -7.196;50863.711
539.088;44418.777;  -10.556;50906.922
539.673;44345.266;   -8.767;52621.965
540.259;44108.500;  -10.026;52368.094
540.844;41456.070;   -7.416;50879.109
541.429;42519.656;   -9.467;52077.777
542.014;45448.055;   -9.527;52716.695
542.599;44924.742;   -9.946;52363.281
543.184;42919.016;   -7.927;53187.137
543.769;44550.086;   -9.297;54697.605
544.354;43743.820;  -10.127;53913.914
544.938;42494.574;   -9.267;49680.164
545.523;44271.641;   -6.506;47386.277
546.108;46550.500;   -9.787;49151.949
546.693;48711.801;  -11.587;51384.637
547.278;48676.559;  -10.986;51853.254
547.862;45744.785;   -8.206;51173.750
548.447;41303.188;  -10.067;51691.395
549.031;40854.016;   -9.637;52456.703
549.616;45663.137;   -9.926;52714.516
550.201;44724.648;   -6.347;52414.598
550.785;45921.734;   -7.917;52355.059
551.370;45143.340;  -10.867;54589.453
551.954;45187.188;   -9.047;58267.348
552.538;45936.934;   -7.827;59062.176
553.123;44397.016;  -10.287;58115.285
553.707;42580.207;  -12.178;56556.285
554.291;43692.055;   -8.717;56201.668
554.876;45608.078;   -7.457;55335.762
555.460;46014.551;  -10.387;54155.703
556.044;47270.895;   -9.618;53721.484
556.628;45798.480;  -11.567;53731.016
557.212;44408.766;   -8.097;54312.531
557.796;43008.934;  -11.077;53797.773
558.380;42749.184;  -11.108;56145.984
558.964;43054.344;   -9.057;57277.930
559.548;44026.449;   -6.977;56459.641
560.132;42628.723;  -11.457;54434.543
560.716;41605.918;  -11.378;54800.617
561.300;42860.941;   -9.577;57606.945
561.884;43875.422;   -7.127;58972.445
562.467;42541.992;   -7.118;57327.570
563.051;41690.438;  -13.358;54962.434
563.635;42434.906;  -10.178;52594.473
564.219;42857.883;   -7.837;50610.410
564.802;43737.754;  -11.398;49551.180
565.386;43863.043;  -12.788;48370.953
565.969;43385.863;   -9.077;48178.871
566.553;42959.102;   -6.207;49957.305
567.136;43126.430;   -8.568;50369.594
567.720;39244.367;  -11.868;49492.004
568.303;37299.457;   -8.268;50616.352
568.887;37460.398;   -8.698;50727.148
569.470;37618.398;   -6.808;51698.379
570.053;36252.145;  -13.188;52122.078
570.637;34754.605;  -12.037;52536.438
571.220;34496.793;   -8.577;51186.098
571.803;34896.914;   -8.498;51032.762
572.386;37378.938;  -10.498;49609.887
572.969;39726.902;   -9.388;48285.926
573.552;37544.711;   -8.338;47624.285
574.135;36202.531;   -8.518;45498.641
574.718;33863.398;  -13.628;41970.434
575.301;32686.148;  -10.893;41447.137
575.884;31508.898;   -8.158;40923.836
576.467;32691.752;  -10.328;45267.723
577.050;34798.711;  -13.058;48175.543
577.633;35719.492;   -9.458;47729.328
578.216;33919.441;   -8.928;47579.793
578.799;32615.299;   -9.358;47820.996
579.381;31697.836;  -11.388;48115.551
579.964;31130.684;  -11.718;47333.766
580.547;33346.785;   -8.588;46668.969
581.129;34622.559;   -8.859;44466.141
581.712;35154.387;  -10.729;44164.922
582.294;35722.352;  -11.118;46477.855
582.877;35633.016;   -5.218;48244.254
583.459;33139.961;   -8.679;47437.895
584.042;31393.135;  -10.709;46943.219
584.624;32188.418;  -11.669;46792.227
585.206;31574.807;   -8.218;46557.250
585.789;31596.246;  -10.569;45793.773
586.371;33979.555;  -11.859;43836.391
586.953;33915.152;  -10.719;42972.492
587.536;34408.363;   -7.198;42487.211
588.118;32773.895;   -8.720;42086.414
588.700;27970.488;  -10.439;43389.930
589.282;26125.838;   -9.198;43646.039
589.864;28030.539;   -9.199;43438.109
590.446;31487.674;  -11.319;43151.926
591.028;33205.441;  -11.159;42781.867
591.610;33114.422;  -11.779;42839.098
592.192;31082.689;   -7.668;42820.402
592.774;29759.412;  -11.949;40724.277
593.356;28547.582;  -12.129;39874.789
593.937;27540.148;  -10.669;39980.648
594.519;29703.031;   -6.509;42069.633
595.101;31815.318;  -10.849;42976.031
595.683;31869.289;  -11.679;44084.441
596.264;33006.230;   -9.049;43478.797
596.846;32158.090;   -8.849;43803.672
597.427;31817.281;   -9.570;42986.934
598.009;33421.313;  -12.620;42832.219
598.591;33723.980;  -10.039;42580.086
599.172;32662.641;  -10.369;43061.805
599.753;32745.688;   -9.140;41691.469
600.335;34330.254;  -11.430;40692.520
600.916;32818.281;   -9.939;39982.422
601.498;30392.910;   -8.479;40318.617
602.079;28946.623;  -10.920;40670.609
602.660;29117.707;  -11.480;41450.898
603.241;30658.885;  -11.699;41137.738
603.823;29498.004;   -9.579;38868.797
604.404;29479.254;  -10.620;38182.785
604.985;30773.389;  -10.450;38078.047
605.566;30159.281;   -9.129;38056.633
606.147;30316.979;   -7.510;37020.418
606.728;32110.953;  -10.660;37883.359
607.309;30860.650;  -11.740;38748.273
607.890;30235.736;   -9.759;38850.230
608.471;29736.287;   -8.250;37457.918
609.051;28806.738;   -9.240;36066.457
609.632;27857.586;  -12.120;35991.074
610.213;28760.250;   -9.110;37402.641
610.794;29290.633;   -8.030;38383.363
611.374;28713.342;   -8.110;40562.387
611.955;29065.928;  -13.560;38533.727
612.536;30361.961;  -11.400;36951.789
613.116;30484.748;   -8.070;37197.891
613.697;30709.125;  -10.830;38411.125
614.277;29355.973;  -11.641;38673.938
614.858;30189.133;  -13.310;37075.863
615.438;29192.383;   -7.460;35092.906
616.019;26418.926;   -7.601;33666.301
616.599;27201.090;  -12.020;34189.023
617.179;29004.531;  -11.780;36952.047
617.760;29886.467;   -8.570;39582.574
618.340;30981.744;  -11.471;38943.977
618.920;32282.242;  -11.170;37594.156
619.500;32081.559;  -11.071;37866.938
620.080;31339.250;   -7.750;37869.043
620.660;32499.693;  -12.711;36868.617
621.241;33891.051;  -10.211;36352.309
621.821;34020.125;  -10.961;35459.520
622.401;32988.512;   -7.720;35207.414
622.980;32290.082;   -8.981;35980.422
623.560;30889.797;   -9.331;37351.328
624.140;29793.531;   -9.850;34388.582
624.720;24542.594;   -7.451;32368.764
625.300;21043.574;   -9.070;32638.629
625.880;24480.254;  -12.601;34599.035
626.459;28558.691;  -11.751;36831.738
627.039;31740.012;   -9.281;38299.098
627.619;31667.373;   -8.801;38289.574
628.198;29966.146;  -12.071;37220.695
628.778;29075.818;   -9.461;37632.563
629.357;29821.672;   -8.491;38003.012
629.937;29888.463;   -9.721;38402.039
630.516;29194.674;   -9.951;37868.801
631.096;28747.951;  -11.731;35760.410
631.675;31893.004;   -8.572;35225.219
632.254;36890.922;  -11.282;35130.289
632.834;36227.926;  -13.322;35794.570
633.413;34216.711;  -10.301;35788.922
633.992;31142.531;   -8.582;34532.863
634.571;31983.064;   -8.352;33590.113
635.151;34809.297;  -11.912;34943.863
635.730;33272.621;  -10.511;35352.523
636.309;30096.068;   -7.731;35366.605
636.888;27930.506;   -9.952;36165.637
637.467;28989.510;  -11.672;37515.902
638.046;30597.199;   -8.901;39288.695
638.625;33628.734;   -7.912;38279.699
639.204;33234.789;  -10.022;37741.598
639.782;31637.629;  -12.252;38364.551
640.361;27832.918;  -10.041;36740.621
640.940;24997.068;  -11.161;34950.082
641.519;25625.131;   -9.701;34137.398
642.097;28741.520;  -11.271;35654.258
642.676;31629.992;   -8.651;35637.957
643.255;32006.283;   -8.711;36567.074
643.833;31087.691;   -9.581;37809.434
644.412;31295.412;  -13.711;37337.293
644.990;30614.639;  -11.811;37018.531
645.569;30950.217;   -9.411;36518.469
646.147;29717.633;  -10.291;36186.430
646.726;28962.145;  -12.401;36267.688
647.304;29960.125;  -10.411;36647.625
647.882;32079.945;   -9.651;39286.742
648.461;33946.379;   -9.631;39157.703
649.039;32049.986;  -11.881;35412.883
649.617;31375.584;   -9.661;34744.918
650.195;31074.256;   -9.301;35403.098
650.773;29554.402;  -10.511;35053.797
651.352;27239.457;  -11.521;33756.816
651.930;24984.504;  -12.211;31868.773
652.508;23435.393;   -9.171;33121.551
653.086;27338.295;   -9.371;33564.793
653.663;29969.949;  -13.161;34054.668
654.241;29063.178;  -13.031;35693.309
654.819;30853.203;   -9.371;36422.906
655.397;30953.314;  -10.511;38213.484
655.975;30744.838;  -10.371;39507.625
656.553;30337.959;  -10.051;39498.223
657.130;28695.199;  -10.061;40395.480
657.708;28136.836;   -9.561;39242.020
658.286;28124.400;  -11.511;38920.020
658.863;29254.736;  -10.261;40202.898
659.441;32290.813;   -7.531;39677.938
660.018;31734.268;   -9.501;40413.355
660.596;30725.779;  -13.301;39931.414
661.173;32857.012;  -11.211;39604.531
661.750;32976.184;   -9.951;39700.070
662.328;31829.623;   -9.390;39292.809
662.905;30772.592;  -11.330;38235.648
663.482;26237.445;   -9.050;36212.305
664.060;24450.863;   -8.240;35944.945
664.637;27374.689;  -10.050;35170.785
665.214;29241.504;  -11.760;34197.523
665.791;30509.895;  -10.530;34549.520
666.368;29276.070;   -9.690;35118.578
666.945;30299.695;   -9.320;36019.418
667.522;31894.566;  -11.860;36048.438
668.099;31722.461;  -10.770;36243.914
668.676;30620.637;   -6.260;35958.875
669.253;29191.209;   -7.000;37384.730
669.830;29819.934;  -10.190;36779.629
670.407;29543.273;   -9.550;35231.289
670.984;29740.178;   -9.260;35544.270
671.560;30090.004;   -9.280;35466.867
672.137;28992.855;  -11.810;34280.863
672.714;29791.662;  -11.490;34632.863
673.290;30313.910;   -7.740;35135.422
673.867;30638.750;  -10.660;36114.480
674.443;30340.957;  -12.230;36152.859
675.020;28677.127;  -10.450;35327.238
675.596;29855.475;   -9.260;35795.176
676.173;30279.545;  -10.780;35430.355
676.749;30174.861;  -13.690;33549.516
677.326;30257.643;  -11.980;32210.012
677.902;30233.090;   -8.630;32068.871
678.478;29489.746;  -10.730;32583.891
679.054;29033.730;  -10.520;32088.928
679.631;29256.779;  -11.920;30978.848
680.207;30763.074;   -7.490;33160.887
680.783;32424.520;   -9.860;35570.363
681.359;31545.146;  -13.380;36125.184
681.935;30854.105;  -12.480;35240.922
682.511;29809.242;   -7.900;34429.961
683.087;29927.447;   -7.710;34463.680
683.663;29677.145;  -11.480;34648.898
684.239;28391.516;  -14.090;34546.457
684.815;28066.129;   -7.560;35586.375
685.390;28455.420;   -9.910;35821.895
685.966;28919.559;  -11.159;35085.871
686.542;31436.889;  -11.169;34198.230
687.118;33371.891;   -5.959;32847.707
687.693;33389.371;  -10.329;32794.027
688.269;33105.414;  -12.059;33072.367
688.844;31281.568;  -10.909;33141.664
689.420;29013.500;   -8.019;33965.742
689.995;26652.063;   -8.399;34655.523
690.571;25398.389;  -10.949;33576.742
691.146;26013.170;   -9.619;32657.219
691.722;25472.531;   -8.999;32526.979
692.297;25695.549;  -11.589;33014.617
692.872;27648.797;  -11.739;34012.254
693.448;26962.828;  -11.059;34237.434
694.023;26153.408;  -10.139;34142.672
694.598;28240.984;   -9.029;34132.031
695.173;28488.820;  -13.319;34205.250
695.748;27780.105;  -10.169;32882.488
696.323;27741.469;   -8.339;32864.906
696.898;28005.016;   -8.169;33170.004
697.473;27733.172;  -12.309;32432.984
698.048;27142.656;  -10.989;31649.303
698.623;27307.340;   -9.329;30778.141
699.198;29411.361;   -9.849;31140.119
699.773;30145.490;  -12.329;31764.299
700.348;28426.238;  -10.389;31780.816
700.922;28395.779;   -9.269;32046.375
701.497;29009.656;   -9.329;32603.574
702.072;29064.150;  -10.789;34799.871
702.646;27920.762;  -10.839;35793.172
703.221;26179.203;   -9.099;35201.590
703.795;28169.141;  -10.939;34764.527
704.370;28423.314;  -12.859;34307.367
704.944;28922.861;  -11.559;33509.887
705.519;29856.617;   -7.939;31388.584
706.093;31410.561;  -10.499;31340.104
706.668;31569.430;  -11.289;32630.281
707.242;30483.795;  -11.509;32728.779
707.816;28932.258;   -9.639;32947.238
708.390;27349.424;  -11.429;33277.855
708.965;28037.299;  -11.869;33834.336
709.539;28432.035;  -11.689;33709.273
710.113;28950.996;  -10.478;33044.313
710.687;28102.518;  -10.228;31953.992
711.261;26322.184;  -13.698;30505.949
711.835;26328.713;  -13.378;30262.369
712.409;27318.949;   -9.698;31254.447
712.983;29087.479;  -11.898;32754.986
713.557;29867.549;  -15.138;34018.824
714.131;29453.234;  -14.098;34579.625
714.704;28505.180;   -9.958;33890.262
715.278;26323.598;  -10.028;33531.102
715.852;25517.771;  -11.148;33601.660
716.425;26469.736;   -9.068;33515.117
716.999;27121.170;  -10.038;33185.555
717.573;28087.055;   -9.798;33905.996
718.146;29147.270;  -12.378;35199.293
718.720;28903.797;  -11.918;35060.551
719.293;28311.699;   -8.088;34973.230
719.867;31246.014;  -10.888;36394.449
720.440;30770.203;  -11.938;36663.008
721.013;28975.637;  -12.818;35102.426
721.587;27682.387;  -10.298;33985.266
722.160;26897.664;  -10.048;33524.965
722.733;25928.313;  -12.108;32987.043
723.306;26285.359;  -10.818;33066.301
723.880;28548.838;   -8.908;33399.500
724.453;30046.006;   -9.878;33468.297
725.026;28941.250;  -11.188;33816.637
725.599;26637.822;  -11.678;32797.996
726.172;27505.449;   -9.618;33187.434
726.745;28693.869;   -8.258;35136.613
727.318;30074.580;  -12.978;35751.730
727.891;30240.680;  -12.148;35890.430
728.463;29845.486;   -8.968;34822.090
729.036;28938.045;  -10.188;32895.086
729.609;29270.439;  -11.788;31823.225
730.182;26158.186;  -11.788;31445.283
730.754;23647.227;  -10.268;32373.223
731.327;23663.637;   -9.998;33676.820
731.900;24124.221;  -12.228;33417.000
732.472;25601.609;  -13.848;31978.498
733.045;27417.232;   -8.698;30368.777
733.617;27504.986;  -10.607;30574.215
734.190;26940.451;  -11.507;31280.975
734.762;23852.166;  -13.647;31674.412
735.334;22290.828;   -9.767;31247.291
735.907;23083.891;   -9.897;29876.211
736.479;23092.051;  -11.637;29808.488
737.051;22683.033;   -9.567;30233.547
737.623;23660.090;   -8.187;31469.086
738.195;24739.885;  -11.187;31784.225
738.768;26926.822;  -12.337;32120.523
739.340;26747.494;  -12.227;32094.342
739.912;25228.816;  -11.057;31312.680
740.484;23827.203;  -10.207;31946.238
741.056;22981.840;  -10.047;32984.059
741.628;24888.943;  -13.627;33897.715
742.199;27122.840;   -7.177;33213.016
742.771;25396.959;  -10.797;31369.113
743.343;23015.588;  -11.997;31865.473
743.915;22055.912;  -12.867;32388.631
744.487;22245.785;   -7.617;31079.568
745.058;22405.955;   -9.557;30570.107
745.630;22836.447;   -9.877;29970.127
746.201;23459.559;  -14.177;29186.766
746.773;23668.420;   -9.237;28805.723
747.344;23544.799;   -9.847;29591.223
747.916;22368.012;  -11.657;31412.201
748.487;22773.992;  -10.587;32194.898
749.059;23931.041;   -8.707;32533.719
749.630;24625.242;  -10.537;32158.518
750.201;23792.322;  -11.687;30855.395
750.773;22037.373;  -11.647;28622.555
751.344;22094.635;   -7.147;28405.732
751.915;23291.207;   -9.757;28461.551
752.486;22865.816;  -12.427;27842.850
753.057;20576.615;  -12.227;27845.008
753.628;19476.482;  -10.417;27728.107
754.199;20723.451;  -11.767;27381.086
754.770;21729.662;  -11.187;25882.203
755.341;21698.828;  -10.507;25886.184
755.912;21567.893;   -9.387;26050.861
756.483;20968.717;  -10.647;26798.779
757.054;19138.463;  -11.837;27048.238
757.625;17887.629;  -12.716;26294.838
758.195;17795.648;   -9.666;26142.076
758.766;17577.896;   -8.656;26392.234
759.337;18399.797;  -12.856;26334.594
759.907;20235.225;  -13.366;27579.652
760.478;21091.287;   -8.576;28352.770
761.048;20304.477;  -10.526;27325.088
761.619;19437.074;  -11.116;26460.428
762.189;19570.666;  -12.136;26029.826
762.760;20857.275;   -9.456;26430.145
763.330;21844.271;   -7.136;26670.902
763.900;21098.459;  -11.786;26603.021
764.471;18440.146;  -11.546;25542.740
765.041;17187.646;   -8.096;24358.459
765.611;17306.215;   -8.876;23991.297
766.181;17751.627;  -12.196;24470.236
766.751;18692.086;  -11.636;24845.975
767.321;18357.166;  -10.156;24533.633
767.891;16310.688;  -11.766;24916.492
768.461;15847.041;  -14.936;24776.771
769.031;16495.502;  -12.356;24757.988
769.601;18008.422;   -7.526;24181.088
770.171;17752.559;  -10.766;23670.387
770.741;17106.783;  -13.176;22960.045
771.311;17412.873;  -10.616;22917.523
771.880;17650.637;   -9.576;23562.941
772.450;17297.881;  -10.336;24216.500
773.020;17463.596;  -13.516;24140.398
773.589;16900.223;  -13.466;24414.857
774.159;16270.478;   -8.686;23858.717
774.729;15835.799;   -9.476;22942.135
775.298;15260.702;  -13.666;22324.033
775.867;14858.158;  -11.716;21140.313
776.437;14899.773;   -9.906;20838.092
777.006;14646.139;  -12.166;20599.510
777.576;14585.116;  -12.356;20508.809
778.145;14814.184;  -11.646;20732.947
778.714;14664.216;   -8.226;21062.465
779.283;13866.438;   -9.556;20949.664
779.853;13431.736;  -14.116;20508.623
780.422;13929.654;  -11.506;20649.082
780.991;13537.499;   -9.556;21527.520
781.560;12375.621;   -9.095;22632.658
782.129;12180.879;  -12.135;23048.277
782.698;12190.273;  -10.865;23438.555
783.267;11791.239;   -9.335;23267.734
783.836;11807.981;  -11.045;22415.133
784.404;12888.678;  -13.865;20443.152
784.973;13425.364;  -13.095;19699.150
785.542;13354.894;  -11.575;19763.828
786.111;13197.851;   -9.705;20341.408
786.679;12627.530;  -12.105;20207.967
787.248;12390.684;  -12.455;19516.465
787.817;12226.854;  -11.535;18900.363
788.385;11794.631;   -9.765;17879.121
788.954;11171.250;  -14.005;17658.301
789.522;10660.462;  -11.955;17788.879
790.090;11240.014;  -10.135;18118.277
790.659;11603.751;  -10.975;18338.736
791.227;11089.325;  -13.375;18508.615
791.795;11551.816;  -12.375;17898.254
792.364;11873.304;  -10.725;17295.133
792.932;12128.044;   -9.715;16822.051
793.500;12328.375;  -12.675;17040.148
794.068;12596.888;  -13.495;17179.787
794.636;12700.466;  -10.885;16664.246
795.204;12203.606;  -11.045;16524.545
795.772;12294.541;  -13.175;17274.564
796.340;11804.636;  -12.445;17891.002
796.908;11625.258;   -9.735;17648.561
797.476;11485.161;   -9.815;17064.080
798.044;11030.325;  -13.985;16672.777
798.612;10220.351;  -13.115;17023.996
799.180; 9822.803;  -10.185;16561.615
799.747; 9746.068;   -9.055;15962.773
800.315; 9495.623;  -12.385;15296.992
800.883; 9126.759;  -15.035;14801.771
801.450; 9088.824;  -10.365;14534.430
802.018; 9144.827;   -9.855;14173.248
802.585; 9308.482;  -11.905;14029.547
803.153; 9403.108;  -11.585;13836.846
803.720; 9219.781;   -9.095;13567.324
804.287; 8737.315;   -9.135;13360.622
804.855; 8330.993;  -11.604;13681.981
805.422; 8207.343;  -11.794;13536.560
805.989; 8200.232;  -10.734;13355.958
806.556; 8415.404;  -10.444;13747.896
807.124; 8683.521;  -12.764;13987.376
807.691; 8654.127;  -12.964;14038.674
808.258; 8417.688;  -11.134;14120.152
808.825; 8039.994;   -9.854;13860.111
809.392; 8086.858;  -10.504;13268.790
809.959; 7629.401;  -13.054;12680.389
810.526; 7235.625;   -8.294;12427.308
811.093; 7305.482;   -8.394;12030.105
811.659; 7874.883;  -12.304;11653.664
812.226; 8321.683;  -13.944;11637.183
812.793; 7965.899;  -10.484;11611.521
813.360; 7322.916;  -10.144;11885.181
813.926; 7042.743;  -11.684;12770.539
814.493; 6853.080;  -13.644;12677.638
815.060; 6496.178;   -9.724;11974.336
815.626; 6542.239;   -9.854;11594.715
816.193; 6945.579;  -13.254;11579.474
816.759; 6945.797;  -13.204;11666.972
817.325; 6987.049;   -9.434;11325.530
817.892; 7327.318;  -10.134;11105.369
818.458; 7740.858;  -13.474;10843.928
819.024; 7320.392;  -11.854;10714.406
819.591; 6998.548;  -10.244;10469.165
820.157; 6821.115;  -10.704;10235.523
820.723; 6370.873;  -12.324;10847.563
821.289; 6078.971;   -9.444;11040.980
821.855; 5958.791;   -8.374;10357.100
822.421; 5867.315;  -10.234; 9978.918
822.987; 5829.479;  -13.294; 9754.177
823.553; 5559.949;  -10.884;10065.755
824.119; 5421.187;   -8.884;10036.294
824.685; 5491.504;   -6.784;10029.192
825.251; 5558.425;  -12.004;10199.230
825.816; 5524.884;  -11.474; 9820.189
826.382; 5315.804;   -9.174; 9297.248
826.948; 5558.087;   -9.214; 9381.347
827.513; 5930.271;  -10.774; 9450.726
828.079; 5717.693;  -11.924; 9472.444
828.645; 5171.367;  -10.543; 9292.643
829.210; 5143.802;  -10.533; 9065.341
829.776; 5131.261;  -10.753; 9132.620
830.341; 5001.025;  -10.173; 9092.878
830.906; 5187.177;  -10.743; 9078.557
831.472; 5497.354;  -11.113; 8534.535
832.037; 5177.779;  -10.603; 8677.874
832.602; 4612.591;  -13.323; 8628.692
833.167; 4375.083;  -10.823; 8879.031
833.733; 4321.666;  -10.113; 9189.790
834.298; 4442.378;  -13.583; 9052.608
834.863; 4487.083;  -12.703; 8895.087
835.428; 4461.280;  -10.523; 8824.266
835.993; 4352.614;   -6.963; 8845.385
836.558; 4229.801;  -10.763; 8888.563
837.123; 4388.226;   -9.903; 8966.582
837.688; 4616.168;   -9.913; 8617.860
838.253; 4826.565;  -10.283; 8590.699
838.817; 5006.183;  -12.963; 8443.797
839.382; 4891.803;  -14.243; 8799.356
839.947; 4551.853;  -10.733; 8810.595
840.511; 4222.848;   -9.383; 8796.394
841.076; 3849.383;  -12.563; 8347.231
841.641; 3927.870;  -12.953; 8224.330
842.205; 4048.896;   -7.043; 8223.349
842.770; 4202.208;   -8.163; 8622.107
843.334; 4408.945;  -12.503; 8410.386
843.898; 4376.762;  -11.693; 8337.465
844.463; 4398.624;  -10.203; 8506.283
845.027; 4159.550;   -9.533; 8280.962
845.591; 3978.551;  -13.443; 8231.141
846.156; 3937.988;  -13.143; 7969.179
846.720; 3812.408;   -9.433; 7768.278
847.284; 3675.953;  -11.033; 7630.957
847.848; 3541.348;  -10.403; 7472.395
848.412; 3433.135;  -11.553; 7437.394
848.976; 3473.283;   -8.393; 7674.592
849.540; 3426.159;   -8.713; 7836.011
850.104; 3567.778;  -12.463; 7913.669
850.668; 3915.780;  -12.973; 7694.508
851.232; 3994.244;  -10.793; 7756.887
851.796; 3828.370;  -10.662; 7926.545
852.359; 3532.232;  -13.082; 7827.844
852.923; 3373.660;  -12.192; 7641.163
853.487; 3197.447;  -11.912; 7342.501
854.050; 3141.818;  -10.892; 7042.820
854.614; 3261.275;  -13.992; 7151.338
855.177; 3381.687;  -11.732; 7105.077
855.741; 3416.033;   -8.962; 6989.675
856.304; 3320.073;   -9.442; 6596.634
856.868; 3271.278;  -14.192; 6356.272
857.431; 3383.571;  -12.702; 6468.571
857.995; 3520.498;   -9.942; 6373.210
858.558; 3524.880;   -9.112; 6324.448
859.121; 3245.746;  -12.932; 6408.327
859.684; 3126.167;  -13.442; 6347.886
860.247; 3219.396;  -10.632; 6321.264
860.810; 3193.578;  -11.272; 6301.903
861.374; 2931.247;   -9.832; 6607.881
861.937; 2682.724;  -11.762; 6408.200
862.500; 2686.677;   -9.722; 6572.639
863.062; 2875.197;  -10.512; 6387.297
863.625; 3040.394;  -11.232; 6190.836
864.188; 3199.059;  -14.112; 5807.254
864.751; 3267.442;  -11.302; 5682.413
865.314; 3152.870;  -10.112; 5547.492
865.876; 2952.316;  -12.182; 5500.150
866.439; 2949.953;  -10.722; 5415.909
867.002; 2887.339;   -9.252; 5501.567
867.564; 2668.642;   -9.572; 5413.946
868.127; 2433.387;  -13.142; 5160.325
868.689; 2327.223;  -12.902; 5133.183
869.252; 2223.764;   -9.732; 5252.382
869.814; 2132.914;   -9.432; 5297.141
870.377; 2154.087;  -11.552; 5390.919
870.939; 2234.617;   -9.052; 5599.898
871.501; 2289.050;  -10.982; 5248.336
872.063; 2283.975;  -12.292; 4854.235
872.626; 2247.011;  -14.912; 4817.074
873.188; 2281.676;  -13.112; 4987.732
873.750; 2248.147;  -13.442; 4868.651
874.312; 2151.507;   -9.402; 4779.330
874.874; 2055.935;  -11.062; 4866.348
875.436; 1960.672;  -13.931; 4718.887
875.998; 1950.309;   -9.561; 4660.005
876.560; 1970.487;  -11.321; 4462.964
877.122; 1911.753;  -12.221; 4145.042
877.683; 1827.834;  -12.191; 4056.481
878.245; 1760.422;  -12.101; 3950.740
878.807; 1803.702;   -8.971; 4058.958
879.369; 1822.883;  -12.071; 3954.677
879.930; 1721.644;  -14.621; 3941.495
880.492; 1662.206;  -10.311; 4067.014
881.053; 1619.269;  -10.901; 3859.633
881.615; 1502.617;  -14.411; 3776.071
882.176; 1406.435;  -13.761; 3734.750
882.738; 1362.122;   -9.181; 3678.489
883.299; 1337.178;  -11.791; 3405.407
883.860; 1344.534;  -13.121; 3351.106
884.422; 1345.036;  -11.211; 3394.044
884.983; 1292.425;  -10.091; 3166.443
885.544; 1206.512;   -8.461; 3189.802
886.105; 1126.239;  -12.361; 3160.360
886.666; 1059.656;  -14.141; 3093.059
887.227; 1005.887;  -11.361; 2941.957
887.788;  942.677;  -11.401; 2974.836
888.349;  879.487;  -13.791; 2721.214
888.910;  880.297;  -13.191; 2696.493
889.471;  889.977;   -9.881; 2560.172
890.032;  869.955;   -9.881; 2558.190
890.593;  845.010;  -10.371; 2567.669
891.153;  817.726;  -13.301; 2460.307
891.714;  766.257;  -11.431; 2372.046
892.275;  723.604;  -11.291; 2309.505
892.835;  678.024;  -11.471; 2382.543
893.396;  622.405;  -11.541; 2295.502
893.956;  565.048;  -11.181; 2162.420
894.517;  530.307;  -11.741; 2125.439
895.077;  527.341;  -11.671; 2086.978
895.638;  526.744;  -11.311; 2126.316
896.198;  497.324;   -9.831; 1838.275
896.758;  454.772;   -8.421; 1892.813
897.319;  423.168;  -12.351; 1792.232
897.879;  408.121;  -13.511; 1762.751
898.439;  380.360;  -12.001; 1661.149
898.999;  356.092;  -10.180; 1781.468
899.559;  346.761;  -12.030; 1703.347
900.119;  342.154;  -15.710; 1537.525
900.679;  336.938;   -8.900; 1638.384
901.239;  322.387;   -8.340; 1527.902
901.799;  312.220;  -13.910; 1456.441
902.359;  307.426;  -13.460; 1357.140
902.919;  299.952;  -11.490; 1331.118
903.479;  287.113;  -12.110; 1317.257
904.038;  265.218;  -11.720; 1262.595
904.598;  249.880;  -13.610; 1152.034
905.158;  246.308;  -11.040; 1240.893
905.717;  239.265;  -10.900; 1233.691
906.277;  227.233;  -15.080; 1217.330
906.836;  216.579;  -13.380; 1222.408
907.396;  208.336;  -10.780; 1193.047
907.955;  202.431;   -8.500; 1182.526
908.515;  195.110;  -12.760; 1099.364
909.074;  189.833;  -11.900; 1092.863
909.633;  183.880;   -8.950; 1069.121
910.192;  179.972;   -8.770; 1196.460
910.752;  172.829;  -12.390; 1029.960
911.311;  169.277;  -13.680; 1009.780
911.870;  168.255;  -12.370;  971.460
912.429;  169.038;  -10.900; 1094.080
912.988;  167.371;  -11.690; 1081.060
913.547;  161.806;  -13.240;  940.380
914.106;  156.525;  -11.990;  999.420
914.665;  154.274;   -9.990;  984.020
915.224;  153.930;  -12.880; 1035.760
915.782;  153.497;  -12.350;  922.560
916.341;  153.011;   -9.110; 1049.840
916.900;  149.657;   -9.270;  925.260
917.458;  147.094;  -13.240;  884.220
918.017;  146.674;  -13.550;  942.600
918.576;  146.553;  -12.320;  904.440
919.134;  145.008;  -11.490;  837.980
919.693;  142.585;  -13.670;  893.060
920.251;  140.613;  -15.470;  876.500
920.809;  139.585;  -11.290;  839.580
921.368;  139.718;  -10.210;  885.360
921.926;  137.473;  -12.140;  842.940
922.484;  136.701;  -13.080;  903.360
923.042;  136.355;  -11.720;  880.340
923.601;  140.329;   -7.480;  998.680
924.159;  138.183;  -11.570;  935.560
924.717;  134.759;  -13.840;  841.080
925.275;  134.252;  -10.640;  903.240
925.833;  134.801;  -11.540;  779.320
926.391;  135.653;  -12.960;  938.380
926.949;  133.481;  -14.130;  857.680
927.506;  133.990;  -11.750;  903.500
928.064;  134.668;  -10.250;  877.580
928.622;  133.451;  -13.030;  880.100
929.180;  132.927;  -13.400;  814.180
929.737;  134.623;  -10.700;  808.540
930.295;  139.023;  -10.070;  928.480
930.853;  139.440;  -11.960;  849.100
931.410;  139.712;  -13.120;  821.120
931.968;  140.683;  -10.770;  940.660
932.525;  140.272;  -10.680;  909.380
933.082;  140.549;  -13.130;  811.440
933.640;  140.541;  -13.210;  925.900
934.197;  138.946;  -11.060;  886.360
934.754;  140.136;   -9.580;  897.780
935.312;  144.017;  -14.000;  863.340
935.869;  147.668;  -10.710; 1012.980
936.426;  148.194;   -9.860;  872.800
936.983;  150.652;   -9.710;  889.020
937.540;  148.339;  -13.990;  838.280
938.097;  145.700;  -14.040;  940.120
938.654;  146.698;  -10.310;  898.860
939.211;  150.879;  -10.560;  952.480
939.768;  154.457;  -13.900;  915.420
940.324;  156.067;  -14.760;  904.200
940.881;  158.416;  -10.370;  878.500
941.438;  159.181;   -8.260; 1021.200
941.995;  154.649;  -12.540;  992.560
942.551;  151.990;  -14.670;  875.620
943.108;  153.811;  -10.450;  937.920
943.664;  155.675;  -10.750;  869.340
944.221;  159.100;  -11.550; 1088.140
944.777;  157.100;  -14.770;  869.680
945.334;  157.615;  -12.820;  884.840
945.890;  159.862;  -10.130;  946.480
946.446;  158.866;  -13.470;  947.020
947.003;  161.097;  -12.120;  964.940
947.559;  164.720;   -9.980; 1063.040
948.115;  164.072;   -9.080; 1026.540
948.671;  162.662;  -10.830;  967.300
949.227;  159.347;  -12.440;  859.560
949.783;  156.461;  -12.910;  858.900
950.339;  159.318;  -10.270;  991.000
950.895;  159.112;  -13.630; 1023.840
951.451;  157.934;  -15.100;  925.280
952.007;  158.861;  -11.330;  998.540
952.563;  159.803;  -10.580;  937.780
953.118;  157.039;  -13.440;  904.940
953.674;  157.518;  -12.710;  935.780
954.230;  157.204;  -10.350;  949.640
954.785;  155.672;   -9.190;  936.640
955.341;  152.270;  -11.200;  998.160
955.897;  150.546;  -16.560;  834.660
956.452;  152.312;  -12.570;  953.840
957.008;  151.687;   -7.970; 1083.640
957.563;  149.710;  -11.940; 1009.540
958.118;  145.046;  -13.450;  877.700
958.674;  146.610;  -12.030;  946.780
959.229;  147.828;   -9.410; 1013.980
959.784;  144.768;  -12.000;  832.400
960.339;  143.854;  -14.780; 1001.280
960.894;  140.369;   -9.860;  963.760
961.449;  136.701;   -9.970;  859.960
962.004;  136.515;  -10.900; 1212.840
962.559;  130.690;  -13.150;  860.140
963.114;  128.499;  -13.740;  742.480
963.669;  128.515;   -9.820;  915.500
964.224;  127.247;  -13.890;  874.340
964.779;  126.361;  -12.600;  828.420
965.334;  126.523;  -10.950; 1017.860
965.888;  127.343;  -11.170;  875.360
966.443;  129.923;  -12.540;  972.380
966.998;  129.169;  -15.780;  819.460
967.552;  127.546;   -9.760;  908.380
968.107;  124.074;   -9.060;  868.300
968.661;  125.230;  -11.950;  922.440
969.216;  125.967;  -12.800;  856.280
969.770;  125.916;  -11.210;  917.200
970.324;  125.480;  -11.610;  923.140
970.879;  122.343;  -11.370;  947.180
971.433;  119.430;  -12.540;  952.720
971.987;  116.480;  -11.320;  895.340
972.541;  112.718;  -10.720;  917.100
973.095;  111.075;   -9.680; 1009.460
973.649;  104.711;  -11.440;  809.480
974.203;   97.191;  -11.210;  829.040
974.757;   89.221;  -10.240;  855.220
975.311;   83.936;  -13.720;  872.600
975.865;   80.396;  -13.770;  881.820
976.419;   80.255;  -11.690;  857.400
976.973;   82.598;   -9.510;  849.620
977.526;   85.808;  -12.620;  949.920
978.080;   86.488;  -12.010;  796.780
978.634;   89.526;  -10.170;  921.320
979.187;   89.238;   -9.020;  905.400
979.741;   87.999;   -9.820; 1018.380
980.294;   84.091;  -14.870;  789.160
980.848;   83.537;  -12.380;  717.220
981.401;   85.591;  -10.350;  816.540
981.955;   87.872;  -13.720;  844.300
982.508;   86.324;  -11.490;  746.340
983.061;   87.186;  -10.000;  915.260
983.615;   85.528;  -11.480;  798.800
984.168;   81.426;  -13.220;  770.080
984.721;   81.701;  -13.960;  880.760
985.274;   81.309;  -10.870;  867.500
985.827;   82.109;   -9.790;  834.220
986.380;   78.745;  -13.120;  721.340
986.933;   77.522;  -12.450;  864.800
987.486;   76.285;  -10.210;  861.920
988.039;   76.029;   -8.430;  863.100
988.591;   73.762;  -10.520;  893.260
989.144;   70.844;  -14.860;  737.260
989.697;   70.628;  -13.080;  758.740
990.250;   72.267;  -10.150;  858.100
990.802;   70.976;  -13.430;  755.860
991.355;   71.682;  -12.750;  974.880
991.907;   69.649;  -12.040;  864.320
992.460;   67.617;  -11.330;  753.760
993.012;   67.091;  -13.610;  749.540
993.565;   65.394;  -13.460;  711.360
994.117;   67.983;   -9.360;  950.780
994.669;   64.023;  -11.300;  701.320
995.221;   62.269;  -13.540;  791.920
995.774;   60.660;  -13.430;  787.580
996.326;   59.296;  -12.520;  740.220
996.878;   59.035;  -10.950;  838.420
997.430;   55.515;  -14.300;  699.860
997.982;   53.663;  -13.760;  750.140
998.534;   52.230;  -11.530;  739.060
999.086;   51.391;  -10.310;  738.220
999.638;   50.576;  -12.530;  661.380
1000.190;   49.752;  -11.840;  699.320
1000.741;   50.408;  -10.260;  742.700
1001.293;   50.619;   -8.860;  686.020
1001.845;   48.943;  -13.700;  676.640
1002.396;   49.329;  -12.100;  743.400
1002.948;   48.910;  -12.760;  737.400
1003.500;   47.494;  -10.380;  723.780
1004.051;   47.492;  -11.900;  907.580
1004.603;   46.251;  -12.250;  791.820
1005.154;   42.855;  -13.210;  608.980
1005.705;   41.205;  -10.950;  723.960
1006.257;   41.376;  -13.880;  707.220
1006.808;   40.612;  -12.840;  685.460
1007.359;   40.043;  -10.570;  763.240
1007.910;   39.985;   -9.620;  646.640
1008.461;   38.983;  -13.630;  732.940
1009.013;   38.200;  -17.200;  588.340
1009.564;   39.637;  -10.200;  793.520
1010.115;   37.873;  -12.570;  597.040
1010.665;   36.513;  -15.150;  602.160
1011.216;   37.274;  -14.480;  667.920
1011.767;   36.763;  -11.340;  697.920
1012.318;   37.150;   -9.780;  736.980
1012.869;   35.679;  -12.380;  679.000
1013.419;   34.509;  -15.560;  603.120
1013.970;   35.775;  -11.010;  666.640
1014.521;   34.553;  -11.610;  620.620
1015.071;   34.939;  -13.450;  670.380
1015.622;   34.169;  -13.870;  635.460
1016.172;   33.677;  -11.610;  596.820
1016.723;   34.349;  -12.120;  614.380
1017.273;   33.021;  -13.620;  604.160
1017.823;   33.455;  -14.140;  650.340
1018.374;   33.625;  -12.800;  611.760
1018.924;   33.363;  -12.340;  716.880
1019.474;   32.334;  -11.410;  718.880
1020.024;   31.497;  -14.770;  657.580
1020.574;   32.735;   -9.780;  726.160
1021.124;   33.189;   -8.560;  673.580
1021.674;   31.230;  -15.190;  559.120
1022.224;   32.284;  -13.530;  708.940
1022.774;   31.919;  -13.280;  668.820
1023.324;   32.605;  -10.690;  753.520
1023.874;   32.548;  -10.240;  875.760
1024.423;   30.559;  -12.540;  613.700
1024.973;   30.027;  -10.010;  610.760
1025.523;   30.020;  -10.550;  620.960
1026.072;   30.043;  -13.560;  606.420
1026.622;   28.840;  -15.120;  675.740
1027.172;   30.876;  -11.260;  715.660
1027.721;   29.564;  -11.410;  601.220
1028.270;   29.820;  -13.530;  663.400
1028.820;   29.258;  -13.680;  638.080
1029.369;   29.176;  -13.520;  612.700
1029.918;   29.358;  -10.980;  649.840
1030.468;   28.744;  -13.530;  564.780
1031.017;   28.394;  -13.170;  634.800
1031.566;   28.147;  -12.200;  608.900
1032.115;   29.120;   -9.960;  694.500
1032.664;   27.054;  -13.210;  596.480
1033.213;   27.637;  -12.500;  735.420
1033.762;   27.479;  -11.910;  635.620
1034.311;   27.475;   -9.640;  677.220
1034.860;   27.276;  -13.310;  691.000
1035.408;   27.237;  -11.830;  722.720
1035.957;   27.456;  -12.000;  719.540
1036.506;   26.114;  -11.690;  530.800
1037.055;   27.842;  -10.990;  844.320
1037.603;   25.938;  -15.120;  664.000
1038.152;   23.926;  -12.450;  534.760
1038.700;   25.809;  -10.560;  585.740
1039.249;   25.218;  -11.080;  681.220
1039.797;   25.101;  -12.540;  633.360
1040.345;   26.232;  -11.920;  705.420
1040.894;   25.070;  -11.410;  625.300
1041.442;   24.912;  -14.320;  632.200
1041.990;   24.010;  -16.240;  559.160
1042.538;   23.524;  -11.680;  536.180
1043.087;   23.738;  -10.760;  570.860
1043.635;   25.453;  -11.850;  670.500
1044.183;   23.312;  -15.480;  586.400
1044.731;   23.660;  -11.770;  576.000
1045.279;   23.656;  -13.090;  674.920
1045.827;   25.195;  -12.440;  892.400
1046.374;   22.237;  -13.840;  515.420
1046.922;   22.173;  -13.220;  590.580
1047.470;   23.662;  -10.230;  691.300
1048.018;   23.169;  -14.590;  647.960
1048.565;   23.046;  -12.050;  708.600
1049.113;   21.889;  -11.650;  557.000
1049.660;   22.224;  -10.510;  629.660
1050.208;   22.310;  -13.310;  675.640
1050.755;   21.751;  -15.900;  606.580
1051.303;   21.978;  -11.430;  686.820
1051.850;   21.931;   -8.480;  635.120
1052.397;   19.547;  -15.010;  473.960
1052.945;   20.724;  -13.960;  617.760
1053.492;   22.085;  -13.150;  741.840
1054.039;   21.378;   -9.630;  720.180
1054.586;   20.754;  -13.680;  557.240
1055.133;   20.856;  -14.570;  693.140
1055.680;   20.665;  -13.820;  646.620
1056.227;   20.988;  -11.730;  542.780
1056.774;   21.260;  -12.480;  794.980
1057.321;   19.461;  -13.930;  523.260
1057.868;   19.787;  -11.690;  651.320
1058.415;   19.923;   -9.520;  651.980
1058.961;   19.751;  -13.160;  678.940
1059.508;   19.453;  -12.920;  643.820
1060.055;   18.844;  -11.920;  581.780
1060.601;   19.915;  -11.500;  624.300
1061.148;   19.305;  -14.330;  616.820
1061.694;   17.951;  -16.870;  592.580
1062.241;   18.788;  -10.330;  596.320
1062.787;   19.904;  -10.620;  663.140
1063.334;   20.802;  -10.110;  808.560
1063.880;   18.377;  -13.400;  668.360
1064.426;   18.872;  -10.680;  706.820
1064.972;   18.728;   -9.920;  601.340
1065.518;   17.294;  -10.980;  566.640
1066.065;   18.111;  -14.890;  624.460
1066.611;   17.348;  -12.870;  598.800
1067.157;   18.115;  -12.950;  641.860
1067.703;   18.019;  -13.540;  668.480
1068.249;   17.710;  -13.540;  605.220
1068.794;   17.676;  -12.600;  626.880
1069.340;   16.792;  -10.620;  578.960
1069.886;   17.009;  -12.830;  590.700
1070.432;   16.561;  -14.870;  541.720
1070.977;   16.056;  -11.980;  601.080
1071.523;   16.880;   -8.200;  573.060
1072.068;   16.833;  -12.330;  582.000
1072.614;   15.800;  -16.370;  527.760
1073.160;   16.538;  -11.100;  687.040
1073.705;   16.535;  -10.480;  572.520
1074.250;   15.129;  -14.520;  559.900
1074.796;   16.257;  -11.460;  655.160
1075.341;   15.895;  -11.950;  664.100
1075.886;   16.537;  -11.460;  594.240
1076.431;   15.662;  -13.770;  649.880
1076.976;   15.324;  -12.680;  639.220
1077.521;   14.893;  -13.170;  583.080
1078.067;   14.969;  -10.860;  579.400
1078.612;   15.330;  -13.920;  661.620
1079.156;   14.697;  -13.880;  601.540
1079.701;   15.536;  -13.120;  693.260
1080.246;   15.448;   -9.940;  696.300
1080.791;   14.783;  -14.740;  625.020
1081.336;   14.601;  -13.750;  659.320
1081.880;   14.053;  -13.400;  649.680
1082.425;   14.017;  -12.220;  573.480
1082.970;   15.378;  -11.610;  717.040
1083.514;   13.907;  -13.580;  597.000
1084.059;   13.092;  -12.810;  586.720
1084.603;   13.450;  -12.320;  565.840
1085.147;   13.944;  -13.190;  645.220
1085.692;   14.810;  -12.480;  716.800
1086.236;   11.697;  -13.020;  503.140
1086.780;   14.711;   -9.190;  751.440
1087.325;   13.862;  -12.480;  654.620
1087.869;   13.110;  -12.450;  610.700
1088.413;   13.553;  -12.240;  705.040
1088.957;   12.101;   -9.020;  543.400
1089.501;   13.896;  -10.320;  766.640
1090.045;   12.743;  -12.720;  726.480
1090.589;   11.452;  -13.690;  569.920
1091.133;   12.512;  -10.020;  673.340
1091.676;   12.953;  -12.330;  591.940
1092.220;   11.662;  -14.970;  600.920
1092.764;   12.972;  -12.430;  706.960
1093.307;   12.631;   -9.800;  673.780
1093.851;   10.685;  -14.970;  556.540
1094.395;   11.916;  -15.310;  683.140
1094.938;   11.197;  -10.370;  632.520
1095.482;   11.270;  -11.050;  559.800
1096.025;   11.543;  -11.840;  710.880
1096.568;   12.218;  -12.840;  779.280
1097.112;    9.161;  -14.700;  508.180
1097.655;   11.418;   -8.720;  603.000
1098.198;   10.163;  -13.610;  600.180
1098.741;   10.287;  -13.350;  612.860
1099.285;   11.512;  -11.230;  657.300
1099.828;    9.479;  -11.840;  439.400
1100.371;   10.062;  -10.840;  608.160
1100.914;    9.959;  -14.190;  682.660
1101.457;    9.582;  -11.240;  679.900
1101.999;    9.630;  -11.270;  584.680
1102.542;   10.221;  -11.480;  641.440
1103.085;    9.138;  -11.750;  658.500
1103.628;   10.356;  -11.400;  762.060
1104.170;    9.640;  -10.490;  588.280
1104.713;    9.656;  -10.600;  646.700
1105.256;    8.186;  -14.360;  557.440
1105.798;    8.755;  -13.210;  499.980
1106.341;   11.232;  -10.270;  728.900
1106.883;    8.484;  -12.200;  521.340
1107.425;    8.603;  -13.110;  668.180
1107.968;    8.813;  -12.840;  612.380
1108.510;    9.341;   -6.480;  684.960
1109.052;    7.311;  -13.940;  612.620
1109.594;    7.991;  -13.690;  554.440
1110.136;    8.723;  -11.880;  643.220
1110.679;    8.070;   -9.500;  633.080
1111.221;    8.838;  -14.160;  604.460
1111.763;    7.284;  -13.980;  559.220
1112.304;    7.013;  -13.880;  547.140
1112.846;    8.249;  -12.210;  666.240
1113.388;   10.483;  -11.390;  942.180
1113.930;    7.538;  -14.540;  694.200
1114.472;    7.320;  -12.640;  606.540
1115.013;    6.276;  -11.620;  551.280
1115.555;    6.434;  -13.640;  587.100
1116.097;    5.835;  -15.380;  579.480
1116.638;    7.780;  -12.640;  684.600
1117.180;    7.908;   -9.850;  667.740
1117.721;    6.759;  -13.690;  568.580
1118.262;    6.996;  -12.680;  677.960
1118.804;    8.080;  -12.530;  637.340
1119.345;    6.452;  -11.690;  578.400
1119.886;    7.199;  -13.380;  704.040
1120.427;    5.993;  -14.070;  589.020
1120.969;    5.494;  -13.500;  597.920
1121.510;    5.862;  -11.480;  563.060
1122.051;    5.686;  -12.830;  723.580
1122.592;    4.823;  -14.290;  655.420
1123.133;    4.505;  -12.400;  547.940
1123.673;    7.143;  -10.130;  706.480
1124.214;    5.735;  -12.930;  612.460
1124.755;    6.251;  -14.380;  639.460
1125.296;    5.771;  -14.000;  627.320
1125.836;    6.459;  -10.070;  691.500
1126.377;    5.815;  -12.640;  599.660
1126.918;    5.227;  -12.960;  614.980
1127.458;    4.406;  -13.350;  622.220
1127.999;    5.855;  -10.750;  656.980
1128.539;    5.806;  -12.350;  694.240
1129.079;    4.012;  -14.860;  632.720
1129.620;    4.392;  -13.840;  558.100
1130.160;    4.756;  -12.330;  539.480
1130.700;    5.100;  -14.530;  640.840
1131.240;    4.967;  -12.530;  643.700
1131.781;    4.185;  -14.450;  619.680
1132.321;    4.737;   -9.790;  599.120
1132.861;    3.208;  -14.860;  564.200
1133.401;    3.431;  -14.290;  593.940
1133.941;    3.811;  -11.750;  626.280
1134.481;    4.213;   -9.920;  597.580
1135.020;    3.817;  -12.290;  609.160
1135.560;    3.835;  -11.650;  674.940
1136.100;    3.092;  -16.270;  501.160
1136.640;    3.568;  -10.890;  510.480
1137.179;    3.410;  -14.180;  537.960
1137.719;    3.084;  -16.250;  605.400
1138.258;    3.234;  -14.230;  587.360
1138.798;    4.070;   -9.090;  663.780
1139.337;    2.405;  -15.130;  482.840
1139.877;    3.790;  -13.680;  642.360
1140.416;    4.901;  -11.320;  878.060
1140.955;    3.122;  -10.860;  535.380
1141.494;    2.371;  -12.920;  669.280
1142.034;    2.496;  -13.930;  583.520
1142.573;    3.424;  -11.440;  646.280
1143.112;    2.907;  -12.000;  553.480
1143.651;    2.155;  -13.670;  536.480
1144.190;    2.519;  -12.730;  691.640
1144.729;    2.165;  -14.560;  607.420
1145.267;    2.834;  -11.830;  584.900
1145.806;    3.430;  -12.230;  637.040
1146.345;    1.967;  -14.130;  635.020
1146.884;    1.422;  -11.590;  622.500
1147.422;    1.292;  -12.550;  533.060
1147.961;    3.365;  -11.180;  708.460
1148.500;    2.537;  -11.510;  669.720
1149.038;    2.411;  -11.640;  632.500
1149.577;    3.122;  -10.130;  698.640
1150.115;    0.390;  -13.970;  452.280
1150.653;    1.976;  -14.520;  607.340
1151.192;    1.235;  -12.810;  552.920
1151.730;    1.498;   -9.100;  652.560
1152.268;    0.763;  -12.220;  589.520
1152.806;    0.823;  -14.140;  571.180
1153.344;    0.231;  -12.350;  577.640
1153.882;    1.415;   -8.980;  600.060
1154.421;   -0.050;  -15.190;  470.620
1154.958;    0.004;  -15.210;  595.240
1155.496;    2.193;  -12.850;  645.280
1156.034;    1.681;   -9.940;  721.880
1156.572;    1.818;  -13.570;  667.060
1157.110;   -0.575;  -14.590;  473.940
1157.647;    1.231;  -13.030;  676.960
1158.185;    0.046;  -12.140;  564.320
1158.723;   -0.824;  -14.390;  509.200
1159.260;    0.602;  -14.090;  701.700
1159.798;    0.300;  -11.920;  658.160
1160.335;    0.169;  -11.110;  631.820

