
Integration time [ms]:   3.276
Averaging Nr. [scans]: 1000
Smoothing Nr. [pixels]: 0
Data measured with spectrometer [name]: 7414430SP
Wave   ;Sample   ;Dark     ;Reference
[nm]   ;[counts] ;[counts] ;[counts] 

288.544;  159.119;    7.793;  793.890
289.143;  161.367;    7.462;  681.602
289.742;  161.882;    8.602;  828.814
290.341;  150.210;    1.321;  789.841
290.940;  140.316;   -0.709;  730.702
291.538;  141.168;    0.881;  881.108
292.137;  140.064;    0.122;  792.581
292.736;  143.351;   -1.929;  975.101
293.335;  138.767;   -8.229;  735.086
293.934;  140.862;   -5.279;  781.677
294.532;  141.250;   -1.369; 1031.958
295.131;  127.142;   -7.641;  834.394
295.730;  126.361;   -8.420;  809.588
296.328;  124.122;   -5.611;  783.442
296.927;  123.730;   -5.781;  779.652
297.525;  124.637;   -6.361;  781.236
298.124;  117.403;  -11.382;  654.009
298.722;  120.542;   -7.641;  761.933
299.321;  117.101;   -6.811;  708.597
299.919;  114.512;   -6.991;  751.918
300.518;  111.521;  -10.362;  689.338
301.116;  113.639;   -9.581;  691.381
301.715;  114.705;   -4.891;  730.222
302.313;  112.480;   -8.801;  704.943
302.911;  107.422;   -8.522;  733.830
303.509;  112.273;   -6.171;  925.627
304.108;  110.090;   -7.311;  760.383
304.706;  110.545;   -8.321;  801.664
305.304;  104.203;  -10.222;  796.707
305.902;  108.772;   -6.021;  784.484
306.500;  104.673;   -4.971;  728.200
307.098;  103.872;   -7.061;  746.560
307.696;  102.122;   -8.801;  780.432
308.294;  101.889;   -6.411;  731.359
308.892;  103.038;   -2.901;  759.769
309.490;   99.039;   -5.041;  712.161
310.088;   98.669;   -5.002;  788.444
310.686;  102.286;   -2.041;  821.749
311.284;   97.785;   -2.351;  766.040
311.882;   96.140;   -4.422;  731.225
312.480;   93.290;   -4.192;  697.167
313.078;   94.653;   -1.172;  808.331
313.675;   94.374;   -2.601;  691.600
314.273;   89.851;   -1.312;  797.837
314.871;   88.259;   -3.942;  589.829
315.468;   86.894;   -2.802;  652.090
316.066;   89.314;   -0.701;  694.427
316.664;   82.482;   -4.362;  656.351
317.261;   87.630;   -2.872;  910.128
317.859;   82.363;   -2.022;  768.735
318.456;   82.702;   -0.531;  830.096
319.054;   79.458;   -3.912;  787.828
319.651;   76.920;   -4.752;  759.928
320.249;   75.293;   -2.602;  810.188
320.846;   73.799;   -0.821;  714.286
321.443;   71.087;   -4.642;  832.135
322.041;   69.054;   -5.002;  812.315
322.638;   65.836;   -3.982;  701.456
323.235;   67.275;   -3.411;  665.683
323.833;   64.606;   -7.361;  740.354
324.430;   59.532;   -8.611;  615.900
325.027;   61.073;   -4.061;  876.855
325.624;   60.733;   -4.031;  644.532
326.221;   57.235;   -7.481;  689.717
326.818;   56.016;   -5.281;  818.332
327.415;   59.282;   -7.460;  748.828
328.012;   58.369;   -5.510;  690.585
328.609;   57.535;   -7.880;  731.389
329.206;   56.198;   -8.331;  778.621
329.803;   55.826;   -5.121;  737.841
330.400;   57.767;   -4.510;  704.260
330.997;   59.881;   -6.441;  817.147
331.594;   58.321;   -8.831;  788.185
332.191;   63.402;   -7.621;  728.722
332.787;   66.702;   -4.591;  844.463
333.384;   65.793;   -7.412;  763.093
333.981;   66.088;   -8.293;  815.687
334.578;   68.237;   -7.052;  708.378
335.174;   70.490;   -3.102;  731.469
335.771;   69.329;   -5.943;  836.456
336.367;   67.625;   -7.393;  710.631
336.964;   72.391;   -4.063;  793.266
337.561;   68.699;   -3.813;  731.112
338.157;   64.893;   -4.654;  911.916
338.754;   64.176;   -7.934;  796.589
339.350;   61.436;   -4.414;  722.493
339.946;   62.825;   -4.664;  773.135
340.543;   55.567;   -6.375;  846.136
341.139;   49.894;   -9.815;  720.836
341.735;   46.984;   -4.526;  772.593
342.332;   45.545;   -4.895;  691.472
342.928;   46.061;   -4.295;  795.394
343.524;   39.060;   -5.476;  761.684
344.120;   35.182;   -5.856;  738.562
344.716;   38.924;   -2.155;  723.717
345.313;   36.312;   -6.275;  795.342
345.909;   31.339;   -8.815;  627.336
346.505;   32.443;   -5.305;  740.247
347.101;   33.522;   -2.674;  827.864
347.697;   33.147;   -4.344;  785.398
348.293;   28.111;   -9.975;  627.244
348.889;   28.407;   -5.774;  745.914
349.485;   28.242;   -5.004;  688.205
350.081;   29.058;   -4.704;  772.592
350.676;   24.112;   -6.635;  691.606
351.272;   28.251;   -4.504;  809.530
351.868;   27.978;   -3.914;  780.497
352.464;   25.491;   -9.044;  723.932
353.059;   21.624;   -8.314;  646.017
353.655;   24.896;   -7.024;  777.063
354.251;   25.693;   -5.343;  759.845
354.846;   20.474;   -8.604;  740.646
355.442;   18.412;   -6.945;  753.071
356.038;   20.362;   -7.564;  751.708
356.633;   20.088;   -5.814;  728.594
357.229;   17.221;   -7.364;  724.757
357.824;   16.003;   -8.024;  703.600
358.420;   14.984;   -9.384;  679.726
359.015;   15.061;   -5.104;  695.357
359.610;   15.956;   -6.854;  763.920
360.206;   10.687;  -10.185;  603.240
360.801;   13.172;   -7.054;  646.503
361.396;   15.570;   -5.034;  725.975
361.992;   10.728;   -8.284;  668.220
362.587;    8.010;   -8.625;  670.160
363.182;    9.402;   -7.674;  689.631
363.777;   10.573;   -5.164;  738.242
364.372;   10.644;   -8.604;  737.314
364.967;    6.248;   -9.055;  680.744
365.563;   10.150;   -6.114;  815.567
366.158;    8.560;   -5.814;  685.161
366.753;    8.899;   -7.854;  649.263
367.348;    6.710;   -7.804;  746.056
367.942;    6.001;   -7.954;  697.298
368.537;    5.055;   -4.984;  754.245
369.132;    6.134;   -8.564;  703.428
369.727;    2.183;   -8.855;  638.079
370.322;    3.609;   -6.245;  580.186
370.917;    2.713;   -6.425;  710.646
371.511;    5.809;   -6.294;  861.834
372.106;    2.114;   -7.685;  776.964
372.701;   -1.150;   -7.335;  585.988
373.296;    4.421;   -4.564;  863.135
373.890;   -0.386;  -10.235;  647.840
374.485;   -2.403;   -7.885;  691.199
375.079;    1.635;   -7.324;  738.685
375.674;    1.854;   -3.494;  812.970
376.268;   -1.414;   -8.525;  691.759
376.863;   -7.846;  -10.086;  580.327
377.457;   -1.431;   -7.025;  662.490
378.052;   -2.726;   -3.585;  764.884
378.646;   -3.505;   -7.595;  741.167
379.240;   -4.032;   -8.335;  721.176
379.835;   -3.316;   -5.785;  636.978
380.429;   -6.054;   -4.335;  562.557
381.023;   -5.149;   -6.805;  779.205
381.617;   -7.244;   -9.195;  680.106
382.212;   -4.573;   -6.905;  685.303
382.806;   -3.494;   -3.745;  760.690
383.400;   -7.820;   -7.745;  672.281
383.994;   -8.916;   -9.765;  664.870
384.588;   -5.262;   -6.564;  697.701
385.182;   -3.866;   -5.344;  726.624
385.776;   -5.862;   -8.514;  706.875
386.370;   -8.216;   -9.555;  681.968
386.964;   -7.673;   -8.715;  684.155
387.558;   -6.199;   -6.174;  598.360
388.152;   -9.311;   -8.725;  681.959
388.745;   -7.147;   -7.965;  814.707
389.339;   -5.339;   -5.924;  747.642
389.933;   -4.954;   -5.524;  695.370
390.527;   -6.362;   -7.114;  859.029
391.120;  -12.376;  -10.725;  595.318
391.714;   -8.938;   -8.035;  711.633
392.308;   -6.042;   -3.574;  780.253
392.901;   -9.283;   -7.245;  642.460
393.495;  -11.711;   -9.285;  595.414
394.089;   -9.497;   -5.895;  760.452
394.682;   -9.887;   -4.295;  697.188
395.275;   -9.706;   -9.875;  719.927
395.869;  -11.514;   -8.485;  667.314
396.462;  -10.055;   -7.455;  616.609
397.056;   -6.322;   -5.424;  776.621
397.649;  -10.615;   -6.605;  731.575
398.242;   -8.687;   -8.224;  712.645
398.836;   -8.063;   -7.474;  766.408
399.429;   -8.537;   -7.094;  631.041
400.022;  -12.424;   -9.475;  665.902
400.615;   -9.444;   -7.145;  805.609
401.208;   -7.739;   -7.174;  691.451
401.802;  -10.385;   -5.515;  699.329
402.395;  -10.895;   -9.875;  683.502
402.988;  -12.544;   -8.845;  696.627
403.581;   -8.931;   -8.874;  646.878
404.174;   -6.247;   -5.324;  686.568
404.767;   -9.077;   -9.575;  638.583
405.360;  -12.363;  -10.965;  621.445
405.953;   -6.888;   -8.764;  759.034
406.545;   -6.422;   -7.514;  725.342
407.138;  -10.437;  -10.025;  618.350
407.731;   -9.128;  -10.034;  613.303
408.324;   -4.792;   -9.374;  660.554
408.917;   -6.333;   -6.534;  681.864
409.509;   -7.457;   -8.004;  740.396
410.102;   -9.585;   -9.875;  643.948
410.695;   -3.886;   -8.604;  665.758
411.287;   -4.837;   -6.794;  599.821
411.880;   -5.877;   -9.334;  585.421
412.472;   -9.112;  -10.254;  613.092
413.065;   -5.914;   -6.714;  629.408
413.657;   -4.550;   -7.234;  576.678
414.250;   -3.609;  -10.544;  646.681
414.842;   -5.923;   -9.744;  676.353
415.434;   -3.363;   -6.994;  570.463
416.027;    0.077;   -5.893;  652.196
416.619;   -1.662;   -7.264;  713.400
417.211;   -1.067;  -10.374;  599.352
417.804;    2.388;   -7.993;  628.499
418.396;   -2.065;   -7.234;  607.643
418.988;   -0.071;   -9.443;  659.238
419.580;   -2.628;  -10.724;  568.276
420.172;   -1.393;  -10.323;  536.196
420.764;    2.931;   -8.793;  672.482
421.356;    2.402;  -11.143;  636.898
421.948;    0.950;   -8.293;  677.661
422.540;    6.473;   -7.893;  680.027
423.132;    5.071;   -7.082;  600.641
423.724;    2.079;   -8.653;  561.267
424.316;    4.291;  -10.213;  621.345
424.908;    7.515;   -9.762;  591.517
425.500;    8.234;   -5.572;  647.978
426.092;    8.994;   -8.422;  648.268
426.683;    7.924;   -9.283;  684.836
427.275;   10.475;   -7.852;  641.471
427.867;   13.130;   -5.272;  668.948
428.458;   12.436;   -7.682;  732.344
429.050;   11.241;  -10.612;  680.749
429.642;   13.811;   -9.882;  743.124
430.233;   13.669;   -6.962;  569.356
430.825;   15.046;   -6.842;  724.809
431.416;   12.601;   -9.672;  698.241
432.008;   16.239;   -6.552;  651.723
432.599;   17.400;   -6.891;  656.073
433.190;   14.158;  -10.912;  637.670
433.782;   13.617;  -11.172;  590.395
434.373;   20.913;   -6.061;  884.765
434.964;   19.404;   -8.251;  602.920
435.556;   16.636;   -9.722;  634.537
436.147;   20.100;   -9.082;  758.490
436.738;   20.268;   -8.041;  701.099
437.329;   25.482;   -7.341;  721.723
437.920;   18.916;   -8.162;  666.688
438.511;   18.166;  -11.802;  564.526
439.103;   25.285;  -10.191;  623.998
439.694;   26.913;   -7.601;  681.583
440.285;   28.060;   -8.541;  764.432
440.876;   26.517;   -9.751;  845.738
441.466;   26.113;   -9.401;  575.162
442.057;   30.828;   -7.760;  665.814
442.648;   29.625;   -9.971;  746.255
443.239;   27.617;  -11.001;  620.477
443.830;   32.852;   -7.990;  704.958
444.421;   34.101;   -7.910;  655.474
445.011;   31.055;   -8.131;  693.619
445.602;   31.393;   -7.111;  743.126
446.193;   32.373;  -10.920;  488.117
446.783;   36.662;   -6.500;  640.397
447.374;   33.409;   -8.671;  692.759
447.964;   33.047;  -10.781;  713.770
448.555;   41.939;   -9.650;  822.742
449.145;   38.713;   -8.660;  662.853
449.736;   39.369;   -8.990;  803.179
450.326;   39.678;   -9.500;  713.626
450.917;   43.994;   -8.680;  675.324
451.507;   43.643;   -7.520;  600.661
452.097;   44.864;   -8.590;  746.267
452.688;   45.088;  -11.340;  742.160
453.278;   46.054;  -10.100;  566.840
453.868;   49.587;   -6.019;  793.550
454.458;   47.369;   -9.440;  651.141
455.048;   48.510;  -10.560;  711.783
455.639;   49.851;  -11.799;  567.096
456.229;   52.370;   -6.899;  710.694
456.819;   55.818;   -7.389;  751.158
457.409;   55.165;  -11.119;  773.993
457.999;   58.649;   -9.289;  737.505
458.589;   58.965;   -6.139;  686.606
459.179;   58.606;   -8.729;  717.658
459.769;   56.699;   -9.789;  627.099
460.358;   61.587;  -10.259;  797.262
460.948;   60.752;   -7.299;  689.503
461.538;   62.679;  -10.289;  660.677
462.128;   61.420;  -11.269;  664.934
462.717;   67.335;   -9.368;  710.326
463.307;   70.814;   -7.908;  705.846
463.897;   66.872;   -9.599;  656.942
464.486;   66.813;   -9.769;  837.128
465.076;   70.959;   -8.048;  733.776
465.666;   73.983;   -9.358;  652.900
466.255;   72.576;   -7.919;  785.651
466.845;   70.432;  -11.689;  666.749
467.434;   74.691;   -7.818;  725.873
468.023;   75.533;   -7.678;  658.357
468.613;   73.048;  -10.939;  713.946
469.202;   77.670;  -10.118;  646.507
469.791;   81.343;   -9.108;  737.811
470.381;   83.286;   -6.058;  742.813
470.970;   83.261;  -10.428;  711.099
471.559;   83.651;  -10.268;  733.291
472.148;   87.114;   -8.448;  675.737
472.738;   88.999;   -6.917;  765.466
473.327;   88.704;  -11.978;  637.529
473.916;   89.266;  -11.888;  737.446
474.505;   92.328;   -9.437;  751.703
475.094;   95.883;   -6.747;  806.570
475.683;   95.780;   -9.367;  797.699
476.272;   96.062;  -12.637;  730.632
476.861;   99.305;  -10.027;  706.754
477.449;  105.463;   -8.716;  728.487
478.038;  100.536;   -9.577;  692.513
478.627;  101.689;   -9.718;  714.852
479.216;  108.051;   -8.947;  769.441
479.805;  110.480;   -6.256;  783.375
480.393;  111.261;   -7.937; 1008.945
480.982;  110.470;   -7.717;  874.501
481.571;  116.772;   -9.266;  858.333
482.159;  117.845;   -7.636;  705.386
482.748;  117.662;   -9.667;  821.385
483.336;  122.583;  -10.376;  858.209
483.925;  124.190;   -7.147;  774.373
484.513;  129.815;   -7.996;  758.962
485.102;  128.456;  -10.027;  810.965
485.690;  136.382;  -10.446; 1011.050
486.278;  138.305;   -8.446;  979.329
486.867;  138.889;   -6.356;  809.662
487.455;  141.490;   -9.136;  898.229
488.043;  143.373;  -10.646;  748.361
488.631;  153.049;   -7.456; 1005.079
489.220;  157.210;   -6.636;  908.626
489.808;  158.074;  -11.036;  741.415
490.396;  166.767;  -10.246;  914.645
490.984;  175.102;   -8.556;  830.161
491.572;  185.142;   -5.886;  940.315
492.160;  195.637;   -9.486;  919.081
492.748;  209.050;  -10.976;  884.341
493.336;  234.405;   -8.776; 1019.693
493.924;  265.767;   -5.465;  958.077
494.512;  304.008;   -9.986; 1066.638
495.100;  356.958;  -10.636; 1103.280
495.687;  424.632;  -10.885; 1206.373
496.275;  484.064;   -8.126; 1150.796
496.863;  559.504;  -10.586; 1281.171
497.451;  685.399;  -11.926; 1386.805
498.038;  807.386;  -10.885; 1556.729
498.626;  915.439;   -6.315; 1741.407
499.214; 1087.590;   -7.326; 2016.609
499.801; 1329.041;  -11.906; 2220.633
500.389; 1603.712;  -10.466; 2312.494
500.976; 1881.004;   -5.236; 2744.849
501.564; 2346.254;   -8.936; 3148.565
502.151; 2859.019;  -13.176; 3515.999
502.738; 3431.168;  -10.646; 3971.274
503.326; 3865.069;   -9.525; 4403.796
503.913; 4190.099;  -10.856; 5161.749
504.500; 4730.960;  -11.586; 5986.420
505.088; 5091.855;  -10.336; 6381.201
505.675; 5591.116;   -6.355; 6925.547
506.262; 6095.322;   -9.046; 7619.060
506.849; 6611.658;  -10.416; 8733.969
507.436; 7109.815;  -10.305; 9790.121
508.023; 7612.429;   -5.496; 9985.472
508.610; 8552.072;   -7.856;10434.618
509.197;10037.840;  -10.097;11198.435
509.784;11668.406;  -10.886;12391.194
510.371;13189.772;   -9.315;13603.713
510.958;14103.927;   -9.936;14426.586
511.545;14672.562;   -9.326;15243.775
512.132;15317.365;  -10.075;15945.876
512.719;15495.877;   -7.796;16340.369
513.305;16491.102;  -10.606;18011.766
513.892;17986.156;  -11.486;19754.971
514.479;19911.340;   -9.126;20967.805
515.066;21663.029;   -6.026;22299.793
515.652;21991.471;   -8.466;22908.660
516.239;23130.057;  -10.886;23798.875
516.825;25338.961;  -11.496;25567.275
517.412;27340.873;   -5.796;28154.959
517.998;29421.496;  -10.506;28344.111
518.585;29221.146;  -10.076;27134.219
519.171;27774.363;   -8.315;27268.576
519.758;28713.719;   -8.596;28964.129
520.344;29958.129;   -8.466;30664.494
520.930;32832.906;  -11.006;32550.605
521.516;33451.988;  -10.495;35422.895
522.103;31789.363;   -5.526;38280.004
522.689;32420.652;   -8.746;37835.117
523.275;34211.055;  -11.376;37288.613
523.861;36237.453;  -11.156;37281.395
524.447;39641.555;   -8.135;37846.949
525.033;40683.555;   -7.896;38321.949
525.619;40334.945;  -12.476;38579.285
526.205;40486.117;   -9.516;40622.875
526.791;40074.238;   -6.926;42258.836
527.377;41411.363;   -8.346;42966.902
527.963;43126.934;   -8.717;42018.949
528.549;41872.750;  -11.016;42476.828
529.135;42026.293;   -8.536;41854.852
529.721;41663.746;   -9.666;41237.711
530.306;39945.488;  -10.066;41259.445
530.892;39953.820;  -11.356;41506.047
531.478;39459.117;   -6.596;43559.613
532.063;39900.051;   -8.836;47695.563
532.649;43999.184;  -10.047;50808.324
533.235;45556.727;   -9.746;51787.500
533.820;44467.203;   -6.566;52145.035
534.406;43287.840;  -10.817;51133.488
534.991;46319.199;   -9.416;49996.805
535.576;47666.512;   -9.036;48882.852
536.162;47980.348;   -6.156;46942.285
536.747;49223.285;  -11.607;45711.746
537.333;49517.789;  -11.787;48510.180
537.918;49400.340;  -12.437;50439.891
538.503;50519.844;   -7.196;50863.711
539.088;47905.602;  -10.556;50906.922
539.673;46293.742;   -8.767;52621.965
540.259;47489.367;  -10.026;52368.094
540.844;49415.734;   -7.416;50879.109
541.429;48572.262;   -9.467;52077.777
542.014;48441.289;   -9.527;52716.695
542.599;50836.738;   -9.946;52363.281
543.184;53919.574;   -7.927;53187.137
543.769;52491.211;   -9.297;54697.605
544.354;48703.477;  -10.127;53913.914
544.938;46663.301;   -9.267;49680.164
545.523;49173.934;   -6.506;47386.277
546.108;53451.156;   -9.787;49151.949
546.693;52836.375;  -11.587;51384.637
547.278;52211.352;  -10.986;51853.254
547.862;48645.254;   -8.206;51173.750
548.447;45923.117;  -10.067;51691.395
549.031;46899.305;   -9.637;52456.703
549.616;48136.609;   -9.926;52714.516
550.201;46803.410;   -6.347;52414.598
550.785;45909.941;   -7.917;52355.059
551.370;46648.648;  -10.867;54589.453
551.954;47489.820;   -9.047;58267.348
552.538;49110.344;   -7.827;59062.176
553.123;49059.547;  -10.287;58115.285
553.707;44666.805;  -12.178;56556.285
554.291;45554.844;   -8.717;56201.668
554.876;48947.059;   -7.457;55335.762
555.460;49971.367;  -10.387;54155.703
556.044;50791.090;   -9.618;53721.484
556.628;49948.137;  -11.567;53731.016
557.212;47963.371;   -8.097;54312.531
557.796;49041.977;  -11.077;53797.773
558.380;46787.762;  -11.108;56145.984
558.964;45439.230;   -9.057;57277.930
559.548;45585.590;   -6.977;56459.641
560.132;44918.668;  -11.457;54434.543
560.716;43807.047;  -11.378;54800.617
561.300;44680.238;   -9.577;57606.945
561.884;46550.777;   -7.127;58972.445
562.467;47342.336;   -7.118;57327.570
563.051;46887.563;  -13.358;54962.434
563.635;44692.602;  -10.178;52594.473
564.219;44045.438;   -7.837;50610.410
564.802;43604.582;  -11.398;49551.180
565.386;44838.117;  -12.788;48370.953
565.969;45393.344;   -9.077;48178.871
566.553;45651.223;   -6.207;49957.305
567.136;42818.867;   -8.568;50369.594
567.720;41826.242;  -11.868;49492.004
568.303;41871.566;   -8.268;50616.352
568.887;40597.527;   -8.698;50727.148
569.470;40725.012;   -6.808;51698.379
570.053;39461.426;  -13.188;52122.078
570.637;38042.328;  -12.037;52536.438
571.220;37402.641;   -8.577;51186.098
571.803;37803.531;   -8.498;51032.762
572.386;40422.137;  -10.498;49609.887
572.969;42150.313;   -9.388;48285.926
573.552;38467.801;   -8.338;47624.285
574.135;36271.059;   -8.518;45498.641
574.718;32958.391;  -13.628;41970.434
575.301;32432.459;  -10.893;41447.137
575.884;31906.529;   -8.158;40923.836
576.467;36885.449;  -10.328;45267.723
577.050;35491.273;  -13.058;48175.543
577.633;34237.848;   -9.458;47729.328
578.216;35605.371;   -8.928;47579.793
578.799;36666.141;   -9.358;47820.996
579.381;36258.031;  -11.388;48115.551
579.964;33393.828;  -11.718;47333.766
580.547;33401.613;   -8.588;46668.969
581.129;34952.855;   -8.859;44466.141
581.712;35371.332;  -10.729;44164.922
582.294;36658.660;  -11.118;46477.855
582.877;34412.320;   -5.218;48244.254
583.459;34332.391;   -8.679;47437.895
584.042;36356.391;  -10.709;46943.219
584.624;38679.152;  -11.669;46792.227
585.206;37542.918;   -8.218;46557.250
585.789;36007.699;  -10.569;45793.773
586.371;36113.711;  -11.859;43836.391
586.953;34684.805;  -10.719;42972.492
587.536;36281.262;   -7.198;42487.211
588.118;37596.188;   -8.720;42086.414
588.700;37045.336;  -10.439;43389.930
589.282;37252.387;   -9.198;43646.039
589.864;36197.375;   -9.199;43438.109
590.446;33639.691;  -11.319;43151.926
591.028;33113.484;  -11.159;42781.867
591.610;33120.055;  -11.779;42839.098
592.192;30308.268;   -7.668;42820.402
592.774;31147.588;  -11.949;40724.277
593.356;32273.965;  -12.129;39874.789
593.937;30460.146;  -10.669;39980.648
594.519;31828.088;   -6.509;42069.633
595.101;33665.609;  -10.849;42976.031
595.683;32418.133;  -11.679;44084.441
596.264;31761.604;   -9.049;43478.797
596.846;33546.641;   -8.849;43803.672
597.427;33821.895;   -9.570;42986.934
598.009;34933.410;  -12.620;42832.219
598.591;34238.137;  -10.039;42580.086
599.172;33279.211;  -10.369;43061.805
599.753;31457.184;   -9.140;41691.469
600.335;31180.709;  -11.430;40692.520
600.916;31845.275;   -9.939;39982.422
601.498;30847.254;   -8.479;40318.617
602.079;29525.430;  -10.920;40670.609
602.660;31383.496;  -11.480;41450.898
603.241;33096.953;  -11.699;41137.738
603.823;33705.797;   -9.579;38868.797
604.404;33362.223;  -10.620;38182.785
604.985;31940.832;  -10.450;38078.047
605.566;31212.699;   -9.129;38056.633
606.147;31072.143;   -7.510;37020.418
606.728;32229.002;  -10.660;37883.359
607.309;33273.352;  -11.740;38748.273
607.890;32929.328;   -9.759;38850.230
608.471;31317.303;   -8.250;37457.918
609.051;31537.926;   -9.240;36066.457
609.632;29790.355;  -12.120;35991.074
610.213;28693.344;   -9.110;37402.641
610.794;30286.807;   -8.030;38383.363
611.374;32624.023;   -8.110;40562.387
611.955;32600.746;  -13.560;38533.727
612.536;29952.900;  -11.400;36951.789
613.116;28561.064;   -8.070;37197.891
613.697;30739.150;  -10.830;38411.125
614.277;32295.764;  -11.641;38673.938
614.858;31620.586;  -13.310;37075.863
615.438;29809.340;   -7.460;35092.906
616.019;28158.373;   -7.601;33666.301
616.599;28978.447;  -12.020;34189.023
617.179;30893.010;  -11.780;36952.047
617.760;33611.789;   -8.570;39582.574
618.340;33680.270;  -11.471;38943.977
618.920;32165.217;  -11.170;37594.156
619.500;34026.348;  -11.071;37866.938
620.080;34242.863;   -7.750;37869.043
620.660;32568.463;  -12.711;36868.617
621.241;31138.482;  -10.211;36352.309
621.821;30030.584;  -10.961;35459.520
622.401;28897.119;   -7.720;35207.414
622.980;29797.824;   -8.981;35980.422
623.560;30350.555;   -9.331;37351.328
624.140;29382.080;   -9.850;34388.582
624.720;26946.566;   -7.451;32368.764
625.300;25258.219;   -9.070;32638.629
625.880;28781.512;  -12.601;34599.035
626.459;30744.750;  -11.751;36831.738
627.039;31161.193;   -9.281;38299.098
627.619;33109.148;   -8.801;38289.574
628.198;32687.158;  -12.071;37220.695
628.778;31246.867;   -9.461;37632.563
629.357;32202.688;   -8.491;38003.012
629.937;32487.445;   -9.721;38402.039
630.516;32576.590;   -9.951;37868.801
631.096;32904.926;  -11.731;35760.410
631.675;34211.719;   -8.572;35225.219
632.254;33814.027;  -11.282;35130.289
632.834;33285.734;  -13.322;35794.570
633.413;32925.098;  -10.301;35788.922
633.992;32192.271;   -8.582;34532.863
634.571;33808.082;   -8.352;33590.113
635.151;34026.863;  -11.912;34943.863
635.730;33133.832;  -10.511;35352.523
636.309;35313.695;   -7.731;35366.605
636.888;33411.180;   -9.952;36165.637
637.467;31363.777;  -11.672;37515.902
638.046;31128.590;   -8.901;39288.695
638.625;31961.457;   -7.912;38279.699
639.204;32677.977;  -10.022;37741.598
639.782;30762.895;  -12.252;38364.551
640.361;28732.967;  -10.041;36740.621
640.940;27763.514;  -11.161;34950.082
641.519;28832.918;   -9.701;34137.398
642.097;30658.146;  -11.271;35654.258
642.676;32200.711;   -8.651;35637.957
643.255;33605.234;   -8.711;36567.074
643.833;31304.314;   -9.581;37809.434
644.412;28923.496;  -13.711;37337.293
644.990;30717.572;  -11.811;37018.531
645.569;33141.723;   -9.411;36518.469
646.147;32450.063;  -10.291;36186.430
646.726;31373.342;  -12.401;36267.688
647.304;31448.781;  -10.411;36647.625
647.882;30690.990;   -9.651;39286.742
648.461;31930.693;   -9.631;39157.703
649.039;35287.770;  -11.881;35412.883
649.617;35813.055;   -9.661;34744.918
650.195;33579.688;   -9.301;35403.098
650.773;32350.646;  -10.511;35053.797
651.352;31536.813;  -11.521;33756.816
651.930;28932.502;  -12.211;31868.773
652.508;25702.441;   -9.171;33121.551
653.086;26577.754;   -9.371;33564.793
653.663;32157.252;  -13.161;34054.668
654.241;36022.172;  -13.031;35693.309
654.819;37226.617;   -9.371;36422.906
655.397;37349.055;  -10.511;38213.484
655.975;33719.137;  -10.371;39507.625
656.553;30569.916;  -10.051;39498.223
657.130;29140.418;  -10.061;40395.480
657.708;27185.432;   -9.561;39242.020
658.286;24431.168;  -11.511;38920.020
658.863;26295.617;  -10.261;40202.898
659.441;30146.947;   -7.531;39677.938
660.018;32091.957;   -9.501;40413.355
660.596;31303.375;  -13.301;39931.414
661.173;30738.262;  -11.211;39604.531
661.750;32479.363;   -9.951;39700.070
662.328;31734.254;   -9.390;39292.809
662.905;30667.088;  -11.330;38235.648
663.482;28173.830;   -9.050;36212.305
664.060;25619.883;   -8.240;35944.945
664.637;26382.113;  -10.050;35170.785
665.214;29681.818;  -11.760;34197.523
665.791;30256.504;  -10.530;34549.520
666.368;28950.955;   -9.690;35118.578
666.945;30111.063;   -9.320;36019.418
667.522;30516.898;  -11.860;36048.438
668.099;31956.225;  -10.770;36243.914
668.676;32124.691;   -6.260;35958.875
669.253;34580.258;   -7.000;37384.730
669.830;36033.555;  -10.190;36779.629
670.407;32926.254;   -9.550;35231.289
670.984;33168.852;   -9.260;35544.270
671.560;30444.227;   -9.280;35466.867
672.137;26195.256;  -11.810;34280.863
672.714;27889.373;  -11.490;34632.863
673.290;31820.307;   -7.740;35135.422
673.867;31525.803;  -10.660;36114.480
674.443;31681.506;  -12.230;36152.859
675.020;31450.498;  -10.450;35327.238
675.596;30131.430;   -9.260;35795.176
676.173;29102.215;  -10.780;35430.355
676.749;28628.801;  -13.690;33549.516
677.326;28402.059;  -11.980;32210.012
677.902;27771.996;   -8.630;32068.871
678.478;29511.652;  -10.730;32583.891
679.054;30275.967;  -10.520;32088.928
679.631;29639.619;  -11.920;30978.848
680.207;29748.854;   -7.490;33160.887
680.783;31577.359;   -9.860;35570.363
681.359;32924.020;  -13.380;36125.184
681.935;33375.859;  -12.480;35240.922
682.511;32536.748;   -7.900;34429.961
683.087;31394.826;   -7.710;34463.680
683.663;31147.189;  -11.480;34648.898
684.239;30203.650;  -14.090;34546.457
684.815;29222.799;   -7.560;35586.375
685.390;29542.369;   -9.910;35821.895
685.966;30717.143;  -11.159;35085.871
686.542;32058.381;  -11.169;34198.230
687.118;33434.961;   -5.959;32847.707
687.693;32434.594;  -10.329;32794.027
688.269;33232.602;  -12.059;33072.367
688.844;33444.828;  -10.909;33141.664
689.420;30816.254;   -8.019;33965.742
689.995;29371.467;   -8.399;34655.523
690.571;30893.986;  -10.949;33576.742
691.146;30616.820;   -9.619;32657.219
691.722;29056.252;   -8.999;32526.979
692.297;28414.848;  -11.589;33014.617
692.872;28362.459;  -11.739;34012.254
693.448;31096.096;  -11.059;34237.434
694.023;31630.490;  -10.139;34142.672
694.598;29513.463;   -9.029;34132.031
695.173;30668.355;  -13.319;34205.250
695.748;31362.340;  -10.169;32882.488
696.323;29041.799;   -8.339;32864.906
696.898;27175.701;   -8.169;33170.004
697.473;27586.000;  -12.309;32432.984
698.048;27660.484;  -10.989;31649.303
698.623;26517.973;   -9.329;30778.141
699.198;27478.518;   -9.849;31140.119
699.773;28534.066;  -12.329;31764.299
700.348;29823.676;  -10.389;31780.816
700.922;30107.191;   -9.269;32046.375
701.497;30870.689;   -9.329;32603.574
702.072;31897.201;  -10.789;34799.871
702.646;31025.738;  -10.839;35793.172
703.221;30359.016;   -9.099;35201.590
703.795;32304.791;  -10.939;34764.527
704.370;29907.900;  -12.859;34307.367
704.944;28303.293;  -11.559;33509.887
705.519;29222.498;   -7.939;31388.584
706.093;31348.449;  -10.499;31340.104
706.668;33667.582;  -11.289;32630.281
707.242;33299.125;  -11.509;32728.779
707.816;31190.811;   -9.639;32947.238
708.390;29791.824;  -11.429;33277.855
708.965;29164.740;  -11.869;33834.336
709.539;30765.910;  -11.689;33709.273
710.113;31197.951;  -10.478;33044.313
710.687;30387.422;  -10.228;31953.992
711.261;29476.824;  -13.698;30505.949
711.835;29820.209;  -13.378;30262.369
712.409;28932.811;   -9.698;31254.447
712.983;28328.090;  -11.898;32754.986
713.557;30667.375;  -15.138;34018.824
714.131;28891.254;  -14.098;34579.625
714.704;28385.734;   -9.958;33890.262
715.278;30262.309;  -10.028;33531.102
715.852;28837.168;  -11.148;33601.660
716.425;27746.510;   -9.068;33515.117
716.999;26567.621;  -10.038;33185.555
717.573;26257.867;   -9.798;33905.996
718.146;25666.902;  -12.378;35199.293
718.720;26024.143;  -11.918;35060.551
719.293;26316.533;   -8.088;34973.230
719.867;28552.939;  -10.888;36394.449
720.440;30326.473;  -11.938;36663.008
721.013;30963.824;  -12.818;35102.426
721.587;28820.146;  -10.298;33985.266
722.160;27040.783;  -10.048;33524.965
722.733;26446.066;  -12.108;32987.043
723.306;26721.992;  -10.818;33066.301
723.880;28331.637;   -8.908;33399.500
724.453;27932.115;   -9.878;33468.297
725.026;28064.189;  -11.188;33816.637
725.599;30781.996;  -11.678;32797.996
726.172;30194.242;   -9.618;33187.434
726.745;27498.881;   -8.258;35136.613
727.318;27148.402;  -12.978;35751.730
727.891;26706.365;  -12.148;35890.430
728.463;25835.404;   -8.968;34822.090
729.036;25612.922;  -10.188;32895.086
729.609;25578.840;  -11.788;31823.225
730.182;23659.629;  -11.788;31445.283
730.754;22274.756;  -10.268;32373.223
731.327;22329.088;   -9.998;33676.820
731.900;23681.213;  -12.228;33417.000
732.472;23808.723;  -13.848;31978.498
733.045;23042.510;   -8.698;30368.777
733.617;22498.824;  -10.607;30574.215
734.190;24301.611;  -11.507;31280.975
734.762;25288.373;  -13.647;31674.412
735.334;26545.369;   -9.767;31247.291
735.907;27060.811;   -9.897;29876.211
736.479;26728.416;  -11.637;29808.488
737.051;27735.094;   -9.567;30233.547
737.623;27347.037;   -8.187;31469.086
738.195;26133.602;  -11.187;31784.225
738.768;24823.787;  -12.337;32120.523
739.340;23094.479;  -12.227;32094.342
739.912;22234.340;  -11.057;31312.680
740.484;22197.639;  -10.207;31946.238
741.056;21927.424;  -10.047;32984.059
741.628;22960.529;  -13.627;33897.715
742.199;23879.979;   -7.177;33213.016
742.771;26104.879;  -10.797;31369.113
743.343;26954.852;  -11.997;31865.473
743.915;26629.842;  -12.867;32388.631
744.487;24125.313;   -7.617;31079.568
745.058;21207.299;   -9.557;30570.107
745.630;22136.145;   -9.877;29970.127
746.201;23876.150;  -14.177;29186.766
746.773;24548.613;   -9.237;28805.723
747.344;22773.367;   -9.847;29591.223
747.916;20981.754;  -11.657;31412.201
748.487;21924.188;  -10.587;32194.898
749.059;23609.580;   -8.707;32533.719
749.630;23779.088;  -10.537;32158.518
750.201;23125.064;  -11.687;30855.395
750.773;21893.910;  -11.647;28622.555
751.344;21632.387;   -7.147;28405.732
751.915;23611.717;   -9.757;28461.551
752.486;24814.939;  -12.427;27842.850
753.057;23808.482;  -12.227;27845.008
753.628;23895.055;  -10.417;27728.107
754.199;23447.105;  -11.767;27381.086
754.770;22946.303;  -11.187;25882.203
755.341;21894.441;  -10.507;25886.184
755.912;20305.783;   -9.387;26050.861
756.483;18836.104;  -10.647;26798.779
757.054;19315.314;  -11.837;27048.238
757.625;19344.885;  -12.716;26294.838
758.195;19095.330;   -9.666;26142.076
758.766;19354.389;   -8.656;26392.234
759.337;18908.676;  -12.856;26334.594
759.907;18761.980;  -13.366;27579.652
760.478;18439.658;   -8.576;28352.770
761.048;19383.482;  -10.526;27325.088
761.619;19508.822;  -11.116;26460.428
762.189;18147.785;  -12.136;26029.826
762.760;17851.648;   -9.456;26430.145
763.330;18344.639;   -7.136;26670.902
763.900;18528.412;  -11.786;26603.021
764.471;18006.859;  -11.546;25542.740
765.041;17045.045;   -8.096;24358.459
765.611;16285.056;   -8.876;23991.297
766.181;16282.229;  -12.196;24470.236
766.751;16097.354;  -11.636;24845.975
767.321;17040.633;  -10.156;24533.633
767.891;16488.393;  -11.766;24916.492
768.461;16716.068;  -14.936;24776.771
769.031;17794.299;  -12.356;24757.988
769.601;18410.648;   -7.526;24181.088
770.171;18158.279;  -10.766;23670.387
770.741;17419.379;  -13.176;22960.045
771.311;17021.482;  -10.616;22917.523
771.880;17274.555;   -9.576;23562.941
772.450;16876.725;  -10.336;24216.500
773.020;16408.977;  -13.516;24140.398
773.589;16912.598;  -13.466;24414.857
774.159;16753.664;   -8.686;23858.717
774.729;15509.118;   -9.476;22942.135
775.298;13869.677;  -13.666;22324.033
775.867;13646.536;  -11.716;21140.313
776.437;13847.397;   -9.906;20838.092
777.006;13110.092;  -12.166;20599.510
777.576;12569.135;  -12.356;20508.809
778.145;12425.479;  -11.646;20732.947
778.714;12849.426;   -8.226;21062.465
779.283;13870.345;   -9.556;20949.664
779.853;14481.303;  -14.116;20508.623
780.422;13944.317;  -11.506;20649.082
780.991;13554.673;   -9.556;21527.520
781.560;13211.533;   -9.095;22632.658
782.129;12992.686;  -12.135;23048.277
782.698;12884.950;  -10.865;23438.555
783.267;12593.872;   -9.335;23267.734
783.836;12648.533;  -11.045;22415.133
784.404;13303.110;  -13.865;20443.152
784.973;12660.631;  -13.095;19699.150
785.542;11389.071;  -11.575;19763.828
786.111;10758.338;   -9.705;20341.408
786.679;11338.943;  -12.105;20207.967
787.248;11585.600;  -12.455;19516.465
787.817;11320.805;  -11.535;18900.363
788.385;11469.363;   -9.765;17879.121
788.954;11485.565;  -14.005;17658.301
789.522;10954.542;  -11.955;17788.879
790.090;11183.434;  -10.135;18118.277
790.659;12118.890;  -10.975;18338.736
791.227;12030.410;  -13.375;18508.615
791.795;11416.524;  -12.375;17898.254
792.364;10901.859;  -10.725;17295.133
792.932;11057.388;   -9.715;16822.051
793.500;11173.500;  -12.675;17040.148
794.068;10935.915;  -13.495;17179.787
794.636; 9842.003;  -10.885;16664.246
795.204; 8828.170;  -11.045;16524.545
795.772; 9402.710;  -13.175;17274.564
796.340;10508.252;  -12.445;17891.002
796.908;10358.421;   -9.735;17648.561
797.476;10681.851;   -9.815;17064.080
798.044;11459.564;  -13.985;16672.777
798.612;11316.742;  -13.115;17023.996
799.180;10100.984;  -10.185;16561.615
799.747; 9103.602;   -9.055;15962.773
800.315; 8488.159;  -12.385;15296.992
800.883; 8755.351;  -15.035;14801.771
801.450; 9048.286;  -10.365;14534.430
802.018; 9166.659;   -9.855;14173.248
802.585; 9355.555;  -11.905;14029.547
803.153; 8969.124;  -11.585;13836.846
803.720; 8383.658;   -9.095;13567.324
804.287; 8460.071;   -9.135;13360.622
804.855; 8780.509;  -11.604;13681.981
805.422; 8881.670;  -11.794;13536.560
805.989; 8707.314;  -10.734;13355.958
806.556; 8272.110;  -10.444;13747.896
807.124; 8147.378;  -12.764;13987.376
807.691; 8691.516;  -12.964;14038.674
808.258; 9069.017;  -11.134;14120.152
808.825; 9242.631;   -9.854;13860.111
809.392; 8929.983;  -10.504;13268.790
809.959; 8481.810;  -13.054;12680.389
810.526; 8298.300;   -8.294;12427.308
811.093; 7957.959;   -8.394;12030.105
811.659; 7220.396;  -12.304;11653.664
812.226; 7033.098;  -13.944;11637.183
812.793; 7555.895;  -10.484;11611.521
813.360; 7698.738;  -10.144;11885.181
813.926; 7032.509;  -11.684;12770.539
814.493; 6398.249;  -13.644;12677.638
815.060; 6238.306;   -9.724;11974.336
815.626; 6559.148;   -9.854;11594.715
816.193; 6587.781;  -13.254;11579.474
816.759; 6560.840;  -13.204;11666.972
817.325; 6349.996;   -9.434;11325.530
817.892; 6053.631;  -10.134;11105.369
818.458; 5989.565;  -13.474;10843.928
819.024; 5980.915;  -11.854;10714.406
819.591; 6255.646;  -10.244;10469.165
820.157; 6368.328;  -10.704;10235.523
820.723; 6639.186;  -12.324;10847.563
821.289; 7022.663;   -9.444;11040.980
821.855; 7048.962;   -8.374;10357.100
822.421; 6686.285;  -10.234; 9978.918
822.987; 6459.580;  -13.294; 9754.177
823.553; 6337.074;  -10.884;10065.755
824.119; 5926.997;   -8.884;10036.294
824.685; 5750.145;   -6.784;10029.192
825.251; 5703.205;  -12.004;10199.230
825.816; 5808.984;  -11.474; 9820.189
826.382; 5583.351;   -9.174; 9297.248
826.948; 5289.848;   -9.214; 9381.347
827.513; 5060.797;  -10.774; 9450.726
828.079; 5009.924;  -11.924; 9472.444
828.645; 5097.350;  -10.543; 9292.643
829.210; 5305.631;  -10.533; 9065.341
829.776; 5333.010;  -10.753; 9132.620
830.341; 5242.843;  -10.173; 9092.878
830.906; 5324.091;  -10.743; 9078.557
831.472; 5216.451;  -11.113; 8534.535
832.037; 4742.214;  -10.603; 8677.874
832.602; 4627.762;  -13.323; 8628.692
833.167; 4977.402;  -10.823; 8879.031
833.733; 4954.408;  -10.113; 9189.790
834.298; 4705.574;  -13.583; 9052.608
834.863; 4569.654;  -12.703; 8895.087
835.428; 4436.375;  -10.523; 8824.266
835.993; 4373.001;   -6.963; 8845.385
836.558; 4456.926;  -10.763; 8888.563
837.123; 4576.787;   -9.903; 8966.582
837.688; 4424.222;   -9.913; 8617.860
838.253; 4293.471;  -10.283; 8590.699
838.817; 4450.204;  -12.963; 8443.797
839.382; 4619.811;  -14.243; 8799.356
839.947; 4488.587;  -10.733; 8810.595
840.511; 4544.516;   -9.383; 8796.394
841.076; 4574.289;  -12.563; 8347.231
841.641; 4396.743;  -12.953; 8224.330
842.205; 4130.439;   -7.043; 8223.349
842.770; 4078.817;   -8.163; 8622.107
843.334; 4118.370;  -12.503; 8410.386
843.898; 4096.383;  -11.693; 8337.465
844.463; 3994.217;  -10.203; 8506.283
845.027; 3889.020;   -9.533; 8280.962
845.591; 3919.781;  -13.443; 8231.141
846.156; 3844.178;  -13.143; 7969.179
846.720; 3665.916;   -9.433; 7768.278
847.284; 3380.460;  -11.033; 7630.957
847.848; 3220.390;  -10.403; 7472.395
848.412; 3250.407;  -11.553; 7437.394
848.976; 3454.834;   -8.393; 7674.592
849.540; 3523.217;   -8.713; 7836.011
850.104; 3503.152;  -12.463; 7913.669
850.668; 3607.255;  -12.973; 7694.508
851.232; 3633.612;  -10.793; 7756.887
851.796; 3556.476;  -10.662; 7926.545
852.359; 3591.291;  -13.082; 7827.844
852.923; 3348.366;  -12.192; 7641.163
853.487; 3253.143;  -11.912; 7342.501
854.050; 3415.210;  -10.892; 7042.820
854.614; 3402.927;  -13.992; 7151.338
855.177; 3264.273;  -11.732; 7105.077
855.741; 3177.677;   -8.962; 6989.675
856.304; 3082.123;   -9.442; 6596.634
856.868; 2863.663;  -14.192; 6356.272
857.431; 2656.340;  -12.702; 6468.571
857.995; 2677.438;   -9.942; 6373.210
858.558; 2704.844;   -9.112; 6324.448
859.121; 2532.466;  -12.932; 6408.327
859.684; 2470.188;  -13.442; 6347.886
860.247; 2864.496;  -10.632; 6321.264
860.810; 3197.138;  -11.272; 6301.903
861.374; 3224.848;   -9.832; 6607.881
861.937; 3198.327;  -11.762; 6408.200
862.500; 3068.068;   -9.722; 6572.639
863.062; 2769.722;  -10.512; 6387.297
863.625; 2646.809;  -11.232; 6190.836
864.188; 2631.409;  -14.112; 5807.254
864.751; 2620.974;  -11.302; 5682.413
865.314; 2730.115;  -10.112; 5547.492
865.876; 2766.196;  -12.182; 5500.150
866.439; 2686.924;  -10.722; 5415.909
867.002; 2540.060;   -9.252; 5501.567
867.564; 2435.212;   -9.572; 5413.946
868.127; 2315.045;  -13.142; 5160.325
868.689; 2040.709;  -12.902; 5133.183
869.252; 1907.986;   -9.732; 5252.382
869.814; 1928.626;   -9.432; 5297.141
870.377; 2034.711;  -11.552; 5390.919
870.939; 2021.951;   -9.052; 5599.898
871.501; 1946.844;  -10.982; 5248.336
872.063; 1973.108;  -12.292; 4854.235
872.626; 1970.331;  -14.912; 4817.074
873.188; 1970.886;  -13.112; 4987.732
873.750; 1929.498;  -13.442; 4868.651
874.312; 1991.740;   -9.402; 4779.330
874.874; 2128.796;  -11.062; 4866.348
875.436; 2023.867;  -13.931; 4718.887
875.998; 1743.031;   -9.561; 4660.005
876.560; 1585.631;  -11.321; 4462.964
877.122; 1576.097;  -12.221; 4145.042
877.683; 1551.204;  -12.191; 4056.481
878.245; 1631.381;  -12.101; 3950.740
878.807; 1776.573;   -8.971; 4058.958
879.369; 1810.011;  -12.071; 3954.677
879.930; 1738.417;  -14.621; 3941.495
880.492; 1575.215;  -10.311; 4067.014
881.053; 1421.289;  -10.901; 3859.633
881.615; 1400.979;  -14.411; 3776.071
882.176; 1429.135;  -13.761; 3734.750
882.738; 1446.619;   -9.181; 3678.489
883.299; 1411.856;  -11.791; 3405.407
883.860; 1334.849;  -13.121; 3351.106
884.422; 1230.036;  -11.211; 3394.044
884.983; 1152.120;  -10.091; 3166.443
885.544; 1132.356;   -8.461; 3189.802
886.105; 1081.269;  -12.361; 3160.360
886.666; 1008.269;  -14.141; 3093.059
887.227;  976.683;  -11.361; 2941.957
887.788;  989.557;  -11.401; 2974.836
888.349;  946.467;  -13.791; 2721.214
888.910;  854.775;  -13.191; 2696.493
889.471;  754.702;   -9.881; 2560.172
890.032;  682.958;   -9.881; 2558.190
890.593;  680.765;  -10.371; 2567.669
891.153;  684.882;  -13.301; 2460.307
891.714;  626.950;  -11.431; 2372.046
892.275;  578.466;  -11.291; 2309.505
892.835;  564.063;  -11.471; 2382.543
893.396;  551.219;  -11.541; 2295.502
893.956;  542.349;  -11.181; 2162.420
894.517;  529.421;  -11.741; 2125.439
895.077;  484.386;  -11.671; 2086.978
895.638;  436.421;  -11.311; 2126.316
896.198;  417.197;   -9.831; 1838.275
896.758;  416.851;   -8.421; 1892.813
897.319;  410.719;  -12.351; 1792.232
897.879;  392.865;  -13.511; 1762.751
898.439;  368.209;  -12.001; 1661.149
898.999;  347.487;  -10.180; 1781.468
899.559;  335.029;  -12.030; 1703.347
900.119;  325.199;  -15.710; 1537.525
900.679;  305.729;   -8.900; 1638.384
901.239;  280.328;   -8.340; 1527.902
901.799;  266.774;  -13.910; 1456.441
902.359;  256.241;  -13.460; 1357.140
902.919;  251.169;  -11.490; 1331.118
903.479;  248.037;  -12.110; 1317.257
904.038;  241.084;  -11.720; 1262.595
904.598;  226.386;  -13.610; 1152.034
905.158;  215.243;  -11.040; 1240.893
905.717;  209.271;  -10.900; 1233.691
906.277;  205.212;  -15.080; 1217.330
906.836;  201.794;  -13.380; 1222.408
907.396;  198.880;  -10.780; 1193.047
907.955;  192.108;   -8.500; 1182.526
908.515;  185.974;  -12.760; 1099.364
909.074;  182.922;  -11.900; 1092.863
909.633;  179.408;   -8.950; 1069.121
910.192;  176.369;   -8.770; 1196.460
910.752;  172.432;  -12.390; 1029.960
911.311;  168.796;  -13.680; 1009.780
911.870;  165.005;  -12.370;  971.460
912.429;  160.683;  -10.900; 1094.080
912.988;  158.809;  -11.690; 1081.060
913.547;  154.687;  -13.240;  940.380
914.106;  153.192;  -11.990;  999.420
914.665;  153.863;   -9.990;  984.020
915.224;  153.032;  -12.880; 1035.760
915.782;  151.899;  -12.350;  922.560
916.341;  152.358;   -9.110; 1049.840
916.900;  149.618;   -9.270;  925.260
917.458;  146.655;  -13.240;  884.220
918.017;  145.159;  -13.550;  942.600
918.576;  145.686;  -12.320;  904.440
919.134;  144.058;  -11.490;  837.980
919.693;  143.092;  -13.670;  893.060
920.251;  141.783;  -15.470;  876.500
920.809;  140.254;  -11.290;  839.580
921.368;  140.031;  -10.210;  885.360
921.926;  139.581;  -12.140;  842.940
922.484;  139.038;  -13.080;  903.360
923.042;  138.383;  -11.720;  880.340
923.601;  140.220;   -7.480;  998.680
924.159;  138.399;  -11.570;  935.560
924.717;  138.172;  -13.840;  841.080
925.275;  139.320;  -10.640;  903.240
925.833;  138.315;  -11.540;  779.320
926.391;  138.804;  -12.960;  938.380
926.949;  138.415;  -14.130;  857.680
927.506;  138.682;  -11.750;  903.500
928.064;  137.846;  -10.250;  877.580
928.622;  136.632;  -13.030;  880.100
929.180;  138.105;  -13.400;  814.180
929.737;  139.711;  -10.700;  808.540
930.295;  140.822;  -10.070;  928.480
930.853;  140.963;  -11.960;  849.100
931.410;  139.780;  -13.120;  821.120
931.968;  141.054;  -10.770;  940.660
932.525;  140.984;  -10.680;  909.380
933.082;  145.049;  -13.130;  811.440
933.640;  149.606;  -13.210;  925.900
934.197;  150.865;  -11.060;  886.360
934.754;  150.925;   -9.580;  897.780
935.312;  151.439;  -14.000;  863.340
935.869;  154.526;  -10.710; 1012.980
936.426;  153.482;   -9.860;  872.800
936.983;  152.260;   -9.710;  889.020
937.540;  149.881;  -13.990;  838.280
938.097;  149.777;  -14.040;  940.120
938.654;  152.225;  -10.310;  898.860
939.211;  152.712;  -10.560;  952.480
939.768;  151.570;  -13.900;  915.420
940.324;  152.365;  -14.760;  904.200
940.881;  156.950;  -10.370;  878.500
941.438;  162.782;   -8.260; 1021.200
941.995;  163.864;  -12.540;  992.560
942.551;  161.943;  -14.670;  875.620
943.108;  161.787;  -10.450;  937.920
943.664;  163.156;  -10.750;  869.340
944.221;  169.015;  -11.550; 1088.140
944.777;  171.238;  -14.770;  869.680
945.334;  169.802;  -12.820;  884.840
945.890;  168.351;  -10.130;  946.480
946.446;  166.040;  -13.470;  947.020
947.003;  166.115;  -12.120;  964.940
947.559;  166.760;   -9.980; 1063.040
948.115;  162.938;   -9.080; 1026.540
948.671;  159.858;  -10.830;  967.300
949.227;  156.764;  -12.440;  859.560
949.783;  156.760;  -12.910;  858.900
950.339;  158.976;  -10.270;  991.000
950.895;  159.892;  -13.630; 1023.840
951.451;  158.670;  -15.100;  925.280
952.007;  158.386;  -11.330;  998.540
952.563;  156.637;  -10.580;  937.780
953.118;  152.341;  -13.440;  904.940
953.674;  149.399;  -12.710;  935.780
954.230;  150.638;  -10.350;  949.640
954.785;  153.072;   -9.190;  936.640
955.341;  155.826;  -11.200;  998.160
955.897;  151.339;  -16.560;  834.660
956.452;  150.181;  -12.570;  953.840
957.008;  147.624;   -7.970; 1083.640
957.563;  147.647;  -11.940; 1009.540
958.118;  145.815;  -13.450;  877.700
958.674;  145.347;  -12.030;  946.780
959.229;  144.430;   -9.410; 1013.980
959.784;  143.630;  -12.000;  832.400
960.339;  140.751;  -14.780; 1001.280
960.894;  134.736;   -9.860;  963.760
961.449;  130.031;   -9.970;  859.960
962.004;  128.529;  -10.900; 1212.840
962.559;  122.871;  -13.150;  860.140
963.114;  120.581;  -13.740;  742.480
963.669;  122.569;   -9.820;  915.500
964.224;  121.949;  -13.890;  874.340
964.779;  122.732;  -12.600;  828.420
965.334;  122.722;  -10.950; 1017.860
965.888;  120.240;  -11.170;  875.360
966.443;  121.360;  -12.540;  972.380
966.998;  121.412;  -15.780;  819.460
967.552;  120.760;   -9.760;  908.380
968.107;  115.752;   -9.060;  868.300
968.661;  114.196;  -11.950;  922.440
969.216;  113.341;  -12.800;  856.280
969.770;  113.097;  -11.210;  917.200
970.324;  110.963;  -11.610;  923.140
970.879;  109.478;  -11.370;  947.180
971.433;  108.948;  -12.540;  952.720
971.987;  107.154;  -11.320;  895.340
972.541;  105.689;  -10.720;  917.100
973.095;  107.011;   -9.680; 1009.460
973.649;  105.834;  -11.440;  809.480
974.203;  105.249;  -11.210;  829.040
974.757;  105.846;  -10.240;  855.220
975.311;  106.081;  -13.720;  872.600
975.865;  105.933;  -13.770;  881.820
976.419;  105.147;  -11.690;  857.400
976.973;  105.172;   -9.510;  849.620
977.526;  105.336;  -12.620;  949.920
978.080;  102.434;  -12.010;  796.780
978.634;  100.763;  -10.170;  921.320
979.187;   97.439;   -9.020;  905.400
979.741;   96.953;   -9.820; 1018.380
980.294;   92.465;  -14.870;  789.160
980.848;   89.027;  -12.380;  717.220
981.401;   87.656;  -10.350;  816.540
981.955;   88.350;  -13.720;  844.300
982.508;   85.684;  -11.490;  746.340
983.061;   85.668;  -10.000;  915.260
983.615;   84.142;  -11.480;  798.800
984.168;   84.304;  -13.220;  770.080
984.721;   83.942;  -13.960;  880.760
985.274;   81.858;  -10.870;  867.500
985.827;   79.563;   -9.790;  834.220
986.380;   78.751;  -13.120;  721.340
986.933;   79.008;  -12.450;  864.800
987.486;   78.906;  -10.210;  861.920
988.039;   78.329;   -8.430;  863.100
988.591;   75.738;  -10.520;  893.260
989.144;   71.796;  -14.860;  737.260
989.697;   70.320;  -13.080;  758.740
990.250;   69.758;  -10.150;  858.100
990.802;   66.816;  -13.430;  755.860
991.355;   67.244;  -12.750;  974.880
991.907;   64.385;  -12.040;  864.320
992.460;   61.527;  -11.330;  753.760
993.012;   61.519;  -13.610;  749.540
993.565;   60.030;  -13.460;  711.360
994.117;   61.782;   -9.360;  950.780
994.669;   58.946;  -11.300;  701.320
995.221;   58.327;  -13.540;  791.920
995.774;   57.895;  -13.430;  787.580
996.326;   56.955;  -12.520;  740.220
996.878;   56.933;  -10.950;  838.420
997.430;   54.883;  -14.300;  699.860
997.982;   53.560;  -13.760;  750.140
998.534;   53.462;  -11.530;  739.060
999.086;   51.507;  -10.310;  738.220
999.638;   50.996;  -12.530;  661.380
1000.190;   49.691;  -11.840;  699.320
1000.741;   49.355;  -10.260;  742.700
1001.293;   49.161;   -8.860;  686.020
1001.845;   48.632;  -13.700;  676.640
1002.396;   48.871;  -12.100;  743.400
1002.948;   48.661;  -12.760;  737.400
1003.500;   46.663;  -10.380;  723.780
1004.051;   46.819;  -11.900;  907.580
1004.603;   45.980;  -12.250;  791.820
1005.154;   43.640;  -13.210;  608.980
1005.705;   41.949;  -10.950;  723.960
1006.257;   41.328;  -13.880;  707.220
1006.808;   41.814;  -12.840;  685.460
1007.359;   40.872;  -10.570;  763.240
1007.910;   39.088;   -9.620;  646.640
1008.461;   39.584;  -13.630;  732.940
1009.013;   37.941;  -17.200;  588.340
1009.564;   40.079;  -10.200;  793.520
1010.115;   37.286;  -12.570;  597.040
1010.665;   37.410;  -15.150;  602.160
1011.216;   37.007;  -14.480;  667.920
1011.767;   36.685;  -11.340;  697.920
1012.318;   36.964;   -9.780;  736.980
1012.869;   34.785;  -12.380;  679.000
1013.419;   35.026;  -15.560;  603.120
1013.970;   35.290;  -11.010;  666.640
1014.521;   34.775;  -11.610;  620.620
1015.071;   35.125;  -13.450;  670.380
1015.622;   34.484;  -13.870;  635.460
1016.172;   33.613;  -11.610;  596.820
1016.723;   33.998;  -12.120;  614.380
1017.273;   34.078;  -13.620;  604.160
1017.823;   33.855;  -14.140;  650.340
1018.374;   32.431;  -12.800;  611.760
1018.924;   32.521;  -12.340;  716.880
1019.474;   33.278;  -11.410;  718.880
1020.024;   31.523;  -14.770;  657.580
1020.574;   31.895;   -9.780;  726.160
1021.124;   32.592;   -8.560;  673.580
1021.674;   30.924;  -15.190;  559.120
1022.224;   32.697;  -13.530;  708.940
1022.774;   31.946;  -13.280;  668.820
1023.324;   32.409;  -10.690;  753.520
1023.874;   33.882;  -10.240;  875.760
1024.423;   30.695;  -12.540;  613.700
1024.973;   31.127;  -10.010;  610.760
1025.523;   29.578;  -10.550;  620.960
1026.072;   29.321;  -13.560;  606.420
1026.622;   29.205;  -15.120;  675.740
1027.172;   30.520;  -11.260;  715.660
1027.721;   29.053;  -11.410;  601.220
1028.270;   29.495;  -13.530;  663.400
1028.820;   28.862;  -13.680;  638.080
1029.369;   28.955;  -13.520;  612.700
1029.918;   29.377;  -10.980;  649.840
1030.468;   28.466;  -13.530;  564.780
1031.017;   28.820;  -13.170;  634.800
1031.566;   28.042;  -12.200;  608.900
1032.115;   28.239;   -9.960;  694.500
1032.664;   27.571;  -13.210;  596.480
1033.213;   28.375;  -12.500;  735.420
1033.762;   27.400;  -11.910;  635.620
1034.311;   26.533;   -9.640;  677.220
1034.860;   27.933;  -13.310;  691.000
1035.408;   27.166;  -11.830;  722.720
1035.957;   27.372;  -12.000;  719.540
1036.506;   25.338;  -11.690;  530.800
1037.055;   28.937;  -10.990;  844.320
1037.603;   25.897;  -15.120;  664.000
1038.152;   25.331;  -12.450;  534.760
1038.700;   24.721;  -10.560;  585.740
1039.249;   25.461;  -11.080;  681.220
1039.797;   25.661;  -12.540;  633.360
1040.345;   25.051;  -11.920;  705.420
1040.894;   24.585;  -11.410;  625.300
1041.442;   24.599;  -14.320;  632.200
1041.990;   23.813;  -16.240;  559.160
1042.538;   23.435;  -11.680;  536.180
1043.087;   23.834;  -10.760;  570.860
1043.635;   25.188;  -11.850;  670.500
1044.183;   24.138;  -15.480;  586.400
1044.731;   22.984;  -11.770;  576.000
1045.279;   23.226;  -13.090;  674.920
1045.827;   25.550;  -12.440;  892.400
1046.374;   22.277;  -13.840;  515.420
1046.922;   21.787;  -13.220;  590.580
1047.470;   23.857;  -10.230;  691.300
1048.018;   24.022;  -14.590;  647.960
1048.565;   23.906;  -12.050;  708.600
1049.113;   22.360;  -11.650;  557.000
1049.660;   21.650;  -10.510;  629.660
1050.208;   23.268;  -13.310;  675.640
1050.755;   21.379;  -15.900;  606.580
1051.303;   23.463;  -11.430;  686.820
1051.850;   20.585;   -8.480;  635.120
1052.397;   19.993;  -15.010;  473.960
1052.945;   20.481;  -13.960;  617.760
1053.492;   22.185;  -13.150;  741.840
1054.039;   21.825;   -9.630;  720.180
1054.586;   20.383;  -13.680;  557.240
1055.133;   21.780;  -14.570;  693.140
1055.680;   22.198;  -13.820;  646.620
1056.227;   20.328;  -11.730;  542.780
1056.774;   22.103;  -12.480;  794.980
1057.321;   19.187;  -13.930;  523.260
1057.868;   20.233;  -11.690;  651.320
1058.415;   19.976;   -9.520;  651.980
1058.961;   21.140;  -13.160;  678.940
1059.508;   20.774;  -12.920;  643.820
1060.055;   19.362;  -11.920;  581.780
1060.601;   19.444;  -11.500;  624.300
1061.148;   19.908;  -14.330;  616.820
1061.694;   18.935;  -16.870;  592.580
1062.241;   19.165;  -10.330;  596.320
1062.787;   19.452;  -10.620;  663.140
1063.334;   20.798;  -10.110;  808.560
1063.880;   19.204;  -13.400;  668.360
1064.426;   19.101;  -10.680;  706.820
1064.972;   18.017;   -9.920;  601.340
1065.518;   16.735;  -10.980;  566.640
1066.065;   18.345;  -14.890;  624.460
1066.611;   17.585;  -12.870;  598.800
1067.157;   18.754;  -12.950;  641.860
1067.703;   18.258;  -13.540;  668.480
1068.249;   18.000;  -13.540;  605.220
1068.794;   18.186;  -12.600;  626.880
1069.340;   16.914;  -10.620;  578.960
1069.886;   17.236;  -12.830;  590.700
1070.432;   15.888;  -14.870;  541.720
1070.977;   16.166;  -11.980;  601.080
1071.523;   16.424;   -8.200;  573.060
1072.068;   16.613;  -12.330;  582.000
1072.614;   16.095;  -16.370;  527.760
1073.160;   16.901;  -11.100;  687.040
1073.705;   15.582;  -10.480;  572.520
1074.250;   16.698;  -14.520;  559.900
1074.796;   17.291;  -11.460;  655.160
1075.341;   17.376;  -11.950;  664.100
1075.886;   15.722;  -11.460;  594.240
1076.431;   15.690;  -13.770;  649.880
1076.976;   15.678;  -12.680;  639.220
1077.521;   14.550;  -13.170;  583.080
1078.067;   14.443;  -10.860;  579.400
1078.612;   15.541;  -13.920;  661.620
1079.156;   15.390;  -13.880;  601.540
1079.701;   15.446;  -13.120;  693.260
1080.246;   15.242;   -9.940;  696.300
1080.791;   15.489;  -14.740;  625.020
1081.336;   15.209;  -13.750;  659.320
1081.880;   15.281;  -13.400;  649.680
1082.425;   14.099;  -12.220;  573.480
1082.970;   16.081;  -11.610;  717.040
1083.514;   13.835;  -13.580;  597.000
1084.059;   13.540;  -12.810;  586.720
1084.603;   12.982;  -12.320;  565.840
1085.147;   13.932;  -13.190;  645.220
1085.692;   14.808;  -12.480;  716.800
1086.236;   12.840;  -13.020;  503.140
1086.780;   14.483;   -9.190;  751.440
1087.325;   13.783;  -12.480;  654.620
1087.869;   13.489;  -12.450;  610.700
1088.413;   13.930;  -12.240;  705.040
1088.957;   11.847;   -9.020;  543.400
1089.501;   14.369;  -10.320;  766.640
1090.045;   12.468;  -12.720;  726.480
1090.589;   11.340;  -13.690;  569.920
1091.133;   12.291;  -10.020;  673.340
1091.676;   12.790;  -12.330;  591.940
1092.220;   11.636;  -14.970;  600.920
1092.764;   13.262;  -12.430;  706.960
1093.307;   12.432;   -9.800;  673.780
1093.851;   11.460;  -14.970;  556.540
1094.395;   12.253;  -15.310;  683.140
1094.938;   11.965;  -10.370;  632.520
1095.482;   12.135;  -11.050;  559.800
1096.025;   12.052;  -11.840;  710.880
1096.568;   12.698;  -12.840;  779.280
1097.112;   10.168;  -14.700;  508.180
1097.655;   11.637;   -8.720;  603.000
1098.198;    9.985;  -13.610;  600.180
1098.741;   10.630;  -13.350;  612.860
1099.285;   11.152;  -11.230;  657.300
1099.828;    9.594;  -11.840;  439.400
1100.371;   11.464;  -10.840;  608.160
1100.914;   10.989;  -14.190;  682.660
1101.457;   10.933;  -11.240;  679.900
1101.999;    9.123;  -11.270;  584.680
1102.542;   10.730;  -11.480;  641.440
1103.085;    9.363;  -11.750;  658.500
1103.628;   11.413;  -11.400;  762.060
1104.170;    9.219;  -10.490;  588.280
1104.713;   10.144;  -10.600;  646.700
1105.256;    8.775;  -14.360;  557.440
1105.798;    8.377;  -13.210;  499.980
1106.341;   10.376;  -10.270;  728.900
1106.883;    8.856;  -12.200;  521.340
1107.425;    9.958;  -13.110;  668.180
1107.968;    9.074;  -12.840;  612.380
1108.510;    9.924;   -6.480;  684.960
1109.052;    7.522;  -13.940;  612.620
1109.594;    8.060;  -13.690;  554.440
1110.136;    9.556;  -11.880;  643.220
1110.679;    7.851;   -9.500;  633.080
1111.221;    8.598;  -14.160;  604.460
1111.763;    8.228;  -13.980;  559.220
1112.304;    8.007;  -13.880;  547.140
1112.846;    9.076;  -12.210;  666.240
1113.388;   11.408;  -11.390;  942.180
1113.930;    8.280;  -14.540;  694.200
1114.472;    7.686;  -12.640;  606.540
1115.013;    6.099;  -11.620;  551.280
1115.555;    6.987;  -13.640;  587.100
1116.097;    6.230;  -15.380;  579.480
1116.638;    7.998;  -12.640;  684.600
1117.180;    7.645;   -9.850;  667.740
1117.721;    6.709;  -13.690;  568.580
1118.262;    8.155;  -12.680;  677.960
1118.804;    7.604;  -12.530;  637.340
1119.345;    6.766;  -11.690;  578.400
1119.886;    7.813;  -13.380;  704.040
1120.427;    6.427;  -14.070;  589.020
1120.969;    6.315;  -13.500;  597.920
1121.510;    5.419;  -11.480;  563.060
1122.051;    7.071;  -12.830;  723.580
1122.592;    6.056;  -14.290;  655.420
1123.133;    4.655;  -12.400;  547.940
1123.673;    7.405;  -10.130;  706.480
1124.214;    5.487;  -12.930;  612.460
1124.755;    6.823;  -14.380;  639.460
1125.296;    6.357;  -14.000;  627.320
1125.836;    6.634;  -10.070;  691.500
1126.377;    5.479;  -12.640;  599.660
1126.918;    5.696;  -12.960;  614.980
1127.458;    4.648;  -13.350;  622.220
1127.999;    5.805;  -10.750;  656.980
1128.539;    6.128;  -12.350;  694.240
1129.079;    5.385;  -14.860;  632.720
1129.620;    4.814;  -13.840;  558.100
1130.160;    4.168;  -12.330;  539.480
1130.700;    5.354;  -14.530;  640.840
1131.240;    5.014;  -12.530;  643.700
1131.781;    4.155;  -14.450;  619.680
1132.321;    4.384;   -9.790;  599.120
1132.861;    3.538;  -14.860;  564.200
1133.401;    3.989;  -14.290;  593.940
1133.941;    4.649;  -11.750;  626.280
1134.481;    3.800;   -9.920;  597.580
1135.020;    3.833;  -12.290;  609.160
1135.560;    4.173;  -11.650;  674.940
1136.100;    3.176;  -16.270;  501.160
1136.640;    3.375;  -10.890;  510.480
1137.179;    3.351;  -14.180;  537.960
1137.719;    4.322;  -16.250;  605.400
1138.258;    3.829;  -14.230;  587.360
1138.798;    3.560;   -9.090;  663.780
1139.337;    2.327;  -15.130;  482.840
1139.877;    3.521;  -13.680;  642.360
1140.416;    5.881;  -11.320;  878.060
1140.955;    2.208;  -10.860;  535.380
1141.494;    3.648;  -12.920;  669.280
1142.034;    2.355;  -13.930;  583.520
1142.573;    3.826;  -11.440;  646.280
1143.112;    2.221;  -12.000;  553.480
1143.651;    2.442;  -13.670;  536.480
1144.190;    3.987;  -12.730;  691.640
1144.729;    2.585;  -14.560;  607.420
1145.267;    2.349;  -11.830;  584.900
1145.806;    3.998;  -12.230;  637.040
1146.345;    2.037;  -14.130;  635.020
1146.884;    2.527;  -11.590;  622.500
1147.422;    1.133;  -12.550;  533.060
1147.961;    3.561;  -11.180;  708.460
1148.500;    2.861;  -11.510;  669.720
1149.038;    3.283;  -11.640;  632.500
1149.577;    2.209;  -10.130;  698.640
1150.115;    0.605;  -13.970;  452.280
1150.653;    1.880;  -14.520;  607.340
1151.192;    2.710;  -12.810;  552.920
1151.730;    1.327;   -9.100;  652.560
1152.268;    1.382;  -12.220;  589.520
1152.806;    1.466;  -14.140;  571.180
1153.344;    0.236;  -12.350;  577.640
1153.882;    1.509;   -8.980;  600.060
1154.421;    0.181;  -15.190;  470.620
1154.958;    0.636;  -15.210;  595.240
1155.496;    1.982;  -12.850;  645.280
1156.034;    1.808;   -9.940;  721.880
1156.572;    1.849;  -13.570;  667.060
1157.110;    0.702;  -14.590;  473.940
1157.647;    1.564;  -13.030;  676.960
1158.185;   -0.207;  -12.140;  564.320
1158.723;   -0.107;  -14.390;  509.200
1159.260;    0.914;  -14.090;  701.700
1159.798;    1.367;  -11.920;  658.160
1160.335;    0.017;  -11.110;  631.820

