
Integration time [ms]:   3.276
Averaging Nr. [scans]: 1000
Smoothing Nr. [pixels]: 0
Data measured with spectrometer [name]: 7414430SP
Wave   ;Sample   ;Dark     ;Reference
[nm]   ;[counts] ;[counts] ;[counts] 

288.544;  150.022;    7.793;  793.890
289.143;  152.924;    7.462;  681.602
289.742;  152.790;    8.602;  828.814
290.341;  139.228;    1.321;  789.841
290.940;  128.319;   -0.709;  730.702
291.538;  128.978;    0.881;  881.108
292.137;  128.773;    0.122;  792.581
292.736;  133.414;   -1.929;  975.101
293.335;  130.078;   -8.229;  735.086
293.934;  130.005;   -5.279;  781.677
294.532;  129.328;   -1.369; 1031.958
295.131;  114.583;   -7.641;  834.394
295.730;  115.621;   -8.420;  809.588
296.328;  114.759;   -5.611;  783.442
296.927;  114.512;   -5.781;  779.652
297.525;  115.929;   -6.361;  781.236
298.124;  105.846;  -11.382;  654.009
298.722;  110.000;   -7.641;  761.933
299.321;  107.820;   -6.811;  708.597
299.919;  105.889;   -6.991;  751.918
300.518;  103.243;  -10.362;  689.338
301.116;  103.351;   -9.581;  691.381
301.715;  104.114;   -4.891;  730.222
302.313;  103.215;   -8.801;  704.943
302.911;   98.977;   -8.522;  733.830
303.509;  104.359;   -6.171;  925.627
304.108;  101.383;   -7.311;  760.383
304.706;  101.071;   -8.321;  801.664
305.304;   95.914;  -10.222;  796.707
305.902;  100.494;   -6.021;  784.484
306.500;   96.537;   -4.971;  728.200
307.098;   94.724;   -7.061;  746.560
307.696;   93.280;   -8.801;  780.432
308.294;   92.823;   -6.411;  731.359
308.892;   96.004;   -2.901;  759.769
309.490;   91.717;   -5.041;  712.161
310.088;   89.521;   -5.002;  788.444
310.686;   93.732;   -2.041;  821.749
311.284;   89.718;   -2.351;  766.040
311.882;   87.496;   -4.422;  731.225
312.480;   85.064;   -4.192;  697.167
313.078;   86.246;   -1.172;  808.331
313.675;   87.255;   -2.601;  691.600
314.273;   82.601;   -1.312;  797.837
314.871;   81.176;   -3.942;  589.829
315.468;   79.044;   -2.802;  652.090
316.066;   81.866;   -0.701;  694.427
316.664;   74.734;   -4.362;  656.351
317.261;   79.552;   -2.872;  910.128
317.859;   74.443;   -2.022;  768.735
318.456;   75.339;   -0.531;  830.096
319.054;   70.700;   -3.912;  787.828
319.651;   69.593;   -4.752;  759.928
320.249;   68.552;   -2.602;  810.188
320.846;   65.910;   -0.821;  714.286
321.443;   64.419;   -4.642;  832.135
322.041;   60.847;   -5.002;  812.315
322.638;   59.066;   -3.982;  701.456
323.235;   60.389;   -3.411;  665.683
323.833;   58.151;   -7.361;  740.354
324.430;   52.928;   -8.611;  615.900
325.027;   52.991;   -4.061;  876.855
325.624;   52.824;   -4.031;  644.532
326.221;   50.365;   -7.481;  689.717
326.818;   50.554;   -5.281;  818.332
327.415;   53.144;   -7.460;  748.828
328.012;   52.001;   -5.510;  690.585
328.609;   51.688;   -7.880;  731.389
329.206;   49.634;   -8.331;  778.621
329.803;   49.515;   -5.121;  737.841
330.400;   52.127;   -4.510;  704.260
330.997;   54.144;   -6.441;  817.147
331.594;   52.903;   -8.831;  788.185
332.191;   57.523;   -7.621;  728.722
332.787;   59.852;   -4.591;  844.463
333.384;   58.754;   -7.412;  763.093
333.981;   57.846;   -8.293;  815.687
334.578;   61.136;   -7.052;  708.378
335.174;   63.526;   -3.102;  731.469
335.771;   62.646;   -5.943;  836.456
336.367;   60.641;   -7.393;  710.631
336.964;   62.886;   -4.063;  793.266
337.561;   60.485;   -3.813;  731.112
338.157;   57.294;   -4.654;  911.916
338.754;   55.409;   -7.934;  796.589
339.350;   52.263;   -4.414;  722.493
339.946;   54.525;   -4.664;  773.135
340.543;   46.887;   -6.375;  846.136
341.139;   41.637;   -9.815;  720.836
341.735;   39.065;   -4.526;  772.593
342.332;   38.130;   -4.895;  691.472
342.928;   38.218;   -4.295;  795.394
343.524;   33.005;   -5.476;  761.684
344.120;   28.669;   -5.856;  738.562
344.716;   31.624;   -2.155;  723.717
345.313;   29.974;   -6.275;  795.342
345.909;   24.710;   -8.815;  627.336
346.505;   25.890;   -5.305;  740.247
347.101;   26.604;   -2.674;  827.864
347.697;   27.140;   -4.344;  785.398
348.293;   22.381;   -9.975;  627.244
348.889;   22.079;   -5.774;  745.914
349.485;   21.305;   -5.004;  688.205
350.081;   22.539;   -4.704;  772.592
350.676;   18.406;   -6.635;  691.606
351.272;   21.741;   -4.504;  809.530
351.868;   21.651;   -3.914;  780.497
352.464;   19.371;   -9.044;  723.932
353.059;   14.998;   -8.314;  646.017
353.655;   18.401;   -7.024;  777.063
354.251;   20.039;   -5.343;  759.845
354.846;   14.187;   -8.604;  740.646
355.442;   12.149;   -6.945;  753.071
356.038;   13.888;   -7.564;  751.708
356.633;   13.604;   -5.814;  728.594
357.229;   12.100;   -7.364;  724.757
357.824;   10.855;   -8.024;  703.600
358.420;    9.282;   -9.384;  679.726
359.015;   10.188;   -5.104;  695.357
359.610;   10.489;   -6.854;  763.920
360.206;    4.627;  -10.185;  603.240
360.801;    7.198;   -7.054;  646.503
361.396;    9.538;   -5.034;  725.975
361.992;    6.174;   -8.284;  668.220
362.587;    2.938;   -8.625;  670.160
363.182;    4.425;   -7.674;  689.631
363.777;    5.716;   -5.164;  738.242
364.372;    5.622;   -8.604;  737.314
364.967;    1.482;   -9.055;  680.744
365.563;    4.577;   -6.114;  815.567
366.158;    3.007;   -5.814;  685.161
366.753;    3.723;   -7.854;  649.263
367.348;    1.670;   -7.804;  746.056
367.942;    1.715;   -7.954;  697.298
368.537;    0.691;   -4.984;  754.245
369.132;    0.168;   -8.564;  703.428
369.727;   -2.973;   -8.855;  638.079
370.322;   -1.591;   -6.245;  580.186
370.917;   -2.550;   -6.425;  710.646
371.511;    0.801;   -6.294;  861.834
372.106;   -2.732;   -7.685;  776.964
372.701;   -5.827;   -7.335;  585.988
373.296;   -0.342;   -4.564;  863.135
373.890;   -4.461;  -10.235;  647.840
374.485;   -7.363;   -7.885;  691.199
375.079;   -2.912;   -7.324;  738.685
375.674;   -1.669;   -3.494;  812.970
376.268;   -6.830;   -8.525;  691.759
376.863;  -11.576;  -10.086;  580.327
377.457;   -6.260;   -7.025;  662.490
378.052;   -7.629;   -3.585;  764.884
378.646;   -8.265;   -7.595;  741.167
379.240;   -8.427;   -8.335;  721.176
379.835;   -8.374;   -5.785;  636.978
380.429;  -10.184;   -4.335;  562.557
381.023;  -10.163;   -6.805;  779.205
381.617;  -12.539;   -9.195;  680.106
382.212;   -8.526;   -6.905;  685.303
382.806;   -8.169;   -3.745;  760.690
383.400;  -12.446;   -7.745;  672.281
383.994;  -12.900;   -9.765;  664.870
384.588;   -9.790;   -6.564;  697.701
385.182;   -8.233;   -5.344;  726.624
385.776;  -10.050;   -8.514;  706.875
386.370;  -12.556;   -9.555;  681.968
386.964;  -11.840;   -8.715;  684.155
387.558;  -10.097;   -6.174;  598.360
388.152;  -13.339;   -8.725;  681.959
388.745;  -11.045;   -7.965;  814.707
389.339;   -9.784;   -5.924;  747.642
389.933;   -9.027;   -5.524;  695.370
390.527;  -10.632;   -7.114;  859.029
391.120;  -16.491;  -10.725;  595.318
391.714;  -13.223;   -8.035;  711.633
392.308;   -9.875;   -3.574;  780.253
392.901;  -14.160;   -7.245;  642.460
393.495;  -15.536;   -9.285;  595.414
394.089;  -13.796;   -5.895;  760.452
394.682;  -15.084;   -4.295;  697.188
395.275;  -15.215;   -9.875;  719.927
395.869;  -15.298;   -8.485;  667.314
396.462;  -14.144;   -7.455;  616.609
397.056;  -11.088;   -5.424;  776.621
397.649;  -14.676;   -6.605;  731.575
398.242;  -12.601;   -8.224;  712.645
398.836;  -11.747;   -7.474;  766.408
399.429;  -13.122;   -7.094;  631.041
400.022;  -16.808;   -9.475;  665.902
400.615;  -13.749;   -7.145;  805.609
401.208;  -12.167;   -7.174;  691.451
401.802;  -14.782;   -5.515;  699.329
402.395;  -15.067;   -9.875;  683.502
402.988;  -16.358;   -8.845;  696.627
403.581;  -13.063;   -8.874;  646.878
404.174;  -10.720;   -5.324;  686.568
404.767;  -13.992;   -9.575;  638.583
405.360;  -15.303;  -10.965;  621.445
405.953;  -10.803;   -8.764;  759.034
406.545;  -10.369;   -7.514;  725.342
407.138;  -14.661;  -10.025;  618.350
407.731;  -13.458;  -10.034;  613.303
408.324;   -9.188;   -9.374;  660.554
408.917;  -10.522;   -6.534;  681.864
409.509;  -11.717;   -8.004;  740.396
410.102;  -13.852;   -9.875;  643.948
410.695;   -8.564;   -8.604;  665.758
411.287;   -9.318;   -6.794;  599.821
411.880;  -10.533;   -9.334;  585.421
412.472;  -13.404;  -10.254;  613.092
413.065;  -10.705;   -6.714;  629.408
413.657;   -9.220;   -7.234;  576.678
414.250;   -8.331;  -10.544;  646.681
414.842;  -10.218;   -9.744;  676.353
415.434;   -8.539;   -6.994;  570.463
416.027;   -4.230;   -5.893;  652.196
416.619;   -6.447;   -7.264;  713.400
417.211;   -6.532;  -10.374;  599.352
417.804;   -3.233;   -7.993;  628.499
418.396;   -6.687;   -7.234;  607.643
418.988;   -5.199;   -9.443;  659.238
419.580;   -7.984;  -10.724;  568.276
420.172;   -6.352;  -10.323;  536.196
420.764;   -1.474;   -8.793;  672.482
421.356;   -2.346;  -11.143;  636.898
421.948;   -3.611;   -8.293;  677.661
422.540;    2.014;   -7.893;  680.027
423.132;    0.476;   -7.082;  600.641
423.724;   -2.366;   -8.653;  561.267
424.316;   -0.564;  -10.213;  621.345
424.908;    2.495;   -9.762;  591.517
425.500;    3.075;   -5.572;  647.978
426.092;    4.572;   -8.422;  648.268
426.683;    2.752;   -9.283;  684.836
427.275;    5.500;   -7.852;  641.471
427.867;    7.000;   -5.272;  668.948
428.458;    7.402;   -7.682;  732.344
429.050;    5.820;  -10.612;  680.749
429.642;    8.433;   -9.882;  743.124
430.233;    8.402;   -6.962;  569.356
430.825;    9.753;   -6.842;  724.809
431.416;    7.680;   -9.672;  698.241
432.008;   11.062;   -6.552;  651.723
432.599;   11.706;   -6.891;  656.073
433.190;    8.699;  -10.912;  637.670
433.782;    8.221;  -11.172;  590.395
434.373;   15.098;   -6.061;  884.765
434.964;   13.931;   -8.251;  602.920
435.556;   11.660;   -9.722;  634.537
436.147;   15.329;   -9.082;  758.490
436.738;   14.982;   -8.041;  701.099
437.329;   20.062;   -7.341;  721.723
437.920;   13.426;   -8.162;  666.688
438.511;   13.264;  -11.802;  564.526
439.103;   18.656;  -10.191;  623.998
439.694;   20.829;   -7.601;  681.583
440.285;   21.251;   -8.541;  764.432
440.876;   19.698;   -9.751;  845.738
441.466;   19.215;   -9.401;  575.162
442.057;   24.388;   -7.760;  665.814
442.648;   22.858;   -9.971;  746.255
443.239;   21.744;  -11.001;  620.477
443.830;   26.398;   -7.990;  704.958
444.421;   27.993;   -7.910;  655.474
445.011;   24.539;   -8.131;  693.619
445.602;   25.151;   -7.111;  743.126
446.193;   25.755;  -10.920;  488.117
446.783;   30.385;   -6.500;  640.397
447.374;   25.892;   -8.671;  692.759
447.964;   26.898;  -10.781;  713.770
448.555;   34.741;   -9.650;  822.742
449.145;   31.901;   -8.660;  662.853
449.736;   32.425;   -8.990;  803.179
450.326;   32.381;   -9.500;  713.626
450.917;   37.022;   -8.680;  675.324
451.507;   36.510;   -7.520;  600.661
452.097;   37.302;   -8.590;  746.267
452.688;   38.436;  -11.340;  742.160
453.278;   37.441;  -10.100;  566.840
453.868;   42.037;   -6.019;  793.550
454.458;   40.639;   -9.440;  651.141
455.048;   40.690;  -10.560;  711.783
455.639;   41.875;  -11.799;  567.096
456.229;   46.183;   -6.899;  710.694
456.819;   47.334;   -7.389;  751.158
457.409;   47.596;  -11.119;  773.993
457.999;   50.075;   -9.289;  737.505
458.589;   50.851;   -6.139;  686.606
459.179;   49.817;   -8.729;  717.658
459.769;   48.195;   -9.789;  627.099
460.358;   53.135;  -10.259;  797.262
460.948;   52.801;   -7.299;  689.503
461.538;   54.562;  -10.289;  660.677
462.128;   51.866;  -11.269;  664.934
462.717;   58.820;   -9.368;  710.326
463.307;   61.898;   -7.908;  705.846
463.897;   58.187;   -9.599;  656.942
464.486;   58.016;   -9.769;  837.128
465.076;   62.326;   -8.048;  733.776
465.666;   65.468;   -9.358;  652.900
466.255;   62.797;   -7.919;  785.651
466.845;   62.329;  -11.689;  666.749
467.434;   64.951;   -7.818;  725.873
468.023;   65.937;   -7.678;  658.357
468.613;   63.729;  -10.939;  713.946
469.202;   68.214;  -10.118;  646.507
469.791;   71.499;   -9.108;  737.811
470.381;   74.128;   -6.058;  742.813
470.970;   74.508;  -10.428;  711.099
471.559;   73.678;  -10.268;  733.291
472.148;   76.150;   -8.448;  675.737
472.738;   78.577;   -6.917;  765.466
473.327;   78.116;  -11.978;  637.529
473.916;   78.299;  -11.888;  737.446
474.505;   82.520;   -9.437;  751.703
475.094;   85.401;   -6.747;  806.570
475.683;   84.440;   -9.367;  797.699
476.272;   86.071;  -12.637;  730.632
476.861;   88.727;  -10.027;  706.754
477.449;   95.555;   -8.716;  728.487
478.038;   88.961;   -9.577;  692.513
478.627;   90.487;   -9.718;  714.852
479.216;   96.942;   -8.947;  769.441
479.805;  100.160;   -6.256;  783.375
480.393;  100.020;   -7.937; 1008.945
480.982;   98.813;   -7.717;  874.501
481.571;  104.428;   -9.266;  858.333
482.159;  105.052;   -7.636;  705.386
482.748;  104.934;   -9.667;  821.385
483.336;  109.866;  -10.376;  858.209
483.925;  110.671;   -7.147;  774.373
484.513;  116.227;   -7.996;  758.962
485.102;  114.151;  -10.027;  810.965
485.690;  122.935;  -10.446; 1011.050
486.278;  125.041;   -8.446;  979.329
486.867;  125.178;   -6.356;  809.662
487.455;  127.683;   -9.136;  898.229
488.043;  128.129;  -10.646;  748.361
488.631;  136.224;   -7.456; 1005.079
489.220;  140.265;   -6.636;  908.626
489.808;  140.542;  -11.036;  741.415
490.396;  148.811;  -10.246;  914.645
490.984;  154.374;   -8.556;  830.161
491.572;  163.420;   -5.886;  940.315
492.160;  168.943;   -9.486;  919.081
492.748;  181.026;  -10.976;  884.341
493.336;  202.858;   -8.776; 1019.693
493.924;  227.316;   -5.465;  958.077
494.512;  254.070;   -9.986; 1066.638
495.100;  290.508;  -10.636; 1103.280
495.687;  344.778;  -10.885; 1206.373
496.275;  406.240;   -8.126; 1150.796
496.863;  474.100;  -10.586; 1281.171
497.451;  571.292;  -11.926; 1386.805
498.038;  699.671;  -10.885; 1556.729
498.626;  807.352;   -6.315; 1741.407
499.214;  957.532;   -7.326; 2016.609
499.801; 1151.627;  -11.906; 2220.633
500.389; 1386.025;  -10.466; 2312.494
500.976; 1672.441;   -5.236; 2744.849
501.564; 2097.269;   -8.936; 3148.565
502.151; 2435.945;  -13.176; 3515.999
502.738; 2828.858;  -10.646; 3971.274
503.326; 3243.461;   -9.525; 4403.796
503.913; 3657.341;  -10.856; 5161.749
504.500; 4032.912;  -11.586; 5986.420
505.088; 4394.209;  -10.336; 6381.201
505.675; 4927.306;   -6.355; 6925.547
506.262; 5599.856;   -9.046; 7619.060
506.849; 6318.968;  -10.416; 8733.969
507.436; 6841.186;  -10.305; 9790.121
508.023; 7402.972;   -5.496; 9985.472
508.610; 7655.311;   -7.856;10434.618
509.197; 8249.429;  -10.097;11198.435
509.784; 9571.622;  -10.886;12391.194
510.371;10774.406;   -9.315;13603.713
510.958;11547.986;   -9.936;14426.586
511.545;12247.674;   -9.326;15243.775
512.132;13027.077;  -10.075;15945.876
512.719;13462.373;   -7.796;16340.369
513.305;14526.434;  -10.606;18011.766
513.892;15269.889;  -11.486;19754.971
514.479;16448.986;   -9.126;20967.805
515.066;17982.424;   -6.026;22299.793
515.652;19725.188;   -8.466;22908.660
516.239;20926.664;  -10.886;23798.875
516.825;21532.609;  -11.496;25567.275
517.412;22367.555;   -5.796;28154.959
517.998;23194.125;  -10.506;28344.111
518.585;23279.244;  -10.076;27134.219
519.171;23855.313;   -8.315;27268.576
519.758;25610.010;   -8.596;28964.129
520.344;27687.975;   -8.466;30664.494
520.930;27338.705;  -11.006;32550.605
521.516;28060.143;  -10.495;35422.895
522.103;29758.824;   -5.526;38280.004
522.689;30202.961;   -8.746;37835.117
523.275;29987.729;  -11.376;37288.613
523.861;31828.404;  -11.156;37281.395
524.447;33612.594;   -8.135;37846.949
525.033;33484.371;   -7.896;38321.949
525.619;33621.477;  -12.476;38579.285
526.205;34787.176;   -9.516;40622.875
526.791;37471.434;   -6.926;42258.836
527.377;37417.301;   -8.346;42966.902
527.963;37996.621;   -8.717;42018.949
528.549;37247.855;  -11.016;42476.828
529.135;35713.539;   -8.536;41854.852
529.721;34206.688;   -9.666;41237.711
530.306;32879.406;  -10.066;41259.445
530.892;31664.160;  -11.356;41506.047
531.478;31543.568;   -6.596;43559.613
532.063;34663.992;   -8.836;47695.563
532.649;37310.543;  -10.047;50808.324
533.235;38282.551;   -9.746;51787.500
533.820;37365.824;   -6.566;52145.035
534.406;36727.117;  -10.817;51133.488
534.991;34274.855;   -9.416;49996.805
535.576;31157.791;   -9.036;48882.852
536.162;32477.107;   -6.156;46942.285
536.747;36781.789;  -11.607;45711.746
537.333;42649.453;  -11.787;48510.180
537.918;48267.082;  -12.437;50439.891
538.503;49631.863;   -7.196;50863.711
539.088;46687.453;  -10.556;50906.922
539.673;46292.406;   -8.767;52621.965
540.259;47150.926;  -10.026;52368.094
540.844;44790.891;   -7.416;50879.109
541.429;46765.875;   -9.467;52077.777
542.014;48673.918;   -9.527;52716.695
542.599;47242.375;   -9.946;52363.281
543.184;43999.672;   -7.927;53187.137
543.769;44875.887;   -9.297;54697.605
544.354;45094.488;  -10.127;53913.914
544.938;43761.750;   -9.267;49680.164
545.523;45588.684;   -6.506;47386.277
546.108;48626.703;   -9.787;49151.949
546.693;50364.516;  -11.587;51384.637
547.278;50602.910;  -10.986;51853.254
547.862;47884.664;   -8.206;51173.750
548.447;43370.430;  -10.067;51691.395
549.031;42325.770;   -9.637;52456.703
549.616;46690.691;   -9.926;52714.516
550.201;46834.648;   -6.347;52414.598
550.785;48099.594;   -7.917;52355.059
551.370;47242.469;  -10.867;54589.453
551.954;46354.504;   -9.047;58267.348
552.538;47258.512;   -7.827;59062.176
553.123;45832.750;  -10.287;58115.285
553.707;43291.496;  -12.178;56556.285
554.291;44794.629;   -8.717;56201.668
554.876;48315.223;   -7.457;55335.762
555.460;48421.637;  -10.387;54155.703
556.044;48028.926;   -9.618;53721.484
556.628;45861.078;  -11.567;53731.016
557.212;44854.984;   -8.097;54312.531
557.796;43880.719;  -11.077;53797.773
558.380;44135.441;  -11.108;56145.984
558.964;44192.145;   -9.057;57277.930
559.548;45190.969;   -6.977;56459.641
560.132;43304.004;  -11.457;54434.543
560.716;41279.211;  -11.378;54800.617
561.300;42233.887;   -9.577;57606.945
561.884;43531.469;   -7.127;58972.445
562.467;41351.996;   -7.118;57327.570
563.051;40567.539;  -13.358;54962.434
563.635;42390.535;  -10.178;52594.473
564.219;43214.023;   -7.837;50610.410
564.802;43847.145;  -11.398;49551.180
565.386;43188.449;  -12.788;48370.953
565.969;42343.297;   -9.077;48178.871
566.553;40954.289;   -6.207;49957.305
567.136;42010.719;   -8.568;50369.594
567.720;39203.023;  -11.868;49492.004
568.303;37158.129;   -8.268;50616.352
568.887;37150.316;   -8.698;50727.148
569.470;37855.941;   -6.808;51698.379
570.053;37123.348;  -13.188;52122.078
570.637;34690.484;  -12.037;52536.438
571.220;34493.836;   -8.577;51186.098
571.803;35675.238;   -8.498;51032.762
572.386;37414.445;  -10.498;49609.887
572.969;39725.336;   -9.388;48285.926
573.552;38455.891;   -8.338;47624.285
574.135;36871.051;   -8.518;45498.641
574.718;34485.617;  -13.628;41970.434
575.301;33971.176;  -10.893;41447.137
575.884;33456.734;   -8.158;40923.836
576.467;34642.426;  -10.328;45267.723
577.050;35736.262;  -13.058;48175.543
577.633;36530.516;   -9.458;47729.328
578.216;35950.543;   -8.928;47579.793
578.799;35261.637;   -9.358;47820.996
579.381;34385.773;  -11.388;48115.551
579.964;32115.098;  -11.718;47333.766
580.547;34327.570;   -8.588;46668.969
581.129;35226.707;   -8.859;44466.141
581.712;36101.586;  -10.729;44164.922
582.294;36476.492;  -11.118;46477.855
582.877;36396.395;   -5.218;48244.254
583.459;34859.352;   -8.679;47437.895
584.042;32850.656;  -10.709;46943.219
584.624;32520.873;  -11.669;46792.227
585.206;32380.395;   -8.218;46557.250
585.789;32617.742;  -10.569;45793.773
586.371;34782.223;  -11.859;43836.391
586.953;35437.996;  -10.719;42972.492
587.536;36192.359;   -7.198;42487.211
588.118;37152.883;   -8.720;42086.414
588.700;33103.469;  -10.439;43389.930
589.282;31961.252;   -9.198;43646.039
589.864;33117.363;   -9.199;43438.109
590.446;34480.410;  -11.319;43151.926
591.028;34438.043;  -11.159;42781.867
591.610;33054.066;  -11.779;42839.098
592.192;30154.375;   -7.668;42820.402
592.774;28823.826;  -11.949;40724.277
593.356;27881.916;  -12.129;39874.789
593.937;26871.127;  -10.669;39980.648
594.519;29031.109;   -6.509;42069.633
595.101;30987.635;  -10.849;42976.031
595.683;30938.064;  -11.679;44084.441
596.264;31708.986;   -9.049;43478.797
596.846;31896.158;   -8.849;43803.672
597.427;32051.625;   -9.570;42986.934
598.009;33241.172;  -12.620;42832.219
598.591;33473.879;  -10.039;42580.086
599.172;33227.391;  -10.369;43061.805
599.753;33488.789;   -9.140;41691.469
600.335;34705.082;  -11.430;40692.520
600.916;32800.242;   -9.939;39982.422
601.498;30669.277;   -8.479;40318.617
602.079;29208.039;  -10.920;40670.609
602.660;28752.889;  -11.480;41450.898
603.241;30533.182;  -11.699;41137.738
603.823;29413.080;   -9.579;38868.797
604.404;28099.512;  -10.620;38182.785
604.985;29901.406;  -10.450;38078.047
605.566;30418.105;   -9.129;38056.633
606.147;30466.420;   -7.510;37020.418
606.728;31746.645;  -10.660;37883.359
607.309;30272.719;  -11.740;38748.273
607.890;30319.869;   -9.759;38850.230
608.471;29962.023;   -8.250;37457.918
609.051;29107.996;   -9.240;36066.457
609.632;27769.287;  -12.120;35991.074
610.213;27771.373;   -9.110;37402.641
610.794;28633.502;   -8.030;38383.363
611.374;28700.959;   -8.110;40562.387
611.955;29784.223;  -13.560;38533.727
612.536;31131.512;  -11.400;36951.789
613.116;30405.834;   -8.070;37197.891
613.697;30749.234;  -10.830;38411.125
614.277;28946.633;  -11.641;38673.938
614.858;29601.973;  -13.310;37075.863
615.438;29375.201;   -7.460;35092.906
616.019;27509.701;   -7.601;33666.301
616.599;27682.525;  -12.020;34189.023
617.179;29270.094;  -11.780;36952.047
617.760;30581.672;   -8.570;39582.574
618.340;31263.291;  -11.471;38943.977
618.920;31919.617;  -11.170;37594.156
619.500;31912.975;  -11.071;37866.938
620.080;30821.234;   -7.750;37869.043
620.660;31734.223;  -12.711;36868.617
621.241;33443.051;  -10.211;36352.309
621.821;34263.551;  -10.961;35459.520
622.401;33180.441;   -7.720;35207.414
622.980;31899.840;   -8.981;35980.422
623.560;30464.156;   -9.331;37351.328
624.140;29063.787;   -9.850;34388.582
624.720;24601.957;   -7.451;32368.764
625.300;21451.578;   -9.070;32638.629
625.880;24726.654;  -12.601;34599.035
626.459;28713.713;  -11.751;36831.738
627.039;31341.758;   -9.281;38299.098
627.619;31115.557;   -8.801;38289.574
628.198;29810.674;  -12.071;37220.695
628.778;28896.053;   -9.461;37632.563
629.357;29360.869;   -8.491;38003.012
629.937;29602.590;   -9.721;38402.039
630.516;29247.283;   -9.951;37868.801
631.096;29127.482;  -11.731;35760.410
631.675;30822.352;   -8.572;35225.219
632.254;35734.906;  -11.282;35130.289
632.834;35526.434;  -13.322;35794.570
633.413;34100.512;  -10.301;35788.922
633.992;31933.072;   -8.582;34532.863
634.571;32321.713;   -8.352;33590.113
635.151;34869.762;  -11.912;34943.863
635.730;33526.832;  -10.511;35352.523
636.309;30358.041;   -7.731;35366.605
636.888;27736.379;   -9.952;36165.637
637.467;27841.637;  -11.672;37515.902
638.046;29139.760;   -8.901;39288.695
638.625;31893.504;   -7.912;38279.699
639.204;31891.354;  -10.022;37741.598
639.782;30887.844;  -12.252;38364.551
640.361;27316.168;  -10.041;36740.621
640.940;24726.859;  -11.161;34950.082
641.519;25654.801;   -9.701;34137.398
642.097;28437.602;  -11.271;35654.258
642.676;30837.191;   -8.651;35637.957
643.255;32261.535;   -8.711;36567.074
643.833;31795.980;   -9.581;37809.434
644.412;31741.184;  -13.711;37337.293
644.990;30643.314;  -11.811;37018.531
645.569;30256.119;   -9.411;36518.469
646.147;29911.717;  -10.291;36186.430
646.726;30387.732;  -12.401;36267.688
647.304;31525.926;  -10.411;36647.625
647.882;32461.957;   -9.651;39286.742
648.461;33757.953;   -9.631;39157.703
649.039;32444.936;  -11.881;35412.883
649.617;31516.762;   -9.661;34744.918
650.195;30541.656;   -9.301;35403.098
650.773;29286.121;  -10.511;35053.797
651.352;27008.402;  -11.521;33756.816
651.930;24728.182;  -12.211;31868.773
652.508;23354.717;   -9.171;33121.551
653.086;27105.436;   -9.371;33564.793
653.663;30338.248;  -13.161;34054.668
654.241;28938.891;  -13.031;35693.309
654.819;29997.852;   -9.371;36422.906
655.397;29770.432;  -10.511;38213.484
655.975;29247.201;  -10.371;39507.625
656.553;29037.986;  -10.051;39498.223
657.130;27703.010;  -10.061;40395.480
657.708;26896.105;   -9.561;39242.020
658.286;26986.898;  -11.511;38920.020
658.863;28344.680;  -10.261;40202.898
659.441;31738.936;   -7.531;39677.938
660.018;31883.543;   -9.501;40413.355
660.596;30421.799;  -13.301;39931.414
661.173;31675.084;  -11.211;39604.531
661.750;31994.670;   -9.951;39700.070
662.328;30775.883;   -9.390;39292.809
662.905;30018.041;  -11.330;38235.648
663.482;26316.895;   -9.050;36212.305
664.060;24393.814;   -8.240;35944.945
664.637;27053.445;  -10.050;35170.785
665.214;28369.240;  -11.760;34197.523
665.791;30118.588;  -10.530;34549.520
666.368;29492.742;   -9.690;35118.578
666.945;29662.717;   -9.320;36019.418
667.522;31110.918;  -11.860;36048.438
668.099;30855.219;  -10.770;36243.914
668.676;29500.215;   -6.260;35958.875
669.253;28280.318;   -7.000;37384.730
669.830;28415.293;  -10.190;36779.629
670.407;28332.213;   -9.550;35231.289
670.984;28150.381;   -9.260;35544.270
671.560;29198.053;   -9.280;35466.867
672.137;28838.801;  -11.810;34280.863
672.714;29743.736;  -11.490;34632.863
673.290;30940.668;   -7.740;35135.422
673.867;30886.268;  -10.660;36114.480
674.443;30744.320;  -12.230;36152.859
675.020;28713.293;  -10.450;35327.238
675.596;29481.176;   -9.260;35795.176
676.173;30218.105;  -10.780;35430.355
676.749;29866.717;  -13.690;33549.516
677.326;29605.188;  -11.980;32210.012
677.902;29406.115;   -8.630;32068.871
678.478;28853.383;  -10.730;32583.891
679.054;27853.270;  -10.520;32088.928
679.631;28203.740;  -11.920;30978.848
680.207;29647.885;   -7.490;33160.887
680.783;31016.891;   -9.860;35570.363
681.359;30150.512;  -13.380;36125.184
681.935;30004.811;  -12.480;35240.922
682.511;30206.844;   -7.900;34429.961
683.087;30617.418;   -7.710;34463.680
683.663;29741.568;  -11.480;34648.898
684.239;28323.805;  -14.090;34546.457
684.815;27621.248;   -7.560;35586.375
685.390;27613.049;   -9.910;35821.895
685.966;28146.945;  -11.159;35085.871
686.542;30427.582;  -11.169;34198.230
687.118;33021.145;   -5.959;32847.707
687.693;33760.527;  -10.329;32794.027
688.269;33356.344;  -12.059;33072.367
688.844;31589.984;  -10.909;33141.664
689.420;29743.346;   -8.019;33965.742
689.995;28118.436;   -8.399;34655.523
690.571;26653.287;  -10.949;33576.742
691.146;26418.031;   -9.619;32657.219
691.722;26391.994;   -8.999;32526.979
692.297;25807.137;  -11.589;33014.617
692.872;26831.596;  -11.739;34012.254
693.448;26825.832;  -11.059;34237.434
694.023;25899.271;  -10.139;34142.672
694.598;27568.539;   -9.029;34132.031
695.173;28325.420;  -13.319;34205.250
695.748;27307.172;  -10.169;32882.488
696.323;27301.227;   -8.339;32864.906
696.898;27551.809;   -8.169;33170.004
697.473;27978.541;  -12.309;32432.984
698.048;27469.463;  -10.989;31649.303
698.623;27035.090;   -9.329;30778.141
699.198;28273.164;   -9.849;31140.119
699.773;29785.678;  -12.329;31764.299
700.348;28630.625;  -10.389;31780.816
700.922;28578.180;   -9.269;32046.375
701.497;29840.676;   -9.329;32603.574
702.072;30275.711;  -10.789;34799.871
702.646;28677.396;  -10.839;35793.172
703.221;26290.092;   -9.099;35201.590
703.795;27947.740;  -10.939;34764.527
704.370;28526.617;  -12.859;34307.367
704.944;28876.957;  -11.559;33509.887
705.519;29426.496;   -7.939;31388.584
706.093;30508.691;  -10.499;31340.104
706.668;31025.596;  -11.289;32630.281
707.242;29857.129;  -11.509;32728.779
707.816;28615.543;   -9.639;32947.238
708.390;27233.096;  -11.429;33277.855
708.965;27587.789;  -11.869;33834.336
709.539;27512.693;  -11.689;33709.273
710.113;27539.688;  -10.478;33044.313
710.687;27181.141;  -10.228;31953.992
711.261;25842.221;  -13.698;30505.949
711.835;25549.682;  -13.378;30262.369
712.409;25727.668;   -9.698;31254.447
712.983;27679.275;  -11.898;32754.986
713.557;29030.275;  -15.138;34018.824
714.131;29072.412;  -14.098;34579.625
714.704;28142.746;   -9.958;33890.262
715.278;25530.205;  -10.028;33531.102
715.852;24215.844;  -11.148;33601.660
716.425;25232.373;   -9.068;33515.117
716.999;26475.502;  -10.038;33185.555
717.573;27359.094;   -9.798;33905.996
718.146;28298.086;  -12.378;35199.293
718.720;28409.377;  -11.918;35060.551
719.293;28526.518;   -8.088;34973.230
719.867;31603.426;  -10.888;36394.449
720.440;31488.309;  -11.938;36663.008
721.013;29823.797;  -12.818;35102.426
721.587;28156.283;  -10.298;33985.266
722.160;26713.496;  -10.048;33524.965
722.733;25683.744;  -12.108;32987.043
723.306;25839.785;  -10.818;33066.301
723.880;27952.668;   -8.908;33399.500
724.453;30522.445;   -9.878;33468.297
725.026;30037.316;  -11.188;33816.637
725.599;27031.623;  -11.678;32797.996
726.172;26542.699;   -9.618;33187.434
726.745;27383.967;   -8.258;35136.613
727.318;28576.574;  -12.978;35751.730
727.891;29573.537;  -12.148;35890.430
728.463;29214.688;   -8.968;34822.090
729.036;27748.324;  -10.188;32895.086
729.609;28203.611;  -11.788;31823.225
730.182;25597.646;  -11.788;31445.283
730.754;23397.252;  -10.268;32373.223
731.327;23881.484;   -9.998;33676.820
731.900;24129.719;  -12.228;33417.000
732.472;24474.809;  -13.848;31978.498
733.045;25788.314;   -8.698;30368.777
733.617;25895.229;  -10.607;30574.215
734.190;26486.055;  -11.507;31280.975
734.762;24588.141;  -13.647;31674.412
735.334;22701.729;   -9.767;31247.291
735.907;22989.318;   -9.897;29876.211
736.479;23349.031;  -11.637;29808.488
737.051;23008.166;   -9.567;30233.547
737.623;23452.486;   -8.187;31469.086
738.195;23561.529;  -11.187;31784.225
738.768;25380.988;  -12.337;32120.523
739.340;26587.104;  -12.227;32094.342
739.912;26050.893;  -11.057;31312.680
740.484;24632.186;  -10.207;31946.238
741.056;22722.041;  -10.047;32984.059
741.628;23480.658;  -13.627;33897.715
742.199;25407.020;   -7.177;33213.016
742.771;24312.963;  -10.797;31369.113
743.343;22495.701;  -11.997;31865.473
743.915;21596.311;  -12.867;32388.631
744.487;21494.320;   -7.617;31079.568
745.058;21592.342;   -9.557;30570.107
745.630;22243.918;   -9.877;29970.127
746.201;23697.352;  -14.177;29186.766
746.773;24724.268;   -9.237;28805.723
747.344;24545.756;   -9.847;29591.223
747.916;22543.607;  -11.657;31412.201
748.487;22347.605;  -10.587;32194.898
749.059;23587.967;   -8.707;32533.719
749.630;24254.648;  -10.537;32158.518
750.201;23220.455;  -11.687;30855.395
750.773;21613.957;  -11.647;28622.555
751.344;21282.510;   -7.147;28405.732
751.915;22123.432;   -9.757;28461.551
752.486;22517.914;  -12.427;27842.850
753.057;20775.891;  -12.227;27845.008
753.628;19544.342;  -10.417;27728.107
754.199;20309.340;  -11.767;27381.086
754.770;21279.969;  -11.187;25882.203
755.341;21478.063;  -10.507;25886.184
755.912;21765.320;   -9.387;26050.861
756.483;21412.025;  -10.647;26798.779
757.054;19696.195;  -11.837;27048.238
757.625;18263.350;  -12.716;26294.838
758.195;17888.133;   -9.666;26142.076
758.766;17482.045;   -8.656;26392.234
759.337;18055.779;  -12.856;26334.594
759.907;19420.367;  -13.366;27579.652
760.478;20396.881;   -8.576;28352.770
761.048;20110.174;  -10.526;27325.088
761.619;19173.180;  -11.116;26460.428
762.189;19087.662;  -12.136;26029.826
762.760;19871.482;   -9.456;26430.145
763.330;21065.230;   -7.136;26670.902
763.900;20809.516;  -11.786;26603.021
764.471;18570.537;  -11.546;25542.740
765.041;17261.736;   -8.096;24358.459
765.611;16984.063;   -8.876;23991.297
766.181;17144.063;  -12.196;24470.236
766.751;18327.129;  -11.636;24845.975
767.321;18286.148;  -10.156;24533.633
767.891;16377.871;  -11.766;24916.492
768.461;15707.336;  -14.936;24776.771
769.031;16067.013;  -12.356;24757.988
769.601;17821.490;   -7.526;24181.088
770.171;18061.820;  -10.766;23670.387
770.741;17002.365;  -13.176;22960.045
771.311;16770.646;  -10.616;22917.523
771.880;17425.592;   -9.576;23562.941
772.450;17512.951;  -10.336;24216.500
773.020;17385.229;  -13.516;24140.398
773.589;16430.752;  -13.466;24414.857
774.159;15678.148;   -8.686;23858.717
774.729;15360.803;   -9.476;22942.135
775.298;15128.577;  -13.666;22324.033
775.867;14736.296;  -11.716;21140.313
776.437;14965.755;   -9.906;20838.092
777.006;14746.621;  -12.166;20599.510
777.576;14251.653;  -12.356;20508.809
778.145;14075.301;  -11.646;20732.947
778.714;14207.459;   -8.226;21062.465
779.283;13808.353;   -9.556;20949.664
779.853;13263.710;  -14.116;20508.623
780.422;13653.131;  -11.506;20649.082
780.991;13253.430;   -9.556;21527.520
781.560;11945.401;   -9.095;22632.658
782.129;11724.272;  -12.135;23048.277
782.698;11740.946;  -10.865;23438.555
783.267;11388.274;   -9.335;23267.734
783.836;11261.243;  -11.045;22415.133
784.404;12207.752;  -13.865;20443.152
784.973;12940.013;  -13.095;19699.150
785.542;13005.439;  -11.575;19763.828
786.111;12793.359;   -9.705;20341.408
786.679;12353.825;  -12.105;20207.967
787.248;12059.172;  -12.455;19516.465
787.817;11870.063;  -11.535;18900.363
788.385;11599.759;   -9.765;17879.121
788.954;11084.860;  -14.005;17658.301
789.522;10397.781;  -11.955;17788.879
790.090;10721.834;  -10.135;18118.277
790.659;11352.863;  -10.975;18338.736
791.227;11050.121;  -13.375;18508.615
791.795;11420.753;  -12.375;17898.254
792.364;11737.405;  -10.725;17295.133
792.932;12129.530;   -9.715;16822.051
793.500;12430.827;  -12.675;17040.148
794.068;12610.965;  -13.495;17179.787
794.636;12789.283;  -10.885;16664.246
795.204;12065.826;  -11.045;16524.545
795.772;11973.132;  -13.175;17274.564
796.340;11486.995;  -12.445;17891.002
796.908;11229.037;   -9.735;17648.561
797.476;11120.424;   -9.815;17064.080
798.044;10757.847;  -13.985;16672.777
798.612;10030.109;  -13.115;17023.996
799.180; 9656.126;  -10.185;16561.615
799.747; 9503.762;   -9.055;15962.773
800.315; 9164.967;  -12.385;15296.992
800.883; 9002.981;  -15.035;14801.771
801.450; 9260.913;  -10.365;14534.430
802.018; 9411.612;   -9.855;14173.248
802.585; 9428.359;  -11.905;14029.547
803.153; 9386.133;  -11.585;13836.846
803.720; 9158.035;   -9.095;13567.324
804.287; 8645.343;   -9.135;13360.622
804.855; 8117.147;  -11.604;13681.981
805.422; 7984.373;  -11.794;13536.560
805.989; 8083.845;  -10.734;13355.958
806.556; 8234.692;  -10.444;13747.896
807.124; 8469.598;  -12.764;13987.376
807.691; 8438.683;  -12.964;14038.674
808.258; 8289.124;  -11.134;14120.152
808.825; 8003.141;   -9.854;13860.111
809.392; 8111.496;  -10.504;13268.790
809.959; 7633.657;  -13.054;12680.389
810.526; 7111.722;   -8.294;12427.308
811.093; 7049.882;   -8.394;12030.105
811.659; 7702.085;  -12.304;11653.664
812.226; 8362.916;  -13.944;11637.183
812.793; 8179.346;  -10.484;11611.521
813.360; 7534.468;  -10.144;11885.181
813.926; 7179.929;  -11.684;12770.539
814.493; 6971.079;  -13.644;12677.638
815.060; 6566.850;   -9.724;11974.336
815.626; 6468.751;   -9.854;11594.715
816.193; 6810.126;  -13.254;11579.474
816.759; 6865.588;  -13.204;11666.972
817.325; 6890.135;   -9.434;11325.530
817.892; 7238.904;  -10.134;11105.369
818.458; 7666.524;  -13.474;10843.928
819.024; 7342.363;  -11.854;10714.406
819.591; 7064.078;  -10.244;10469.165
820.157; 6866.987;  -10.704;10235.523
820.723; 6321.023;  -12.324;10847.563
821.289; 5992.837;   -9.444;11040.980
821.855; 5961.855;   -8.374;10357.100
822.421; 6008.984;  -10.234; 9978.918
822.987; 6006.652;  -13.294; 9754.177
823.553; 5592.365;  -10.884;10065.755
824.119; 5332.056;   -8.884;10036.294
824.685; 5464.245;   -6.784;10029.192
825.251; 5620.036;  -12.004;10199.230
825.816; 5580.236;  -11.474; 9820.189
826.382; 5273.197;   -9.174; 9297.248
826.948; 5351.720;   -9.214; 9381.347
827.513; 5772.517;  -10.774; 9450.726
828.079; 5708.469;  -11.924; 9472.444
828.645; 5093.449;  -10.543; 9292.643
829.210; 4836.418;  -10.533; 9065.341
829.776; 4786.725;  -10.753; 9132.620
830.341; 4675.463;  -10.173; 9092.878
830.906; 4827.931;  -10.743; 9078.557
831.472; 5183.367;  -11.113; 8534.535
832.037; 5049.336;  -10.603; 8677.874
832.602; 4566.765;  -13.323; 8628.692
833.167; 4288.218;  -10.823; 8879.031
833.733; 4238.044;  -10.113; 9189.790
834.298; 4396.923;  -13.583; 9052.608
834.863; 4561.786;  -12.703; 8895.087
835.428; 4585.822;  -10.523; 8824.266
835.993; 4402.723;   -6.963; 8845.385
836.558; 4177.178;  -10.763; 8888.563
837.123; 4215.328;   -9.903; 8966.582
837.688; 4474.316;   -9.913; 8617.860
838.253; 4777.817;  -10.283; 8590.699
838.817; 4985.969;  -12.963; 8443.797
839.382; 4907.473;  -14.243; 8799.356
839.947; 4601.685;  -10.733; 8810.595
840.511; 4298.692;   -9.383; 8796.394
841.076; 3932.481;  -12.563; 8347.231
841.641; 3985.536;  -12.953; 8224.330
842.205; 4096.077;   -7.043; 8223.349
842.770; 4102.157;   -8.163; 8622.107
843.334; 4189.191;  -12.503; 8410.386
843.898; 4125.970;  -11.693; 8337.465
844.463; 4112.027;  -10.203; 8506.283
845.027; 3910.367;   -9.533; 8280.962
845.591; 3735.270;  -13.443; 8231.141
846.156; 3753.457;  -13.143; 7969.179
846.720; 3681.703;   -9.433; 7768.278
847.284; 3589.404;  -11.033; 7630.957
847.848; 3457.387;  -10.403; 7472.395
848.412; 3367.289;  -11.553; 7437.394
848.976; 3406.095;   -8.393; 7674.592
849.540; 3319.911;   -8.713; 7836.011
850.104; 3357.205;  -12.463; 7913.669
850.668; 3713.297;  -12.973; 7694.508
851.232; 3901.471;  -10.793; 7756.887
851.796; 3783.806;  -10.662; 7926.545
852.359; 3466.407;  -13.082; 7827.844
852.923; 3268.642;  -12.192; 7641.163
853.487; 3130.225;  -11.912; 7342.501
854.050; 3122.362;  -10.892; 7042.820
854.614; 3271.037;  -13.992; 7151.338
855.177; 3381.378;  -11.732; 7105.077
855.741; 3416.465;   -8.962; 6989.675
856.304; 3294.083;   -9.442; 6596.634
856.868; 3262.789;  -14.192; 6356.272
857.431; 3389.917;  -12.702; 6468.571
857.995; 3521.519;   -9.942; 6373.210
858.558; 3562.726;   -9.112; 6324.448
859.121; 3303.681;  -12.932; 6408.327
859.684; 3107.226;  -13.442; 6347.886
860.247; 3211.561;  -10.632; 6321.264
860.810; 3270.353;  -11.272; 6301.903
861.374; 3033.754;   -9.832; 6607.881
861.937; 2761.256;  -11.762; 6408.200
862.500; 2756.890;   -9.722; 6572.639
863.062; 2895.926;  -10.512; 6387.297
863.625; 3030.899;  -11.232; 6190.836
864.188; 3189.460;  -14.112; 5807.254
864.751; 3274.721;  -11.302; 5682.413
865.314; 3202.689;  -10.112; 5547.492
865.876; 2969.035;  -12.182; 5500.150
866.439; 2917.270;  -10.722; 5415.909
867.002; 2884.471;   -9.252; 5501.567
867.564; 2717.602;   -9.572; 5413.946
868.127; 2516.842;  -13.142; 5160.325
868.689; 2393.650;  -12.902; 5133.183
869.252; 2289.343;   -9.732; 5252.382
869.814; 2184.330;   -9.432; 5297.141
870.377; 2178.032;  -11.552; 5390.919
870.939; 2230.042;   -9.052; 5599.898
871.501; 2309.725;  -10.982; 5248.336
872.063; 2338.480;  -12.292; 4854.235
872.626; 2277.780;  -14.912; 4817.074
873.188; 2252.436;  -13.112; 4987.732
873.750; 2221.124;  -13.442; 4868.651
874.312; 2136.831;   -9.402; 4779.330
874.874; 2059.328;  -11.062; 4866.348
875.436; 1984.297;  -13.931; 4718.887
875.998; 1983.854;   -9.561; 4660.005
876.560; 2018.736;  -11.321; 4462.964
877.122; 1961.645;  -12.221; 4145.042
877.683; 1851.100;  -12.191; 4056.481
878.245; 1767.498;  -12.101; 3950.740
878.807; 1806.834;   -8.971; 4058.958
879.369; 1833.824;  -12.071; 3954.677
879.930; 1741.674;  -14.621; 3941.495
880.492; 1668.242;  -10.311; 4067.014
881.053; 1643.531;  -10.901; 3859.633
881.615; 1553.761;  -14.411; 3776.071
882.176; 1453.417;  -13.761; 3734.750
882.738; 1395.025;   -9.181; 3678.489
883.299; 1369.908;  -11.791; 3405.407
883.860; 1350.003;  -13.121; 3351.106
884.422; 1329.452;  -11.211; 3394.044
884.983; 1293.257;  -10.091; 3166.443
885.544; 1257.876;   -8.461; 3189.802
886.105; 1231.853;  -12.361; 3160.360
886.666; 1163.642;  -14.141; 3093.059
887.227;  986.479;  -11.361; 2941.957
887.788;  750.893;  -11.401; 2974.836
888.349;  577.609;  -13.791; 2721.214
888.910;  527.700;  -13.191; 2696.493
889.471;  540.509;   -9.881; 2560.172
890.032;  563.679;   -9.881; 2558.190
890.593;  581.119;  -10.371; 2567.669
891.153;  593.827;  -13.301; 2460.307
891.714;  584.868;  -11.431; 2372.046
892.275;  579.001;  -11.291; 2309.505
892.835;  568.203;  -11.471; 2382.543
893.396;  541.724;  -11.541; 2295.502
893.956;  500.742;  -11.181; 2162.420
894.517;  469.448;  -11.741; 2125.439
895.077;  464.354;  -11.671; 2086.978
895.638;  469.569;  -11.311; 2126.316
896.198;  449.194;   -9.831; 1838.275
896.758;  412.892;   -8.421; 1892.813
897.319;  386.728;  -12.351; 1792.232
897.879;  374.804;  -13.511; 1762.751
898.439;  352.431;  -12.001; 1661.149
898.999;  331.503;  -10.180; 1781.468
899.559;  322.042;  -12.030; 1703.347
900.119;  318.910;  -15.710; 1537.525
900.679;  315.098;   -8.900; 1638.384
901.239;  303.216;   -8.340; 1527.902
901.799;  294.629;  -13.910; 1456.441
902.359;  288.806;  -13.460; 1357.140
902.919;  282.141;  -11.490; 1331.118
903.479;  271.176;  -12.110; 1317.257
904.038;  252.444;  -11.720; 1262.595
904.598;  238.323;  -13.610; 1152.034
905.158;  234.117;  -11.040; 1240.893
905.717;  228.542;  -10.900; 1233.691
906.277;  218.583;  -15.080; 1217.330
906.836;  207.818;  -13.380; 1222.408
907.396;  199.010;  -10.780; 1193.047
907.955;  192.990;   -8.500; 1182.526
908.515;  187.903;  -12.760; 1099.364
909.074;  182.793;  -11.900; 1092.863
909.633;  177.423;   -8.950; 1069.121
910.192;  173.180;   -8.770; 1196.460
910.752;  168.421;  -12.390; 1029.960
911.311;  165.027;  -13.680; 1009.780
911.870;  162.162;  -12.370;  971.460
912.429;  161.954;  -10.900; 1094.080
912.988;  162.337;  -11.690; 1081.060
913.547;  158.560;  -13.240;  940.380
914.106;  153.561;  -11.990;  999.420
914.665;  150.666;   -9.990;  984.020
915.224;  149.421;  -12.880; 1035.760
915.782;  149.581;  -12.350;  922.560
916.341;  149.022;   -9.110; 1049.840
916.900;  145.048;   -9.270;  925.260
917.458;  142.953;  -13.240;  884.220
918.017;  142.548;  -13.550;  942.600
918.576;  142.630;  -12.320;  904.440
919.134;  140.793;  -11.490;  837.980
919.693;  139.457;  -13.670;  893.060
920.251;  137.461;  -15.470;  876.500
920.809;  136.407;  -11.290;  839.580
921.368;  136.101;  -10.210;  885.360
921.926;  135.491;  -12.140;  842.940
922.484;  134.507;  -13.080;  903.360
923.042;  133.666;  -11.720;  880.340
923.601;  135.931;   -7.480;  998.680
924.159;  135.291;  -11.570;  935.560
924.717;  131.890;  -13.840;  841.080
925.275;  131.809;  -10.640;  903.240
925.833;  131.175;  -11.540;  779.320
926.391;  131.384;  -12.960;  938.380
926.949;  130.308;  -14.130;  857.680
927.506;  130.834;  -11.750;  903.500
928.064;  131.311;  -10.250;  877.580
928.622;  130.233;  -13.030;  880.100
929.180;  129.140;  -13.400;  814.180
929.737;  130.519;  -10.700;  808.540
930.295;  133.409;  -10.070;  928.480
930.853;  135.881;  -11.960;  849.100
931.410;  136.117;  -13.120;  821.120
931.968;  135.698;  -10.770;  940.660
932.525;  135.206;  -10.680;  909.380
933.082;  135.755;  -13.130;  811.440
933.640;  137.001;  -13.210;  925.900
934.197;  135.201;  -11.060;  886.360
934.754;  136.013;   -9.580;  897.780
935.312;  139.684;  -14.000;  863.340
935.869;  143.817;  -10.710; 1012.980
936.426;  143.033;   -9.860;  872.800
936.983;  144.759;   -9.710;  889.020
937.540;  144.737;  -13.990;  838.280
938.097;  144.787;  -14.040;  940.120
938.654;  144.509;  -10.310;  898.860
939.211;  146.840;  -10.560;  952.480
939.768;  149.852;  -13.900;  915.420
940.324;  153.428;  -14.760;  904.200
940.881;  155.064;  -10.370;  878.500
941.438;  155.873;   -8.260; 1021.200
941.995;  152.599;  -12.540;  992.560
942.551;  149.367;  -14.670;  875.620
943.108;  148.142;  -10.450;  937.920
943.664;  150.335;  -10.750;  869.340
944.221;  153.816;  -11.550; 1088.140
944.777;  151.054;  -14.770;  869.680
945.334;  151.881;  -12.820;  884.840
945.890;  153.728;  -10.130;  946.480
946.446;  154.196;  -13.470;  947.020
947.003;  155.585;  -12.120;  964.940
947.559;  158.100;   -9.980; 1063.040
948.115;  157.907;   -9.080; 1026.540
948.671;  156.255;  -10.830;  967.300
949.227;  153.730;  -12.440;  859.560
949.783;  150.979;  -12.910;  858.900
950.339;  152.399;  -10.270;  991.000
950.895;  152.717;  -13.630; 1023.840
951.451;  152.056;  -15.100;  925.280
952.007;  151.102;  -11.330;  998.540
952.563;  150.590;  -10.580;  937.780
953.118;  149.591;  -13.440;  904.940
953.674;  149.060;  -12.710;  935.780
954.230;  148.704;  -10.350;  949.640
954.785;  146.900;   -9.190;  936.640
955.341;  145.664;  -11.200;  998.160
955.897;  143.523;  -16.560;  834.660
956.452;  144.424;  -12.570;  953.840
957.008;  144.421;   -7.970; 1083.640
957.563;  142.677;  -11.940; 1009.540
958.118;  136.461;  -13.450;  877.700
958.674;  136.523;  -12.030;  946.780
959.229;  137.945;   -9.410; 1013.980
959.784;  136.011;  -12.000;  832.400
960.339;  135.410;  -14.780; 1001.280
960.894;  131.771;   -9.860;  963.760
961.449;  127.903;   -9.970;  859.960
962.004;  128.611;  -10.900; 1212.840
962.559;  122.993;  -13.150;  860.140
963.114;  120.176;  -13.740;  742.480
963.669;  119.304;   -9.820;  915.500
964.224;  117.380;  -13.890;  874.340
964.779;  116.894;  -12.600;  828.420
965.334;  117.638;  -10.950; 1017.860
965.888;  117.759;  -11.170;  875.360
966.443;  120.211;  -12.540;  972.380
966.998;  120.478;  -15.780;  819.460
967.552;  119.447;   -9.760;  908.380
968.107;  115.284;   -9.060;  868.300
968.661;  116.501;  -11.950;  922.440
969.216;  116.300;  -12.800;  856.280
969.770;  116.713;  -11.210;  917.200
970.324;  115.614;  -11.610;  923.140
970.879;  112.433;  -11.370;  947.180
971.433;  109.707;  -12.540;  952.720
971.987;  104.733;  -11.320;  895.340
972.541;  102.006;  -10.720;  917.100
973.095;  101.633;   -9.680; 1009.460
973.649;   99.639;  -11.440;  809.480
974.203;   98.314;  -11.210;  829.040
974.757;   98.825;  -10.240;  855.220
975.311;   99.272;  -13.720;  872.600
975.865;   98.474;  -13.770;  881.820
976.419;   96.302;  -11.690;  857.400
976.973;   96.425;   -9.510;  849.620
977.526;   98.519;  -12.620;  949.920
978.080;   97.404;  -12.010;  796.780
978.634;   99.574;  -10.170;  921.320
979.187;   96.511;   -9.020;  905.400
979.741;   94.463;   -9.820; 1018.380
980.294;   89.806;  -14.870;  789.160
980.848;   87.066;  -12.380;  717.220
981.401;   89.380;  -10.350;  816.540
981.955;   91.794;  -13.720;  844.300
982.508;   90.498;  -11.490;  746.340
983.061;   90.200;  -10.000;  915.260
983.615;   87.375;  -11.480;  798.800
984.168;   84.512;  -13.220;  770.080
984.721;   82.946;  -13.960;  880.760
985.274;   82.677;  -10.870;  867.500
985.827;   80.541;   -9.790;  834.220
986.380;   79.189;  -13.120;  721.340
986.933;   78.873;  -12.450;  864.800
987.486;   76.936;  -10.210;  861.920
988.039;   75.853;   -8.430;  863.100
988.591;   74.688;  -10.520;  893.260
989.144;   72.326;  -14.860;  737.260
989.697;   70.270;  -13.080;  758.740
990.250;   70.925;  -10.150;  858.100
990.802;   69.556;  -13.430;  755.860
991.355;   71.283;  -12.750;  974.880
991.907;   68.394;  -12.040;  864.320
992.460;   65.505;  -11.330;  753.760
993.012;   65.636;  -13.610;  749.540
993.565;   64.850;  -13.460;  711.360
994.117;   65.827;   -9.360;  950.780
994.669;   62.643;  -11.300;  701.320
995.221;   61.263;  -13.540;  791.920
995.774;   59.268;  -13.430;  787.580
996.326;   57.459;  -12.520;  740.220
996.878;   57.849;  -10.950;  838.420
997.430;   55.713;  -14.300;  699.860
997.982;   54.488;  -13.760;  750.140
998.534;   54.292;  -11.530;  739.060
999.086;   53.057;  -10.310;  738.220
999.638;   51.702;  -12.530;  661.380
1000.190;   51.517;  -11.840;  699.320
1000.741;   50.012;  -10.260;  742.700
1001.293;   50.325;   -8.860;  686.020
1001.845;   48.650;  -13.700;  676.640
1002.396;   49.626;  -12.100;  743.400
1002.948;   49.029;  -12.760;  737.400
1003.500;   46.158;  -10.380;  723.780
1004.051;   47.902;  -11.900;  907.580
1004.603;   46.426;  -12.250;  791.820
1005.154;   43.188;  -13.210;  608.980
1005.705;   41.739;  -10.950;  723.960
1006.257;   40.677;  -13.880;  707.220
1006.808;   40.250;  -12.840;  685.460
1007.359;   39.690;  -10.570;  763.240
1007.910;   38.940;   -9.620;  646.640
1008.461;   38.905;  -13.630;  732.940
1009.013;   37.983;  -17.200;  588.340
1009.564;   38.702;  -10.200;  793.520
1010.115;   36.346;  -12.570;  597.040
1010.665;   36.260;  -15.150;  602.160
1011.216;   36.863;  -14.480;  667.920
1011.767;   36.141;  -11.340;  697.920
1012.318;   35.484;   -9.780;  736.980
1012.869;   34.838;  -12.380;  679.000
1013.419;   34.702;  -15.560;  603.120
1013.970;   34.576;  -11.010;  666.640
1014.521;   34.183;  -11.610;  620.620
1015.071;   34.865;  -13.450;  670.380
1015.622;   34.003;  -13.870;  635.460
1016.172;   33.663;  -11.610;  596.820
1016.723;   32.960;  -12.120;  614.380
1017.273;   32.405;  -13.620;  604.160
1017.823;   32.582;  -14.140;  650.340
1018.374;   31.924;  -12.800;  611.760
1018.924;   32.783;  -12.340;  716.880
1019.474;   33.106;  -11.410;  718.880
1020.024;   31.572;  -14.770;  657.580
1020.574;   31.578;   -9.780;  726.160
1021.124;   31.638;   -8.560;  673.580
1021.674;   30.951;  -15.190;  559.120
1022.224;   31.994;  -13.530;  708.940
1022.774;   30.356;  -13.280;  668.820
1023.324;   31.156;  -10.690;  753.520
1023.874;   32.386;  -10.240;  875.760
1024.423;   30.039;  -12.540;  613.700
1024.973;   30.004;  -10.010;  610.760
1025.523;   28.406;  -10.550;  620.960
1026.072;   29.221;  -13.560;  606.420
1026.622;   29.068;  -15.120;  675.740
1027.172;   29.514;  -11.260;  715.660
1027.721;   27.936;  -11.410;  601.220
1028.270;   28.851;  -13.530;  663.400
1028.820;   29.260;  -13.680;  638.080
1029.369;   28.357;  -13.520;  612.700
1029.918;   28.116;  -10.980;  649.840
1030.468;   27.181;  -13.530;  564.780
1031.017;   28.243;  -13.170;  634.800
1031.566;   27.015;  -12.200;  608.900
1032.115;   28.079;   -9.960;  694.500
1032.664;   26.384;  -13.210;  596.480
1033.213;   27.503;  -12.500;  735.420
1033.762;   27.262;  -11.910;  635.620
1034.311;   26.765;   -9.640;  677.220
1034.860;   26.869;  -13.310;  691.000
1035.408;   27.132;  -11.830;  722.720
1035.957;   26.917;  -12.000;  719.540
1036.506;   24.842;  -11.690;  530.800
1037.055;   27.967;  -10.990;  844.320
1037.603;   26.213;  -15.120;  664.000
1038.152;   23.849;  -12.450;  534.760
1038.700;   24.663;  -10.560;  585.740
1039.249;   23.833;  -11.080;  681.220
1039.797;   25.386;  -12.540;  633.360
1040.345;   24.356;  -11.920;  705.420
1040.894;   24.381;  -11.410;  625.300
1041.442;   24.128;  -14.320;  632.200
1041.990;   23.140;  -16.240;  559.160
1042.538;   22.288;  -11.680;  536.180
1043.087;   22.903;  -10.760;  570.860
1043.635;   24.928;  -11.850;  670.500
1044.183;   23.605;  -15.480;  586.400
1044.731;   22.818;  -11.770;  576.000
1045.279;   22.231;  -13.090;  674.920
1045.827;   24.628;  -12.440;  892.400
1046.374;   22.280;  -13.840;  515.420
1046.922;   20.805;  -13.220;  590.580
1047.470;   22.799;  -10.230;  691.300
1048.018;   22.205;  -14.590;  647.960
1048.565;   23.404;  -12.050;  708.600
1049.113;   21.432;  -11.650;  557.000
1049.660;   21.601;  -10.510;  629.660
1050.208;   22.160;  -13.310;  675.640
1050.755;   21.069;  -15.900;  606.580
1051.303;   21.257;  -11.430;  686.820
1051.850;   20.578;   -8.480;  635.120
1052.397;   19.342;  -15.010;  473.960
1052.945;   20.283;  -13.960;  617.760
1053.492;   21.551;  -13.150;  741.840
1054.039;   21.009;   -9.630;  720.180
1054.586;   20.142;  -13.680;  557.240
1055.133;   21.164;  -14.570;  693.140
1055.680;   20.073;  -13.820;  646.620
1056.227;   19.248;  -11.730;  542.780
1056.774;   21.318;  -12.480;  794.980
1057.321;   19.028;  -13.930;  523.260
1057.868;   19.510;  -11.690;  651.320
1058.415;   19.133;   -9.520;  651.980
1058.961;   19.301;  -13.160;  678.940
1059.508;   19.604;  -12.920;  643.820
1060.055;   18.840;  -11.920;  581.780
1060.601;   18.716;  -11.500;  624.300
1061.148;   19.022;  -14.330;  616.820
1061.694;   17.817;  -16.870;  592.580
1062.241;   18.293;  -10.330;  596.320
1062.787;   17.920;  -10.620;  663.140
1063.334;   20.073;  -10.110;  808.560
1063.880;   18.451;  -13.400;  668.360
1064.426;   17.922;  -10.680;  706.820
1064.972;   17.381;   -9.920;  601.340
1065.518;   16.054;  -10.980;  566.640
1066.065;   17.872;  -14.890;  624.460
1066.611;   16.494;  -12.870;  598.800
1067.157;   17.774;  -12.950;  641.860
1067.703;   17.461;  -13.540;  668.480
1068.249;   17.829;  -13.540;  605.220
1068.794;   17.177;  -12.600;  626.880
1069.340;   17.098;  -10.620;  578.960
1069.886;   16.375;  -12.830;  590.700
1070.432;   15.496;  -14.870;  541.720
1070.977;   15.988;  -11.980;  601.080
1071.523;   15.589;   -8.200;  573.060
1072.068;   15.978;  -12.330;  582.000
1072.614;   15.486;  -16.370;  527.760
1073.160;   16.417;  -11.100;  687.040
1073.705;   15.300;  -10.480;  572.520
1074.250;   14.792;  -14.520;  559.900
1074.796;   16.423;  -11.460;  655.160
1075.341;   15.715;  -11.950;  664.100
1075.886;   14.881;  -11.460;  594.240
1076.431;   15.209;  -13.770;  649.880
1076.976;   14.985;  -12.680;  639.220
1077.521;   13.804;  -13.170;  583.080
1078.067;   14.339;  -10.860;  579.400
1078.612;   14.400;  -13.920;  661.620
1079.156;   14.619;  -13.880;  601.540
1079.701;   14.448;  -13.120;  693.260
1080.246;   14.726;   -9.940;  696.300
1080.791;   13.646;  -14.740;  625.020
1081.336;   13.588;  -13.750;  659.320
1081.880;   13.855;  -13.400;  649.680
1082.425;   12.816;  -12.220;  573.480
1082.970;   14.895;  -11.610;  717.040
1083.514;   13.409;  -13.580;  597.000
1084.059;   12.505;  -12.810;  586.720
1084.603;   12.143;  -12.320;  565.840
1085.147;   12.587;  -13.190;  645.220
1085.692;   13.573;  -12.480;  716.800
1086.236;   11.787;  -13.020;  503.140
1086.780;   14.015;   -9.190;  751.440
1087.325;   12.406;  -12.480;  654.620
1087.869;   12.872;  -12.450;  610.700
1088.413;   13.315;  -12.240;  705.040
1088.957;   10.959;   -9.020;  543.400
1089.501;   13.288;  -10.320;  766.640
1090.045;   12.455;  -12.720;  726.480
1090.589;   10.166;  -13.690;  569.920
1091.133;   11.232;  -10.020;  673.340
1091.676;   11.988;  -12.330;  591.940
1092.220;   11.515;  -14.970;  600.920
1092.764;   12.284;  -12.430;  706.960
1093.307;   11.379;   -9.800;  673.780
1093.851;   10.582;  -14.970;  556.540
1094.395;   11.537;  -15.310;  683.140
1094.938;   10.658;  -10.370;  632.520
1095.482;   10.731;  -11.050;  559.800
1096.025;   11.470;  -11.840;  710.880
1096.568;   11.761;  -12.840;  779.280
1097.112;    8.977;  -14.700;  508.180
1097.655;   10.977;   -8.720;  603.000
1098.198;    9.283;  -13.610;  600.180
1098.741;    9.323;  -13.350;  612.860
1099.285;   10.772;  -11.230;  657.300
1099.828;    7.968;  -11.840;  439.400
1100.371;   10.089;  -10.840;  608.160
1100.914;    9.966;  -14.190;  682.660
1101.457;    9.903;  -11.240;  679.900
1101.999;    8.819;  -11.270;  584.680
1102.542;   10.082;  -11.480;  641.440
1103.085;    9.165;  -11.750;  658.500
1103.628;    9.786;  -11.400;  762.060
1104.170;    8.714;  -10.490;  588.280
1104.713;    8.981;  -10.600;  646.700
1105.256;    8.694;  -14.360;  557.440
1105.798;    7.704;  -13.210;  499.980
1106.341;   10.028;  -10.270;  728.900
1106.883;    8.826;  -12.200;  521.340
1107.425;    8.582;  -13.110;  668.180
1107.968;    8.218;  -12.840;  612.380
1108.510;    9.010;   -6.480;  684.960
1109.052;    6.729;  -13.940;  612.620
1109.594;    7.636;  -13.690;  554.440
1110.136;    8.211;  -11.880;  643.220
1110.679;    7.639;   -9.500;  633.080
1111.221;    8.224;  -14.160;  604.460
1111.763;    7.452;  -13.980;  559.220
1112.304;    7.241;  -13.880;  547.140
1112.846;    7.531;  -12.210;  666.240
1113.388;   10.390;  -11.390;  942.180
1113.930;    8.153;  -14.540;  694.200
1114.472;    6.847;  -12.640;  606.540
1115.013;    5.581;  -11.620;  551.280
1115.555;    6.668;  -13.640;  587.100
1116.097;    6.585;  -15.380;  579.480
1116.638;    6.191;  -12.640;  684.600
1117.180;    6.415;   -9.850;  667.740
1117.721;    6.465;  -13.690;  568.580
1118.262;    7.452;  -12.680;  677.960
1118.804;    6.937;  -12.530;  637.340
1119.345;    5.875;  -11.690;  578.400
1119.886;    7.095;  -13.380;  704.040
1120.427;    5.979;  -14.070;  589.020
1120.969;    4.692;  -13.500;  597.920
1121.510;    4.565;  -11.480;  563.060
1122.051;    5.566;  -12.830;  723.580
1122.592;    5.339;  -14.290;  655.420
1123.133;    4.243;  -12.400;  547.940
1123.673;    6.360;  -10.130;  706.480
1124.214;    4.969;  -12.930;  612.460
1124.755;    5.964;  -14.380;  639.460
1125.296;    5.337;  -14.000;  627.320
1125.836;    5.961;  -10.070;  691.500
1126.377;    4.767;  -12.640;  599.660
1126.918;    5.918;  -12.960;  614.980
1127.458;    4.346;  -13.350;  622.220
1127.999;    5.277;  -10.750;  656.980
1128.539;    5.687;  -12.350;  694.240
1129.079;    5.154;  -14.860;  632.720
1129.620;    3.519;  -13.840;  558.100
1130.160;    3.884;  -12.330;  539.480
1130.700;    4.505;  -14.530;  640.840
1131.240;    5.125;  -12.530;  643.700
1131.781;    4.152;  -14.450;  619.680
1132.321;    3.519;   -9.790;  599.120
1132.861;    3.462;  -14.860;  564.200
1133.401;    3.711;  -14.290;  593.940
1133.941;    4.158;  -11.750;  626.280
1134.481;    3.276;   -9.920;  597.580
1135.020;    3.171;  -12.290;  609.160
1135.560;    3.905;  -11.650;  674.940
1136.100;    2.665;  -16.270;  501.160
1136.640;    2.242;  -10.890;  510.480
1137.179;    3.076;  -14.180;  537.960
1137.719;    3.003;  -16.250;  605.400
1138.258;    2.974;  -14.230;  587.360
1138.798;    3.206;   -9.090;  663.780
1139.337;    1.094;  -15.130;  482.840
1139.877;    3.097;  -13.680;  642.360
1140.416;    4.872;  -11.320;  878.060
1140.955;    1.643;  -10.860;  535.380
1141.494;    2.669;  -12.920;  669.280
1142.034;    2.560;  -13.930;  583.520
1142.573;    2.922;  -11.440;  646.280
1143.112;    1.321;  -12.000;  553.480
1143.651;    2.135;  -13.670;  536.480
1144.190;    3.435;  -12.730;  691.640
1144.729;    1.792;  -14.560;  607.420
1145.267;    2.508;  -11.830;  584.900
1145.806;    2.832;  -12.230;  637.040
1146.345;    1.601;  -14.130;  635.020
1146.884;    1.615;  -11.590;  622.500
1147.422;    0.390;  -12.550;  533.060
1147.961;    3.060;  -11.180;  708.460
1148.500;    2.370;  -11.510;  669.720
1149.038;    2.498;  -11.640;  632.500
1149.577;    2.253;  -10.130;  698.640
1150.115;   -0.433;  -13.970;  452.280
1150.653;    2.067;  -14.520;  607.340
1151.192;    0.662;  -12.810;  552.920
1151.730;    0.860;   -9.100;  652.560
1152.268;    0.873;  -12.220;  589.520
1152.806;    0.936;  -14.140;  571.180
1153.344;   -0.385;  -12.350;  577.640
1153.882;    0.431;   -8.980;  600.060
1154.421;   -1.182;  -15.190;  470.620
1154.958;   -0.291;  -15.210;  595.240
1155.496;    1.534;  -12.850;  645.280
1156.034;    0.206;   -9.940;  721.880
1156.572;    1.890;  -13.570;  667.060
1157.110;    0.200;  -14.590;  473.940
1157.647;    0.920;  -13.030;  676.960
1158.185;   -0.086;  -12.140;  564.320
1158.723;   -1.382;  -14.390;  509.200
1159.260;    0.597;  -14.090;  701.700
1159.798;    0.504;  -11.920;  658.160
1160.335;    0.062;  -11.110;  631.820

