
Integration time [ms]:   3.882
Averaging Nr. [scans]: 1000
Smoothing Nr. [pixels]: 0
Data measured with spectrometer [name]: 7414430SP
Wave   ;Sample   ;Dark     ;Reference
[nm]   ;[counts] ;[counts] ;[counts] 

288.544;  139.626;    7.153;  793.890
289.143;  142.666;    8.402;  681.602
289.742;  145.258;    7.062;  828.814
290.341;  132.536;    0.191;  789.841
290.940;  122.646;    0.321;  730.702
291.538;  123.153;    3.811;  881.108
292.137;  121.942;   -3.438;  792.581
292.736;  124.384;   -2.809;  975.101
293.335;  121.676;   -5.239;  735.086
293.934;  123.422;   -4.939;  781.677
294.532;  123.892;   -2.199; 1031.958
295.131;  110.018;   -6.831;  834.394
295.730;  109.555;   -6.620;  809.588
296.328;  105.633;   -6.471;  783.442
296.927;  105.893;   -6.571;  779.652
297.525;  108.555;   -7.391;  781.236
298.124;   98.750;   -9.402;  654.009
298.722;  103.700;   -5.781;  761.933
299.321;  101.655;   -6.351;  708.597
299.919;   99.387;   -8.661;  751.918
300.518;   95.249;  -11.922;  689.338
301.116;   96.055;   -6.941;  691.381
301.715;   97.853;   -5.471;  730.222
302.313;   95.499;   -8.361;  704.943
302.911;   91.194;   -9.082;  733.830
303.509;   96.072;   -4.571;  925.627
304.108;   94.442;   -7.111;  760.383
304.706;   95.173;   -7.681;  801.664
305.304;   88.794;   -9.162;  796.707
305.902;   94.116;   -6.761;  784.484
306.500;   89.525;   -6.921;  728.200
307.098;   88.862;   -6.491;  746.560
307.696;   86.765;   -6.941;  780.432
308.294;   85.996;   -6.301;  731.359
308.892;   89.214;   -4.771;  759.769
309.490;   86.118;   -5.141;  712.161
310.088;   84.126;   -2.912;  788.444
310.686;   88.689;   -0.421;  821.749
311.284;   84.411;   -3.461;  766.040
311.882;   82.840;   -6.282;  731.225
312.480;   78.318;   -3.632;  697.167
313.078;   80.271;   -2.112;  808.331
313.675;   81.184;   -1.931;  691.600
314.273;   77.027;   -1.442;  797.837
314.871;   75.523;   -3.002;  589.829
315.468;   73.011;   -2.252;  652.090
316.066;   76.374;   -1.091;  694.427
316.664;   69.742;   -4.512;  656.351
317.261;   73.595;   -0.062;  910.128
317.859;   69.503;   -0.952;  768.735
318.456;   70.701;    0.719;  830.096
319.054;   66.762;   -4.002;  787.828
319.651;   65.719;   -4.972;  759.928
320.249;   64.959;   -1.162;  810.188
320.846;   62.690;   -2.651;  714.286
321.443;   60.366;   -3.832;  832.135
322.041;   58.053;   -4.312;  812.315
322.638;   54.990;   -3.872;  701.456
323.235;   57.092;   -4.361;  665.683
323.833;   55.232;   -4.821;  740.354
324.430;   51.149;   -6.971;  615.900
325.027;   51.766;   -4.361;  876.855
325.624;   51.398;   -5.581;  644.532
326.221;   48.362;   -6.601;  689.717
326.818;   48.430;   -7.301;  818.332
327.415;   50.622;   -6.180;  748.828
328.012;   49.923;   -5.920;  690.585
328.609;   48.580;   -8.390;  731.389
329.206;   46.515;   -6.121;  778.621
329.803;   46.562;   -5.241;  737.841
330.400;   49.368;   -7.420;  704.260
330.997;   49.603;   -5.931;  817.147
331.594;   46.665;   -5.641;  788.185
332.191;   51.953;   -6.451;  728.722
332.787;   55.576;   -4.651;  844.463
333.384;   53.313;   -5.472;  763.093
333.981;   50.132;   -6.303;  815.687
334.578;   52.600;   -5.892;  708.378
335.174;   55.613;   -4.102;  731.469
335.771;   56.014;   -8.053;  836.456
336.367;   51.797;   -7.363;  710.631
336.964;   56.401;   -6.243;  793.266
337.561;   55.638;   -5.653;  731.112
338.157;   51.520;   -7.074;  911.916
338.754;   48.583;   -5.474;  796.589
339.350;   47.786;   -5.624;  722.493
339.946;   49.508;   -5.054;  773.135
340.543;   42.528;   -6.695;  846.136
341.139;   36.840;   -6.215;  720.836
341.735;   36.254;   -5.746;  772.593
342.332;   33.776;   -7.335;  691.472
342.928;   34.317;   -4.835;  795.394
343.524;   28.248;   -4.586;  761.684
344.120;   25.171;   -3.946;  738.562
344.716;   29.052;   -4.835;  723.717
345.313;   26.762;   -5.325;  795.342
345.909;   21.480;   -6.535;  627.336
346.505;   23.456;   -4.725;  740.247
347.101;   23.948;   -4.164;  827.864
347.697;   24.759;   -5.274;  785.398
348.293;   18.653;   -7.145;  627.244
348.889;   19.213;   -4.364;  745.914
349.485;   19.744;   -6.404;  688.205
350.081;   20.778;   -7.534;  772.592
350.676;   14.835;   -6.995;  691.606
351.272;   19.488;   -3.544;  809.530
351.868;   19.242;   -5.324;  780.497
352.464;   17.514;   -7.204;  723.932
353.059;   12.961;   -6.894;  646.017
353.655;   16.282;   -3.754;  777.063
354.251;   17.909;   -6.143;  759.845
354.846;   12.604;   -9.464;  740.646
355.442;   10.217;   -7.555;  753.071
356.038;   11.674;   -5.474;  751.708
356.633;   11.717;   -5.914;  728.594
357.229;   10.368;   -8.944;  724.757
357.824;    8.488;   -6.794;  703.600
358.420;    7.393;   -5.754;  679.726
359.015;    7.869;   -5.664;  695.357
359.610;    9.568;   -8.004;  763.920
360.206;    3.141;   -8.815;  603.240
360.801;    6.026;   -8.834;  646.503
361.396;    8.664;   -6.274;  725.975
361.992;    5.250;   -8.574;  668.220
362.587;    1.343;   -9.265;  670.160
363.182;    2.875;   -5.484;  689.631
363.777;    4.383;   -5.164;  738.242
364.372;    4.764;   -6.954;  737.314
364.967;    0.060;   -7.065;  680.744
365.563;    5.405;   -5.684;  815.567
366.158;    1.862;   -6.484;  685.161
366.753;    2.913;   -8.004;  649.263
367.348;    1.126;  -10.114;  746.056
367.942;    0.609;   -7.764;  697.298
368.537;    0.237;   -4.554;  754.245
369.132;    0.426;   -7.664;  703.428
369.727;   -4.260;   -8.905;  638.079
370.322;   -3.174;   -4.945;  580.186
370.917;   -2.848;   -7.095;  710.646
371.511;    0.510;   -6.574;  861.834
372.106;   -2.811;   -6.515;  776.964
372.701;   -6.496;   -8.225;  585.988
373.296;   -0.524;   -4.494;  863.135
373.890;   -4.934;   -7.965;  647.840
374.485;   -7.339;   -9.745;  691.199
375.079;   -3.718;   -5.554;  738.685
375.674;   -1.896;   -4.724;  812.970
376.268;   -6.519;   -8.365;  691.759
376.863;  -12.379;   -8.126;  580.327
377.457;   -5.961;   -6.045;  662.490
378.052;   -7.556;   -6.835;  764.884
378.646;   -8.541;   -9.375;  741.167
379.240;   -9.045;   -6.185;  721.176
379.835;   -8.414;   -6.135;  636.978
380.429;   -9.938;   -8.365;  562.557
381.023;   -9.168;   -7.935;  779.205
381.617;  -11.631;   -8.325;  680.106
382.212;   -8.540;   -7.405;  685.303
382.806;   -8.261;   -4.155;  760.690
383.400;  -11.594;   -8.945;  672.281
383.994;  -12.485;   -8.365;  664.870
384.588;   -8.643;   -7.824;  697.701
385.182;   -7.666;   -7.984;  726.624
385.776;   -8.658;  -10.404;  706.875
386.370;  -12.626;   -7.335;  681.968
386.964;  -11.320;   -7.485;  684.155
387.558;   -9.415;   -8.174;  598.360
388.152;  -13.008;  -10.415;  681.959
388.745;  -10.494;   -9.595;  814.707
389.339;   -8.735;   -6.454;  747.642
389.933;   -8.732;   -5.804;  695.370
390.527;   -8.633;   -6.854;  859.029
391.120;  -15.731;   -7.665;  595.318
391.714;  -12.469;   -7.245;  711.633
392.308;   -8.870;   -4.514;  780.253
392.901;  -11.822;   -7.935;  642.460
393.495;  -15.195;   -8.585;  595.414
394.089;  -13.328;   -5.245;  760.452
394.682;  -12.668;   -6.305;  697.188
395.275;  -13.498;   -9.335;  719.927
395.869;  -15.423;   -7.375;  667.314
396.462;  -13.677;   -7.055;  616.609
397.056;   -9.664;   -5.434;  776.621
397.649;  -14.553;   -9.525;  731.575
398.242;  -11.502;   -7.574;  712.645
398.836;  -10.893;   -5.134;  766.408
399.429;  -11.573;   -6.544;  631.041
400.022;  -14.471;   -9.215;  665.902
400.615;  -12.153;   -8.105;  805.609
401.208;  -10.777;   -7.614;  691.451
401.802;  -13.167;   -8.085;  699.329
402.395;  -14.127;   -9.575;  683.502
402.988;  -14.905;   -9.285;  696.627
403.581;  -11.054;   -7.514;  646.878
404.174;   -9.264;   -6.404;  686.568
404.767;  -11.856;   -8.775;  638.583
405.360;  -15.097;   -7.415;  621.445
405.953;   -8.940;   -5.624;  759.034
406.545;   -9.289;   -6.474;  725.342
407.138;  -12.882;   -8.445;  618.350
407.731;  -12.055;  -10.044;  613.303
408.324;   -7.884;   -8.484;  660.554
408.917;   -8.923;   -7.624;  681.864
409.509;   -9.926;   -8.304;  740.396
410.102;  -12.542;   -8.495;  643.948
410.695;   -6.711;   -7.824;  665.758
411.287;   -6.516;   -7.754;  599.821
411.880;   -8.451;   -9.294;  585.421
412.472;  -11.532;   -8.814;  613.092
413.065;   -8.812;   -6.674;  629.408
413.657;   -6.775;   -9.664;  576.678
414.250;   -4.753;  -10.264;  646.681
414.842;   -7.931;   -8.664;  676.353
415.434;   -6.452;   -8.584;  570.463
416.027;   -1.559;   -9.423;  652.196
416.619;   -3.820;  -10.764;  713.400
417.211;   -4.575;   -7.404;  599.352
417.804;   -1.083;   -7.383;  628.499
418.396;   -5.105;   -8.334;  607.643
418.988;   -1.904;   -9.633;  659.238
419.580;   -5.114;  -10.554;  568.276
420.172;   -4.541;   -8.683;  536.196
420.764;    0.616;   -9.713;  672.482
421.356;   -0.088;  -11.303;  636.898
421.948;   -1.048;   -8.453;  677.661
422.540;    4.030;   -5.793;  680.027
423.132;    2.882;   -7.162;  600.641
423.724;   -0.196;   -7.933;  561.267
424.316;    1.806;   -9.083;  621.345
424.908;    5.362;   -8.392;  591.517
425.500;    6.488;   -8.062;  647.978
426.092;    6.850;   -9.692;  648.268
426.683;    6.359;   -8.223;  684.836
427.275;    8.635;   -8.602;  641.471
427.867;    9.016;   -8.382;  668.948
428.458;   10.448;  -10.472;  732.344
429.050;    9.099;   -9.112;  680.749
429.642;   11.551;   -7.752;  743.124
430.233;   11.173;   -8.832;  569.356
430.825;   12.916;   -8.292;  724.809
431.416;    9.998;   -7.522;  698.241
432.008;   14.266;   -9.262;  651.723
432.599;   14.576;   -6.441;  656.073
433.190;   11.541;   -9.222;  637.670
433.782;   10.389;  -11.832;  590.395
434.373;   18.195;   -7.121;  884.765
434.964;   16.791;   -9.141;  602.920
435.556;   14.678;   -9.332;  634.537
436.147;   17.118;   -8.892;  758.490
436.738;   17.231;   -8.151;  701.099
437.329;   22.741;   -8.281;  721.723
437.920;   16.374;   -9.062;  666.688
438.511;   15.710;  -11.182;  564.526
439.103;   22.572;   -7.461;  623.998
439.694;   24.755;   -8.541;  681.583
440.285;   26.108;   -7.351;  764.432
440.876;   23.837;   -8.201;  845.738
441.466;   22.486;  -10.381;  575.162
442.057;   27.640;   -7.620;  665.814
442.648;   27.321;   -8.461;  746.255
443.239;   25.951;   -8.991;  620.477
443.830;   29.848;   -7.910;  704.958
444.421;   32.302;   -7.340;  655.474
445.011;   28.069;   -8.981;  693.619
445.602;   28.953;   -9.341;  743.126
446.193;   29.875;  -11.390;  488.117
446.783;   34.231;  -11.240;  640.397
447.374;   30.333;   -8.471;  692.759
447.964;   30.967;   -8.471;  713.770
448.555;   39.071;   -6.590;  822.742
449.145;   35.412;   -8.200;  662.853
449.736;   36.846;  -11.040;  803.179
450.326;   35.596;   -9.640;  713.626
450.917;   41.278;   -9.480;  675.324
451.507;   40.222;   -8.020;  600.661
452.097;   42.094;  -10.210;  746.267
452.688;   42.646;   -7.810;  742.160
453.278;   41.895;   -9.360;  566.840
453.868;   47.511;   -8.669;  793.550
454.458;   45.365;  -10.950;  651.141
455.048;   44.574;  -10.200;  711.783
455.639;   46.287;   -9.369;  567.096
456.229;   49.549;   -7.739;  710.694
456.819;   52.785;   -8.939;  751.158
457.409;   53.115;   -7.169;  773.993
457.999;   55.082;   -7.779;  737.505
458.589;   54.903;   -7.039;  686.606
459.179;   55.140;   -9.019;  717.658
459.769;   52.888;   -8.909;  627.099
460.358;   57.970;   -8.659;  797.262
460.948;   57.677;   -8.209;  689.503
461.538;   59.245;   -9.879;  660.677
462.128;   57.776;   -9.379;  664.934
462.717;   64.173;   -9.158;  710.326
463.307;   67.247;   -8.638;  705.846
463.897;   63.288;   -8.869;  656.942
464.486;   61.983;   -7.409;  837.128
465.076;   66.485;   -9.618;  733.776
465.666;   70.199;   -7.578;  652.900
466.255;   69.025;   -9.369;  785.651
466.845;   67.890;  -10.049;  666.749
467.434;   70.276;   -8.168;  725.873
468.023;   71.328;   -9.188;  658.357
468.613;   70.453;   -9.849;  713.946
469.202;   73.491;  -12.958;  646.507
469.791;   77.927;   -9.488;  737.811
470.381;   79.896;   -6.468;  742.813
470.970;   79.590;  -10.248;  711.099
471.559;   79.125;  -11.428;  733.291
472.148;   82.362;   -9.738;  675.737
472.738;   84.905;   -7.877;  765.466
473.327;   84.527;  -11.868;  637.529
473.916;   83.926;   -8.578;  737.446
474.505;   87.990;  -11.137;  751.703
475.094;   91.260;   -9.407;  806.570
475.683;   91.733;   -9.977;  797.699
476.272;   91.363;  -10.807;  730.632
476.861;   94.490;  -11.017;  706.754
477.449;  101.630;  -10.316;  728.487
478.038;   96.503;  -10.187;  692.513
478.627;   96.978;  -12.458;  714.852
479.216;  104.344;  -10.127;  769.441
479.805;  106.545;   -6.256;  783.375
480.393;  106.846;   -8.737; 1008.945
480.982;  105.617;   -9.087;  874.501
481.571;  111.628;   -7.806;  858.333
482.159;  111.555;  -10.596;  705.386
482.748;  112.258;  -11.507;  821.385
483.336;  117.051;   -8.366;  858.209
483.925;  118.073;   -7.497;  774.373
484.513;  124.779;   -8.326;  758.962
485.102;  121.144;  -10.277;  810.965
485.690;  129.475;   -8.256; 1011.050
486.278;  131.400;   -7.146;  979.329
486.867;  132.721;   -7.986;  809.662
487.455;  134.567;   -9.926;  898.229
488.043;  135.900;  -10.026;  748.361
488.631;  145.649;   -7.226; 1005.079
489.220;  149.423;   -8.696;  908.626
489.808;  149.285;  -12.276;  741.415
490.396;  156.848;   -9.386;  914.645
490.984;  163.099;   -8.506;  830.161
491.572;  173.139;   -8.226;  940.315
492.160;  178.180;   -9.836;  919.081
492.748;  189.748;  -10.316;  884.341
493.336;  211.649;   -7.146; 1019.693
493.924;  235.302;   -7.965;  958.077
494.512;  267.327;  -10.316; 1066.638
495.100;  305.913;  -10.186; 1103.280
495.687;  367.370;   -7.805; 1206.373
496.275;  435.145;   -9.686; 1150.796
496.863;  527.598;  -11.566; 1281.171
497.451;  614.501;  -11.406; 1386.805
498.038;  729.769;   -8.235; 1556.729
498.626;  877.143;   -7.485; 1741.407
499.214; 1057.057;   -8.646; 2016.609
499.801; 1344.776;   -9.936; 2220.633
500.389; 1590.554;   -8.056; 2312.494
500.976; 1756.480;   -6.166; 2744.849
501.564; 1972.371;   -9.126; 3148.565
502.151; 2302.384;  -12.456; 3515.999
502.738; 2708.256;  -10.056; 3971.274
503.326; 3174.064;  -10.605; 4403.796
503.913; 3636.782;  -10.576; 5161.749
504.500; 4173.811;   -9.056; 5986.420
505.088; 4790.943;  -10.136; 6381.201
505.675; 5556.980;   -9.075; 6925.547
506.262; 6084.721;  -11.346; 7619.060
506.849; 7103.622;   -9.376; 8733.969
507.436; 7998.566;   -7.365; 9790.121
508.023; 7860.814;   -8.686; 9985.472
508.610; 8030.703;   -8.846;10434.618
509.197; 8920.460;   -9.077;11198.435
509.784;10574.061;  -10.246;12391.194
510.371;11949.946;   -9.825;13603.713
510.958;13088.604;  -10.896;14426.586
511.545;13827.200;   -9.006;15243.775
512.132;13562.669;   -8.765;15945.876
512.719;14138.591;   -8.286;16340.369
513.305;16428.695;   -9.256;18011.766
513.892;18581.139;  -11.106;19754.971
514.479;21846.758;   -8.576;20967.805
515.066;25267.414;   -9.046;22299.793
515.652;26137.508;  -10.676;22908.660
516.239;26621.748;  -10.166;23798.875
516.825;26149.186;  -11.266;25567.275
517.412;25173.773;   -7.446;28154.959
517.998;24488.777;  -10.916;28344.111
518.585;24167.201;   -9.166;27134.219
519.171;23467.848;  -10.135;27268.576
519.758;24529.938;   -8.806;28964.129
520.344;27772.453;   -6.716;30664.494
520.930;30702.719;  -10.166;32550.605
521.516;30762.473;   -9.615;35422.895
522.103;33193.289;   -8.656;38280.004
522.689;34159.031;   -9.646;37835.117
523.275;33263.895;  -10.786;37288.613
523.861;35992.207;   -9.266;37281.395
524.447;37351.758;   -8.285;37846.949
525.033;36275.516;   -9.426;38321.949
525.619;35945.680;   -9.836;38579.285
526.205;38592.648;   -8.136;40622.875
526.791;40112.770;   -9.986;42258.836
527.377;39861.855;   -8.236;42966.902
527.963;39049.383;  -12.117;42018.949
528.549;37144.086;   -8.376;42476.828
529.135;37749.648;   -8.696;41854.852
529.721;40424.668;   -9.686;41237.711
530.306;43486.641;   -8.616;41259.445
530.892;45896.195;   -9.396;41506.047
531.478;46552.922;   -9.926;43559.613
532.063;46417.164;  -10.236;47695.563
532.649;47520.277;   -8.257;50808.324
533.235;49004.531;  -11.476;51787.500
533.820;49244.176;   -8.156;52145.035
534.406;50430.996;  -12.257;51133.488
534.991;47010.570;   -8.686;49996.805
535.576;43629.316;   -9.426;48882.852
536.162;42941.766;   -8.436;46942.285
536.747;43978.555;  -10.957;45711.746
537.333;44130.988;  -13.147;48510.180
537.918;45664.180;   -9.027;50439.891
538.503;48130.211;   -8.256;50863.711
539.088;49302.633;  -10.576;50906.922
539.673;50542.148;  -10.907;52621.965
540.259;51637.723;   -9.126;52368.094
540.844;51405.590;   -9.026;50879.109
541.429;51158.152;   -9.597;52077.777
542.014;53610.793;  -11.447;52716.695
542.599;54849.305;   -9.236;52363.281
543.184;54675.961;  -12.267;53187.137
543.769;55708.301;  -10.367;54697.605
544.354;55607.035;  -10.887;53913.914
544.938;49384.973;  -11.687;49680.164
545.523;44601.250;   -8.286;47386.277
546.108;44856.195;   -9.317;49151.949
546.693;46288.016;  -10.187;51384.637
547.278;44456.379;   -9.926;51853.254
547.862;43411.398;   -9.196;51173.750
548.447;42931.723;   -9.657;51691.395
549.031;44468.125;   -9.127;52456.703
549.616;47068.738;  -10.836;52714.516
550.201;48051.602;   -8.507;52414.598
550.785;48730.742;  -10.537;52355.059
551.370;51738.113;  -11.727;54589.453
551.954;51750.297;   -9.457;58267.348
552.538;50309.555;   -8.147;59062.176
553.123;49886.309;   -9.397;58115.285
553.707;51622.313;   -9.558;56556.285
554.291;50896.391;   -9.417;56201.668
554.876;52771.926;   -7.627;55335.762
555.460;51440.566;  -10.457;54155.703
556.044;46192.004;  -10.078;53721.484
556.628;44899.848;   -9.407;53731.016
557.212;44200.082;   -7.957;54312.531
557.796;43924.879;  -11.327;53797.773
558.380;48072.836;  -10.868;56145.984
558.964;48370.551;   -9.637;57277.930
559.548;46189.340;   -8.807;56459.641
560.132;48595.566;  -10.187;54434.543
560.716;50194.887;   -9.868;54800.617
561.300;51925.258;  -10.217;57606.945
561.884;51851.895;   -4.947;58972.445
562.467;48555.406;   -9.588;57327.570
563.051;43897.629;  -11.138;54962.434
563.635;44395.973;   -9.358;52594.473
564.219;45590.496;   -9.797;50610.410
564.802;43958.656;   -9.918;49551.180
565.386;42714.469;  -10.838;48370.953
565.969;41739.688;   -8.037;48178.871
566.553;40923.742;   -5.667;49957.305
567.136;41044.105;   -8.258;50369.594
567.720;42114.930;  -11.278;49492.004
568.303;39967.477;   -9.028;50616.352
568.887;38208.496;   -7.508;50727.148
569.470;37048.297;  -11.068;51698.379
570.053;39255.238;  -10.028;52122.078
570.637;39982.332;  -11.077;52536.438
571.220;41686.727;   -8.747;51186.098
571.803;44023.359;   -8.868;51032.762
572.386;44782.477;  -10.608;49609.887
572.969;43860.359;  -10.548;48285.926
573.552;41530.777;   -7.898;47624.285
574.135;40645.984;   -9.918;45498.641
574.718;36188.238;  -10.328;41970.434
575.301;33270.750;   -9.548;41447.137
575.884;30353.266;   -8.768;40923.836
576.467;36125.449;   -9.858;45267.723
577.050;37299.078;  -11.018;48175.543
577.633;38799.961;  -10.048;47729.328
578.216;37818.902;  -10.268;47579.793
578.799;35694.234;  -11.808;47820.996
579.381;34740.930;   -7.338;48115.551
579.964;36259.875;   -9.728;47333.766
580.547;36781.750;   -8.928;46668.969
581.129;36684.242;   -9.149;44466.141
581.712;38631.910;  -11.359;44164.922
582.294;39049.379;  -10.738;46477.855
582.877;37236.109;   -8.788;48244.254
583.459;35690.391;   -9.859;47437.895
584.042;36338.605;   -9.649;46943.219
584.624;36584.691;  -10.529;46792.227
585.206;35030.754;  -10.298;46557.250
585.789;33246.809;  -11.029;45793.773
586.371;33286.117;   -9.359;43836.391
586.953;33838.086;   -8.799;42972.492
587.536;34089.086;   -8.928;42487.211
588.118;33438.367;   -9.180;42086.414
588.700;31898.328;  -10.519;43389.930
589.282;30652.590;   -8.098;43646.039
589.864;30864.340;   -8.139;43438.109
590.446;32629.742;  -10.509;43151.926
591.028;35516.746;  -11.119;42781.867
591.610;36203.633;  -10.019;42839.098
592.192;34410.207;   -8.838;42820.402
592.774;32109.309;  -11.549;40724.277
593.356;29874.668;  -11.609;39874.789
593.937;30718.260;  -10.019;39980.648
594.519;33437.781;   -7.839;42069.633
595.101;34555.746;  -10.779;42976.031
595.683;35678.473;  -10.049;44084.441
596.264;35535.266;   -9.969;43478.797
596.846;34003.043;   -9.699;43803.672
597.427;33219.457;  -10.970;42986.934
598.009;34441.133;  -13.090;42832.219
598.591;34896.488;   -9.509;42580.086
599.172;33117.262;   -9.019;43061.805
599.753;30277.656;  -13.310;41691.469
600.335;30001.729;  -11.010;40692.520
600.916;30915.117;  -10.309;39982.422
601.498;31558.996;   -8.209;40318.617
602.079;32023.654;  -11.440;40670.609
602.660;33214.441;   -8.690;41450.898
603.241;34591.719;  -12.759;41137.738
603.823;32974.434;  -10.409;38868.797
604.404;33118.887;  -11.790;38182.785
604.985;31267.645;  -10.280;38078.047
605.566;31463.787;   -8.059;38056.633
606.147;32330.080;   -8.960;37020.418
606.728;32034.381;  -10.710;37883.359
607.309;30947.807;  -12.760;38748.273
607.890;28994.832;   -9.959;38850.230
608.471;27112.932;   -9.780;37457.918
609.051;28663.602;   -8.940;36066.457
609.632;31806.652;  -12.070;35991.074
610.213;33987.754;   -9.610;37402.641
610.794;34600.398;   -8.750;38383.363
611.374;33876.719;  -11.100;40562.387
611.955;34177.535;  -12.200;38533.727
612.536;33690.898;  -10.410;36951.789
613.116;33625.551;  -10.010;37197.891
613.697;32833.422;  -10.480;38411.125
614.277;30960.420;  -12.751;38673.938
614.858;30684.943;  -11.600;37075.863
615.438;29976.838;   -8.190;35092.906
616.019;28540.658;   -8.941;33666.301
616.599;29573.832;  -13.540;34189.023
617.179;29885.426;  -10.890;36952.047
617.760;30593.902;   -7.610;39582.574
618.340;30092.633;  -14.441;38943.977
618.920;29504.836;   -9.180;37594.156
619.500;29494.803;  -11.881;37866.938
620.080;31480.063;   -9.870;37869.043
620.660;31707.152;  -13.211;36868.617
621.241;30990.697;  -11.921;36352.309
621.821;30090.016;  -10.271;35459.520
622.401;29487.486;   -8.200;35207.414
622.980;30119.082;  -11.141;35980.422
623.560;31575.965;  -14.321;37351.328
624.140;31544.180;   -9.360;34388.582
624.720;28044.727;   -7.481;32368.764
625.300;24723.752;  -12.730;32638.629
625.880;29350.205;  -11.441;34599.035
626.459;32984.520;  -10.971;36831.738
627.039;34451.773;   -9.011;38299.098
627.619;34381.754;   -8.521;38289.574
628.198;35294.348;   -9.861;37220.695
628.778;35018.266;   -8.841;37632.563
629.357;33768.305;   -9.891;38003.012
629.937;31645.100;  -11.871;38402.039
630.516;30206.965;  -10.641;37868.801
631.096;32426.369;  -11.391;35760.410
631.675;34203.941;   -6.622;35225.219
632.254;32079.236;  -13.002;35130.289
632.834;30307.102;  -11.622;35794.570
633.413;32418.199;   -8.321;35788.922
633.992;30967.158;   -7.732;34532.863
634.571;30115.695;  -10.992;33590.113
635.151;31560.430;  -10.422;34943.863
635.730;31749.199;  -11.511;35352.523
636.309;30875.445;   -7.901;35366.605
636.888;30251.512;  -11.452;36165.637
637.467;30490.082;  -10.672;37515.902
638.046;30307.223;   -9.301;39288.695
638.625;31089.758;  -11.452;38279.699
639.204;32545.682;  -12.262;37741.598
639.782;32021.201;  -11.892;38364.551
640.361;30699.760;  -11.411;36740.621
640.940;27551.371;  -11.501;34950.082
641.519;27742.422;  -10.921;34137.398
642.097;30947.908;  -10.101;35654.258
642.676;31628.320;  -10.821;35637.957
643.255;34042.184;   -8.631;36567.074
643.833;36441.262;  -11.411;37809.434
644.412;37530.074;  -12.021;37337.293
644.990;36827.980;  -12.271;37018.531
645.569;35901.250;   -9.741;36518.469
646.147;35158.973;   -9.051;36186.430
646.726;33109.957;  -13.861;36267.688
647.304;32742.730;   -9.461;36647.625
647.882;31695.818;  -13.171;39286.742
648.461;31873.488;  -11.911;39157.703
649.039;32487.416;   -9.541;35412.883
649.617;34613.719;   -8.901;34744.918
650.195;32811.906;   -8.591;35403.098
650.773;30840.451;  -13.031;35053.797
651.352;28987.176;  -12.211;33756.816
651.930;26235.250;  -11.361;31868.773
652.508;23492.338;   -8.601;33121.551
653.086;26974.035;   -9.991;33564.793
653.663;31436.453;  -11.931;34054.668
654.241;33600.375;  -10.821;35693.309
654.819;34260.191;   -9.341;36422.906
655.397;31938.945;  -10.851;38213.484
655.975;30051.518;  -11.461;39507.625
656.553;30713.027;   -8.841;39498.223
657.130;30205.754;  -10.371;40395.480
657.708;28644.123;  -11.071;39242.020
658.286;28574.762;  -11.141;38920.020
658.863;30995.654;  -10.861;40202.898
659.441;36813.133;  -11.181;39677.938
660.018;38410.879;  -10.851;40413.355
660.596;36920.219;  -12.571;39931.414
661.173;37553.418;  -12.141;39604.531
661.750;34261.340;  -11.571;39700.070
662.328;30967.473;  -10.780;39292.809
662.905;30110.729;  -10.750;38235.648
663.482;27148.395;  -11.320;36212.305
664.060;25866.309;  -10.160;35944.945
664.637;31144.891;  -13.120;35170.785
665.214;34035.008;  -11.500;34197.523
665.791;32538.727;  -12.430;34549.520
666.368;30388.330;   -9.840;35118.578
666.945;29185.602;  -11.290;36019.418
667.522;29393.385;  -13.540;36048.438
668.099;30053.277;  -10.250;36243.914
668.676;29004.744;  -11.270;35958.875
669.253;28287.701;   -8.210;37384.730
669.830;26938.504;   -9.710;36779.629
670.407;26493.031;   -9.700;35231.289
670.984;26451.973;   -9.190;35544.270
671.560;25288.016;   -9.560;35466.867
672.137;24750.846;  -11.820;34280.863
672.714;27467.262;  -12.460;34632.863
673.290;31839.854;  -10.940;35135.422
673.867;33111.438;  -10.510;36114.480
674.443;31019.514;  -12.110;36152.859
675.020;31139.670;  -11.760;35327.238
675.596;32262.936;   -9.380;35795.176
676.173;31799.750;  -11.120;35430.355
676.749;30942.549;  -13.390;33549.516
677.326;29773.807;  -12.600;32210.012
677.902;28673.846;  -10.830;32068.871
678.478;27726.785;  -12.400;32583.891
679.054;28857.854;   -8.610;32088.928
679.631;30420.361;  -11.640;30978.848
680.207;31282.533;   -8.140;33160.887
680.783;31089.504;  -12.300;35570.363
681.359;29678.891;  -10.910;36125.184
681.935;28506.357;  -11.040;35240.922
682.511;28977.969;  -11.130;34429.961
683.087;29113.602;  -11.080;34463.680
683.663;30568.295;  -10.530;34648.898
684.239;31085.207;  -12.120;34546.457
684.815;30146.279;   -8.870;35586.375
685.390;28887.207;   -8.940;35821.895
685.966;28070.469;  -12.109;35085.871
686.542;26944.400;  -13.539;34198.230
687.118;26044.504;  -10.379;32847.707
687.693;26739.729;  -10.189;32794.027
688.269;26146.223;  -12.939;33072.367
688.844;24743.199;   -8.679;33141.664
689.420;25668.311;  -10.919;33965.742
689.995;26472.650;   -7.489;34655.523
690.571;25706.754;  -12.199;33576.742
691.146;25673.215;   -8.979;32657.219
691.722;27064.668;   -9.119;32526.979
692.297;27350.301;  -10.519;33014.617
692.872;27529.498;  -10.629;34012.254
693.448;27744.150;  -12.119;34237.434
694.023;26828.471;   -8.219;34142.672
694.598;25241.277;  -13.209;34132.031
695.173;23937.027;  -11.879;34205.250
695.748;24370.461;  -12.039;32882.488
696.323;25638.156;  -11.779;32864.906
696.898;26219.090;  -10.219;33170.004
697.473;27833.420;  -13.639;32432.984
698.048;28478.111;  -11.239;31649.303
698.623;30332.004;  -10.859;30778.141
699.198;32515.191;  -13.379;31140.119
699.773;32755.514;  -13.409;31764.299
700.348;31499.996;  -12.329;31780.816
700.922;31458.535;   -8.749;32046.375
701.497;31490.463;  -12.449;32603.574
702.072;30086.162;   -8.879;34799.871
702.646;28242.953;  -10.719;35793.172
703.221;27378.010;   -8.469;35201.590
703.795;28364.314;  -11.389;34764.527
704.370;27566.744;  -12.499;34307.367
704.944;25823.418;  -11.449;33509.887
705.519;25534.201;  -10.659;31388.584
706.093;24660.205;  -12.909;31340.104
706.668;24859.068;  -13.509;32630.281
707.242;25862.561;  -10.049;32728.779
707.816;26087.271;  -10.629;32947.238
708.390;25573.213;  -11.829;33277.855
708.965;24025.813;  -11.159;33834.336
709.539;24150.785;  -11.069;33709.273
710.113;23954.797;  -10.908;33044.313
710.687;22094.674;   -9.488;31953.992
711.261;22222.217;  -13.068;30505.949
711.835;24468.250;  -12.748;30262.369
712.409;26718.648;  -10.678;31254.447
712.983;26603.492;  -11.658;32754.986
713.557;26120.631;  -13.718;34018.824
714.131;26680.344;  -13.388;34579.625
714.704;29134.631;   -9.818;33890.262
715.278;31127.340;  -11.818;33531.102
715.852;31145.688;  -11.328;33601.660
716.425;31791.613;   -9.118;33515.117
716.999;32322.287;  -10.188;33185.555
717.573;31625.434;   -9.808;33905.996
718.146;30359.422;  -11.478;35199.293
718.720;29095.836;  -10.998;35060.551
719.293;28391.625;   -9.508;34973.230
719.867;29292.074;  -12.138;36394.449
720.440;28546.193;  -11.288;36663.008
721.013;29978.084;  -11.428;35102.426
721.587;31501.354;  -11.698;33985.266
722.160;33183.352;  -11.608;33524.965
722.733;34003.727;  -11.428;32987.043
723.306;30976.797;  -12.518;33066.301
723.880;29238.406;   -7.408;33399.500
724.453;28957.867;  -11.048;33468.297
725.026;28003.473;  -11.678;33816.637
725.599;26488.152;  -10.978;32797.996
726.172;24684.607;   -8.838;33187.434
726.745;24266.816;  -11.438;35136.613
727.318;25477.436;   -9.828;35751.730
727.891;26212.693;  -10.868;35890.430
728.463;26446.910;  -11.348;34822.090
729.036;25494.211;  -11.608;32895.086
729.609;25247.840;  -14.738;31823.225
730.182;25513.662;   -8.448;31445.283
730.754;26123.893;  -11.228;32373.223
731.327;26099.818;  -12.018;33676.820
731.900;27615.982;  -13.748;33417.000
732.472;28768.760;  -10.928;31978.498
733.045;28747.262;   -9.478;30368.777
733.617;27132.318;  -12.967;30574.215
734.190;26319.881;  -11.707;31280.975
734.762;25751.336;  -11.067;31674.412
735.334;24867.016;  -10.587;31247.291
735.907;23856.059;  -11.947;29876.211
736.479;24236.650;  -11.667;29808.488
737.051;25654.131;  -10.187;30233.547
737.623;26035.658;   -6.887;31469.086
738.195;27137.004;  -12.117;31784.225
738.768;29342.939;  -14.077;32120.523
739.340;29076.605;  -12.207;32094.342
739.912;27037.418;   -8.977;31312.680
740.484;25723.289;  -11.017;31946.238
741.056;27473.518;  -13.517;32984.059
741.628;30073.273;  -11.507;33897.715
742.199;30539.570;   -7.597;33213.016
742.771;30088.102;  -12.227;31369.113
743.343;28652.424;  -12.427;31865.473
743.915;26673.914;   -9.827;32388.631
744.487;25521.533;  -10.007;31079.568
745.058;24804.229;  -11.887;30570.107
745.630;23800.203;  -10.787;29970.127
746.201;23347.395;  -10.887;29186.766
746.773;24953.408;   -9.707;28805.723
747.344;26220.707;  -11.137;29591.223
747.916;25574.287;  -11.887;31412.201
748.487;24682.467;   -9.707;32194.898
749.059;24256.248;  -10.027;32533.719
749.630;23802.783;  -11.787;32158.518
750.201;22708.697;  -12.767;30855.395
750.773;20734.063;  -11.497;28622.555
751.344;21264.584;   -9.937;28405.732
751.915;21141.668;  -11.567;28461.551
752.486;18938.699;  -13.267;27842.850
753.057;17913.045;  -10.627;27845.008
753.628;17985.990;  -11.657;27728.107
754.199;20084.502;  -12.097;27381.086
754.770;21576.359;  -11.447;25882.203
755.341;22156.338;  -11.997;25886.184
755.912;20792.154;  -10.207;26050.861
756.483;18780.369;  -10.937;26798.779
757.054;19053.355;  -11.527;27048.238
757.625;19399.861;  -12.886;26294.838
758.195;18862.418;  -11.226;26142.076
758.766;19337.068;  -12.366;26392.234
759.337;18282.852;  -11.946;26334.594
759.907;17780.859;  -13.856;27579.652
760.478;19002.090;   -9.606;28352.770
761.048;20655.088;  -11.606;27325.088
761.619;21365.686;  -11.036;26460.428
762.189;19885.666;  -12.206;26029.826
762.760;18881.656;   -9.666;26430.145
763.330;19626.043;   -9.796;26670.902
763.900;19564.369;  -10.896;26603.021
764.471;19169.723;  -11.726;25542.740
765.041;19913.691;   -9.656;24358.459
765.611;20396.701;  -11.276;23991.297
766.181;20067.928;  -12.116;24470.236
766.751;19833.760;  -12.376;24845.975
767.321;19937.639;  -11.626;24533.633
767.891;19540.998;  -10.426;24916.492
768.461;17932.258;  -13.456;24776.771
769.031;15800.341;  -11.616;24757.988
769.601;14920.482;  -11.356;24181.088
770.171;14724.294;  -11.586;23670.387
770.741;15098.827;  -12.696;22960.045
771.311;16837.170;  -10.226;22917.523
771.880;17894.393;  -11.146;23562.941
772.450;18340.113;  -11.716;24216.500
773.020;18001.861;  -13.226;24140.398
773.589;16667.119;  -12.586;24414.857
774.159;16292.563;  -10.246;23858.717
774.729;15768.726;  -11.586;22942.135
775.298;15595.002;  -15.926;22324.033
775.867;15591.470;  -10.426;21140.313
776.437;15273.206;  -11.416;20838.092
777.006;13494.845;  -12.766;20599.510
777.576;13282.453;  -13.666;20508.809
778.145;14725.897;  -10.066;20732.947
778.714;15176.369;  -10.276;21062.465
779.283;14630.422;  -12.086;20949.664
779.853;14271.248;  -14.016;20508.623
780.422;14043.072;  -12.376;20649.082
780.991;13457.599;   -9.246;21527.520
781.560;13214.401;   -9.775;22632.658
782.129;13535.029;  -12.495;23048.277
782.698;13631.709;  -11.775;23438.555
783.267;13419.578;  -10.065;23267.734
783.836;14218.007;  -12.455;22415.133
784.404;14796.098;  -13.385;20443.152
784.973;14779.634;  -11.045;19699.150
785.542;14266.354;   -9.505;19763.828
786.111;13550.892;   -9.385;20341.408
786.679;13357.229;  -13.475;20207.967
787.248;13226.079;  -11.245;19516.465
787.817;11837.812;  -12.485;18900.363
788.385;10382.408;  -11.165;17879.121
788.954;10914.712;  -11.755;17658.301
789.522;11854.412;   -9.625;17788.879
790.090;12131.317;   -9.665;18118.277
790.659;11409.970;   -9.295;18338.736
791.227;11249.834;  -12.175;18508.615
791.795;11914.266;  -12.145;17898.254
792.364;12027.746;  -11.575;17295.133
792.932;11514.611;  -11.085;16822.051
793.500;11211.630;  -11.345;17040.148
794.068;10888.878;  -12.565;17179.787
794.636;11388.652;  -12.105;16664.246
795.204;12434.235;  -11.995;16524.545
795.772;12503.025;  -12.615;17274.564
796.340;11980.066;  -12.425;17891.002
796.908;11476.476;  -11.455;17648.561
797.476;10592.203;  -12.165;17064.080
798.044; 9471.327;  -15.795;16672.777
798.612; 8935.104;  -10.985;17023.996
799.180; 9423.938;  -12.055;16561.615
799.747; 9856.028;  -12.525;15962.773
800.315; 9055.420;  -14.765;15296.992
800.883; 7911.368;  -12.435;14801.771
801.450; 7797.140;  -11.295;14534.430
802.018; 8271.178;  -11.185;14173.248
802.585; 8463.561;  -11.625;14029.547
803.153; 7793.893;  -10.665;13836.846
803.720; 7254.815;  -10.275;13567.324
804.287; 7422.456;  -12.865;13360.622
804.855; 7737.664;  -12.324;13681.981
805.422; 7702.985;  -11.574;13536.560
805.989; 7373.031;  -11.004;13355.958
806.556; 7596.540;  -12.214;13747.896
807.124; 7996.795;  -13.304;13987.376
807.691; 7939.539;  -12.034;14038.674
808.258; 7779.083;  -11.014;14120.152
808.825; 7689.570;  -11.804;13860.111
809.392; 7460.344;  -11.544;13268.790
809.959; 7247.010;  -14.954;12680.389
810.526; 7544.879;  -10.214;12427.308
811.093; 7617.138;  -10.754;12030.105
811.659; 7249.065;  -12.194;11653.664
812.226; 6516.495;   -9.194;11637.183
812.793; 6297.517;   -9.644;11611.521
813.360; 6920.476;  -11.544;11885.181
813.926; 7897.059;  -12.814;12770.539
814.493; 8004.210;  -11.524;12677.638
815.060; 7792.875;  -12.254;11974.336
815.626; 7671.104;  -12.114;11594.715
816.193; 7193.221;  -11.994;11579.474
816.759; 6628.926;  -11.464;11666.972
817.325; 6193.954;  -10.444;11325.530
817.892; 5927.226;  -11.124;11105.369
818.458; 5934.930;  -11.864;10843.928
819.024; 6381.990;  -10.634;10714.406
819.591; 6571.942;  -10.554;10469.165
820.157; 6640.526;  -13.334;10235.523
820.723; 6704.158;  -13.044;10847.563
821.289; 6615.900;   -9.664;11040.980
821.855; 6683.448;  -10.994;10357.100
822.421; 6939.191;  -11.784; 9978.918
822.987; 7129.456;  -12.554; 9754.177
823.553; 7152.532;  -12.554;10065.755
824.119; 6835.733;   -8.544;10036.294
824.685; 6114.712;  -12.144;10029.192
825.251; 5785.867;  -12.754;10199.230
825.816; 5472.396;  -11.354; 9820.189
826.382; 5094.487;  -11.004; 9297.248
826.948; 5013.242;  -11.004; 9381.347
827.513; 5231.640;  -12.474; 9450.726
828.079; 5371.060;  -13.084; 9472.444
828.645; 5507.627;  -10.813; 9292.643
829.210; 5343.193;  -11.593; 9065.341
829.776; 5328.791;  -12.633; 9132.620
830.341; 5620.328;  -10.473; 9092.878
830.906; 5576.013;   -8.763; 9078.557
831.472; 4895.935;  -13.453; 8534.535
832.037; 3926.391;  -12.173; 8677.874
832.602; 3597.647;  -14.093; 8628.692
833.167; 3955.852;  -13.593; 8879.031
833.733; 4589.270;  -10.793; 9189.790
834.298; 4991.643;  -14.783; 9052.608
834.863; 4659.743;  -11.023; 8895.087
835.428; 4305.607;  -11.113; 8824.266
835.993; 4587.139;   -9.983; 8845.385
836.558; 4842.657;  -13.003; 8888.563
837.123; 4753.225;  -10.733; 8966.582
837.688; 4406.625;   -9.683; 8617.860
838.253; 4169.167;  -12.253; 8590.699
838.817; 4347.020;  -11.643; 8443.797
839.382; 4579.801;  -11.953; 8799.356
839.947; 4571.405;  -11.443; 8810.595
840.511; 4414.532;  -10.843; 8796.394
841.076; 4369.712;  -13.533; 8347.231
841.641; 4497.271;  -11.743; 8224.330
842.205; 4397.715;  -10.013; 8223.349
842.770; 4250.349;  -11.023; 8622.107
843.334; 4241.942;  -14.273; 8410.386
843.898; 4391.092;  -11.323; 8337.465
844.463; 4751.712;  -10.263; 8506.283
845.027; 4919.109;  -10.353; 8280.962
845.591; 4845.048;  -12.163; 8231.141
846.156; 4645.313;  -12.263; 7969.179
846.720; 4626.894;  -11.553; 7768.278
847.284; 4563.317;  -12.393; 7630.957
847.848; 3984.151;  -12.623; 7472.395
848.412; 3403.115;  -11.863; 7437.394
848.976; 3291.236;  -10.203; 7674.592
849.540; 3371.493;  -10.603; 7836.011
850.104; 3497.599;  -12.423; 7913.669
850.668; 3578.979;  -14.613; 7694.508
851.232; 3514.273;  -12.873; 7756.887
851.796; 3502.028;  -14.192; 7926.545
852.359; 3632.074;  -13.652; 7827.844
852.923; 3615.837;  -11.402; 7641.163
853.487; 3520.693;  -12.022; 7342.501
854.050; 3410.866;  -15.202; 7042.820
854.614; 3383.784;  -14.592; 7151.338
855.177; 3291.862;  -12.572; 7105.077
855.741; 3265.051;   -9.932; 6989.675
856.304; 3438.341;  -12.192; 6596.634
856.868; 3540.147;  -13.462; 6356.272
857.431; 3521.211;  -11.542; 6468.571
857.995; 3537.885;  -12.062; 6373.210
858.558; 3308.903;  -11.142; 6324.448
859.121; 3001.914;  -11.742; 6408.327
859.684; 2808.114;  -10.332; 6347.886
860.247; 2774.842;  -11.962; 6321.264
860.810; 2886.888;  -12.332; 6301.903
861.374; 2917.501;  -10.292; 6607.881
861.937; 2851.024;  -12.062; 6408.200
862.500; 2929.056;  -11.702; 6572.639
863.062; 3073.515;  -13.852; 6387.297
863.625; 3164.081;  -12.972; 6190.836
864.188; 3068.626;  -10.292; 5807.254
864.751; 2937.938;  -12.382; 5682.413
865.314; 2789.761;  -13.232; 5547.492
865.876; 2606.395;  -12.772; 5500.150
866.439; 2447.012;  -11.952; 5415.909
867.002; 2410.693;   -9.332; 5501.567
867.564; 2590.887;  -11.712; 5413.946
868.127; 2751.908;  -12.012; 5160.325
868.689; 2573.158;  -11.882; 5133.183
869.252; 2284.904;  -11.572; 5252.382
869.814; 2150.311;  -10.692; 5297.141
870.377; 2212.685;  -12.392; 5390.919
870.939; 2317.088;  -10.582; 5599.898
871.501; 2341.739;  -12.782; 5248.336
872.063; 2309.646;  -15.612; 4854.235
872.626; 2302.496;  -13.922; 4817.074
873.188; 2204.079;  -13.832; 4987.732
873.750; 2058.098;  -10.962; 4868.651
874.312; 2070.545;  -11.022; 4779.330
874.874; 2098.699;  -13.152; 4866.348
875.436; 2072.226;  -13.401; 4718.887
875.998; 2032.535;   -8.891; 4660.005
876.560; 1982.125;  -12.591; 4462.964
877.122; 1917.299;  -14.531; 4145.042
877.683; 1827.589;  -10.781; 4056.481
878.245; 1759.198;  -14.281; 3950.740
878.807; 1763.254;  -10.311; 4058.958
879.369; 1710.197;  -13.201; 3954.677
879.930; 1670.456;  -12.061; 3941.495
880.492; 1685.132;   -9.181; 4067.014
881.053; 1711.477;  -12.051; 3859.633
881.615; 1692.599;  -11.501; 3776.071
882.176; 1603.164;  -12.221; 3734.750
882.738; 1471.532;   -8.931; 3678.489
883.299; 1351.227;  -13.571; 3405.407
883.860; 1351.913;  -12.331; 3351.106
884.422; 1312.467;  -10.201; 3394.044
884.983; 1180.056;  -12.521; 3166.443
885.544; 1074.144;  -12.291; 3189.802
886.105; 1042.540;  -12.991; 3160.360
886.666; 1044.406;  -12.901; 3093.059
887.227; 1027.009;  -12.061; 2941.957
887.788;  980.219;  -11.641; 2974.836
888.349;  935.671;  -14.691; 2721.214
888.910;  894.466;   -9.681; 2696.493
889.471;  873.857;   -9.971; 2560.172
890.032;  855.888;  -13.151; 2558.190
890.593;  830.843;  -12.051; 2567.669
891.153;  801.046;  -12.841; 2460.307
891.714;  776.955;  -13.561; 2372.046
892.275;  756.743;  -12.401; 2309.505
892.835;  724.739;  -13.191; 2382.543
893.396;  677.023;  -12.551; 2295.502
893.956;  659.199;  -11.981; 2162.420
894.517;  663.046;  -12.221; 2125.439
895.077;  640.581;  -12.021; 2086.978
895.638;  579.022;  -10.891; 2126.316
896.198;  522.312;  -13.171; 1838.275
896.758;  482.332;  -11.891; 1892.813
897.319;  440.894;  -12.491; 1792.232
897.879;  416.504;  -12.401; 1762.751
898.439;  390.233;  -13.431; 1661.149
898.999;  371.236;  -11.340; 1781.468
899.559;  363.123;  -13.930; 1703.347
900.119;  347.463;  -13.730; 1537.525
900.679;  331.156;   -9.210; 1638.384
901.239;  317.574;  -10.860; 1527.902
901.799;  300.521;  -11.450; 1456.441
902.359;  278.944;  -13.800; 1357.140
902.919;  267.421;  -12.130; 1331.118
903.479;  266.095;  -12.650; 1317.257
904.038;  255.513;  -16.110; 1262.595
904.598;  238.304;  -13.690; 1152.034
905.158;  224.372;  -10.290; 1240.893
905.717;  215.949;  -10.670; 1233.691
906.277;  213.091;  -14.040; 1217.330
906.836;  212.694;  -13.510; 1222.408
907.396;  208.387;  -11.530; 1193.047
907.955;  198.217;  -13.190; 1182.526
908.515;  187.880;  -12.950; 1099.364
909.074;  178.768;  -12.390; 1092.863
909.633;  172.952;  -10.340; 1069.121
910.192;  171.525;  -11.170; 1196.460
910.752;  168.212;  -14.200; 1029.960
911.311;  165.249;  -13.810; 1009.780
911.870;  162.375;  -12.750;  971.460
912.429;  162.507;  -12.380; 1094.080
912.988;  159.485;  -11.930; 1081.060
913.547;  155.054;  -10.990;  940.380
914.106;  151.824;  -11.200;  999.420
914.665;  149.771;  -13.150;  984.020
915.224;  147.720;  -13.310; 1035.760
915.782;  145.281;  -13.340;  922.560
916.341;  144.525;  -10.710; 1049.840
916.900;  142.728;  -12.980;  925.260
917.458;  141.838;  -13.060;  884.220
918.017;  140.103;  -10.900;  942.600
918.576;  138.683;  -11.630;  904.440
919.134;  137.923;  -12.860;  837.980
919.693;  139.333;  -15.160;  893.060
920.251;  137.795;  -13.470;  876.500
920.809;  136.810;  -13.700;  839.580
921.368;  137.046;  -13.420;  885.360
921.926;  137.512;  -14.710;  842.940
922.484;  139.500;  -12.560;  903.360
923.042;  139.454;  -11.930;  880.340
923.601;  139.591;  -10.270;  998.680
924.159;  137.788;  -12.960;  935.560
924.717;  135.125;  -13.040;  841.080
925.275;  135.834;  -12.560;  903.240
925.833;  137.065;  -13.040;  779.320
926.391;  140.859;  -13.360;  938.380
926.949;  139.688;  -13.940;  857.680
927.506;  140.558;   -9.400;  903.500
928.064;  139.595;  -10.940;  877.580
928.622;  140.008;  -13.180;  880.100
929.180;  139.242;  -12.730;  814.180
929.737;  138.975;  -12.840;  808.540
930.295;  142.688;  -11.810;  928.480
930.853;  148.413;  -13.650;  849.100
931.410;  152.623;  -13.580;  821.120
931.968;  154.554;  -12.020;  940.660
932.525;  154.442;  -13.320;  909.380
933.082;  153.809;  -13.800;  811.440
933.640;  156.235;  -11.380;  925.900
934.197;  159.609;  -11.480;  886.360
934.754;  161.314;  -13.220;  897.780
935.312;  160.874;  -14.950;  863.340
935.869;  158.635;  -10.940; 1012.980
936.426;  153.638;  -12.100;  872.800
936.983;  152.743;  -12.930;  889.020
937.540;  153.501;  -14.250;  838.280
938.097;  159.239;  -12.600;  940.120
938.654;  165.210;  -11.260;  898.860
939.211;  168.432;  -13.020;  952.480
939.768;  170.249;  -15.760;  915.420
940.324;  174.138;  -13.920;  904.200
940.881;  172.666;  -11.620;  878.500
941.438;  169.368;   -9.870; 1021.200
941.995;  166.428;  -13.920;  992.560
942.551;  162.622;  -12.830;  875.620
943.108;  163.121;  -11.980;  937.920
943.664;  166.194;  -13.740;  869.340
944.221;  174.498;  -12.670; 1088.140
944.777;  174.427;  -13.250;  869.680
945.334;  170.314;  -13.000;  884.840
945.890;  169.629;  -13.020;  946.480
946.446;  168.089;  -13.880;  947.020
947.003;  168.419;  -12.660;  964.940
947.559;  169.877;   -8.730; 1063.040
948.115;  168.024;  -11.960; 1026.540
948.671;  162.400;  -12.360;  967.300
949.227;  157.773;  -12.700;  859.560
949.783;  155.070;  -13.450;  858.900
950.339;  154.779;  -10.620;  991.000
950.895;  151.517;  -14.770; 1023.840
951.451;  149.461;  -13.650;  925.280
952.007;  150.688;  -11.180;  998.540
952.563;  150.274;  -11.680;  937.780
953.118;  148.740;  -13.280;  904.940
953.674;  149.581;  -12.510;  935.780
954.230;  150.096;  -12.220;  949.640
954.785;  146.552;  -12.190;  936.640
955.341;  143.217;  -12.270;  998.160
955.897;  140.330;  -14.900;  834.660
956.452;  141.994;  -12.520;  953.840
957.008;  140.992;   -9.410; 1083.640
957.563;  138.334;  -11.280; 1009.540
958.118;  135.369;  -13.470;  877.700
958.674;  135.390;  -12.190;  946.780
959.229;  136.409;  -12.760; 1013.980
959.784;  140.872;  -15.710;  832.400
960.339;  144.845;  -12.540; 1001.280
960.894;  145.203;  -11.680;  963.760
961.449;  141.044;  -11.410;  859.960
962.004;  140.870;  -10.430; 1212.840
962.559;  132.777;  -14.040;  860.140
963.114;  127.786;  -14.270;  742.480
963.669;  128.295;  -11.320;  915.500
964.224;  127.771;  -14.620;  874.340
964.779;  127.097;  -14.150;  828.420
965.334;  126.303;  -10.850; 1017.860
965.888;  126.357;  -14.530;  875.360
966.443;  128.004;  -13.520;  972.380
966.998;  125.162;  -13.370;  819.460
967.552;  123.776;   -9.960;  908.380
968.107;  120.150;  -12.360;  868.300
968.661;  120.896;  -12.270;  922.440
969.216;  119.365;  -12.140;  856.280
969.770;  119.038;  -11.860;  917.200
970.324;  119.377;  -12.170;  923.140
970.879;  118.012;  -14.160;  947.180
971.433;  116.037;  -12.940;  952.720
971.987;  112.257;  -10.180;  895.340
972.541;  111.767;  -12.130;  917.100
973.095;  111.510;  -14.980; 1009.460
973.649;  110.140;  -14.480;  809.480
974.203;  112.289;  -13.530;  829.040
974.757;  114.482;  -12.060;  855.220
975.311;  113.092;  -13.240;  872.600
975.865;  110.735;  -12.550;  881.820
976.419;  108.568;  -13.180;  857.400
976.973;  108.277;  -14.100;  849.620
977.526;  107.606;  -13.330;  949.920
978.080;  103.724;  -15.390;  796.780
978.634;  102.501;  -11.670;  921.320
979.187;   99.457;  -10.640;  905.400
979.741;   99.485;  -13.330; 1018.380
980.294;   97.906;  -14.480;  789.160
980.848;   96.536;  -13.420;  717.220
981.401;   96.127;  -12.360;  816.540
981.955;   92.046;  -12.480;  844.300
982.508;   88.301;  -14.000;  746.340
983.061;   87.657;  -10.440;  915.260
983.615;   83.975;  -14.340;  798.800
984.168;   82.488;  -14.950;  770.080
984.721;   82.585;  -13.270;  880.760
985.274;   80.441;  -12.240;  867.500
985.827;   78.131;  -12.720;  834.220
986.380;   75.584;  -14.920;  721.340
986.933;   75.410;  -12.860;  864.800
987.486;   74.344;  -10.440;  861.920
988.039;   72.956;  -11.820;  863.100
988.591;   71.988;  -13.760;  893.260
989.144;   70.045;  -14.080;  737.260
989.697;   69.197;  -13.440;  758.740
990.250;   69.826;  -12.050;  858.100
990.802;   68.528;  -14.550;  755.860
991.355;   69.931;  -10.770;  974.880
991.907;   67.816;  -11.710;  864.320
992.460;   65.701;  -12.650;  753.760
993.012;   65.383;  -13.860;  749.540
993.565;   62.556;  -14.310;  711.360
994.117;   62.282;   -9.920;  950.780
994.669;   59.005;  -13.420;  701.320
995.221;   58.190;  -14.200;  791.920
995.774;   57.475;  -13.400;  787.580
996.326;   56.459;  -11.850;  740.220
996.878;   56.944;  -12.230;  838.420
997.430;   54.986;  -14.260;  699.860
997.982;   54.521;  -11.430;  750.140
998.534;   53.729;  -11.590;  739.060
999.086;   53.041;  -11.960;  738.220
999.638;   52.653;  -13.640;  661.380
1000.190;   52.280;  -13.660;  699.320
1000.741;   51.684;   -9.980;  742.700
1001.293;   50.523;  -11.860;  686.020
1001.845;   48.685;  -14.280;  676.640
1002.396;   50.388;  -12.270;  743.400
1002.948;   49.037;  -13.670;  737.400
1003.500;   48.258;  -12.010;  723.780
1004.051;   49.823;  -11.890;  907.580
1004.603;   48.263;  -11.220;  791.820
1005.154;   44.496;  -13.210;  608.980
1005.705;   43.707;  -11.850;  723.960
1006.257;   43.395;  -13.670;  707.220
1006.808;   42.502;  -12.060;  685.460
1007.359;   41.894;  -10.250;  763.240
1007.910;   40.087;  -13.440;  646.640
1008.461;   40.378;  -13.170;  732.940
1009.013;   38.978;  -14.590;  588.340
1009.564;   40.481;  -12.100;  793.520
1010.115;   37.326;  -14.000;  597.040
1010.665;   37.891;  -15.020;  602.160
1011.216;   38.077;  -12.560;  667.920
1011.767;   37.912;  -11.330;  697.920
1012.318;   37.517;  -11.450;  736.980
1012.869;   36.851;  -11.000;  679.000
1013.419;   36.762;  -11.760;  603.120
1013.970;   36.729;  -11.800;  666.640
1014.521;   35.260;  -14.750;  620.620
1015.071;   36.640;  -14.430;  670.380
1015.622;   35.743;  -14.170;  635.460
1016.172;   34.855;  -11.700;  596.820
1016.723;   34.468;  -13.230;  614.380
1017.273;   34.580;  -16.120;  604.160
1017.823;   34.324;  -13.360;  650.340
1018.374;   33.922;  -13.710;  611.760
1018.924;   33.362;  -11.050;  716.880
1019.474;   34.251;  -14.120;  718.880
1020.024;   32.762;  -12.990;  657.580
1020.574;   33.336;  -12.010;  726.160
1021.124;   33.918;  -12.080;  673.580
1021.674;   32.166;  -15.860;  559.120
1022.224;   33.470;  -11.710;  708.940
1022.774;   32.685;  -13.030;  668.820
1023.324;   33.076;  -11.000;  753.520
1023.874;   34.714;  -13.270;  875.760
1024.423;   31.318;  -14.570;  613.700
1024.973;   31.054;  -12.620;  610.760
1025.523;   29.884;  -12.630;  620.960
1026.072;   30.226;  -14.110;  606.420
1026.622;   30.219;  -15.390;  675.740
1027.172;   31.014;   -9.090;  715.660
1027.721;   29.008;  -12.250;  601.220
1028.270;   30.413;  -15.590;  663.400
1028.820;   30.152;  -13.840;  638.080
1029.369;   28.781;  -13.170;  612.700
1029.918;   29.803;  -14.080;  649.840
1030.468;   29.078;  -13.860;  564.780
1031.017;   29.760;  -12.970;  634.800
1031.566;   28.295;  -12.320;  608.900
1032.115;   29.124;  -13.140;  694.500
1032.664;   27.864;  -14.560;  596.480
1033.213;   29.625;  -11.620;  735.420
1033.762;   28.386;  -13.190;  635.620
1034.311;   28.198;  -13.460;  677.220
1034.860;   28.371;  -15.770;  691.000
1035.408;   28.374;  -13.100;  722.720
1035.957;   28.334;  -12.880;  719.540
1036.506;   25.979;  -13.640;  530.800
1037.055;   28.758;  -12.420;  844.320
1037.603;   27.844;  -13.740;  664.000
1038.152;   24.904;  -13.840;  534.760
1038.700;   25.537;  -10.770;  585.740
1039.249;   25.614;  -13.520;  681.220
1039.797;   26.634;  -13.060;  633.360
1040.345;   25.354;  -11.760;  705.420
1040.894;   25.358;  -10.790;  625.300
1041.442;   25.221;  -15.420;  632.200
1041.990;   24.888;  -14.550;  559.160
1042.538;   23.876;  -15.620;  536.180
1043.087;   24.585;  -14.940;  570.860
1043.635;   25.770;  -12.100;  670.500
1044.183;   24.910;  -13.200;  586.400
1044.731;   24.394;  -11.630;  576.000
1045.279;   23.706;  -14.200;  674.920
1045.827;   25.894;  -12.510;  892.400
1046.374;   23.226;  -14.960;  515.420
1046.922;   22.694;  -11.850;  590.580
1047.470;   23.640;  -13.770;  691.300
1048.018;   23.876;  -15.380;  647.960
1048.565;   25.236;  -14.010;  708.600
1049.113;   22.188;  -14.620;  557.000
1049.660;   22.970;  -14.940;  629.660
1050.208;   23.031;  -14.540;  675.640
1050.755;   22.323;  -13.710;  606.580
1051.303;   22.594;  -11.880;  686.820
1051.850;   21.856;  -12.160;  635.120
1052.397;   20.263;  -15.110;  473.960
1052.945;   21.242;  -14.770;  617.760
1053.492;   22.679;  -12.320;  741.840
1054.039;   22.110;  -13.290;  720.180
1054.586;   20.878;  -15.210;  557.240
1055.133;   22.440;  -12.920;  693.140
1055.680;   21.892;  -12.610;  646.620
1056.227;   20.492;  -12.620;  542.780
1056.774;   22.589;  -13.010;  794.980
1057.321;   20.060;  -16.180;  523.260
1057.868;   20.286;  -11.230;  651.320
1058.415;   20.506;  -10.890;  651.980
1058.961;   21.002;  -12.530;  678.940
1059.508;   19.994;  -14.120;  643.820
1060.055;   19.556;  -13.340;  581.780
1060.601;   20.234;  -12.920;  624.300
1061.148;   19.528;  -14.430;  616.820
1061.694;   19.170;  -14.140;  592.580
1062.241;   19.943;  -12.550;  596.320
1062.787;   19.789;  -13.370;  663.140
1063.334;   21.870;  -12.260;  808.560
1063.880;   19.567;  -10.800;  668.360
1064.426;   19.892;   -9.920;  706.820
1064.972;   18.630;  -12.970;  601.340
1065.518;   17.225;  -14.440;  566.640
1066.065;   19.183;  -12.680;  624.460
1066.611;   17.292;  -13.520;  598.800
1067.157;   17.611;  -11.100;  641.860
1067.703;   18.296;  -14.100;  668.480
1068.249;   18.678;  -13.750;  605.220
1068.794;   17.711;  -11.070;  626.880
1069.340;   16.790;  -13.210;  578.960
1069.886;   17.036;  -14.850;  590.700
1070.432;   17.071;  -14.580;  541.720
1070.977;   16.368;  -12.930;  601.080
1071.523;   17.246;  -11.970;  573.060
1072.068;   17.036;  -13.730;  582.000
1072.614;   16.438;  -14.550;  527.760
1073.160;   17.326;  -13.690;  687.040
1073.705;   15.448;  -14.780;  572.520
1074.250;   16.369;  -15.430;  559.900
1074.796;   17.131;  -11.620;  655.160
1075.341;   17.064;  -11.580;  664.100
1075.886;   15.498;  -13.190;  594.240
1076.431;   16.953;  -13.630;  649.880
1076.976;   16.392;  -11.670;  639.220
1077.521;   15.212;  -11.600;  583.080
1078.067;   14.555;  -13.920;  579.400
1078.612;   15.860;  -12.910;  661.620
1079.156;   14.904;  -15.340;  601.540
1079.701;   15.867;  -12.560;  693.260
1080.246;   15.602;  -12.490;  696.300
1080.791;   15.794;  -14.550;  625.020
1081.336;   15.330;  -15.210;  659.320
1081.880;   15.236;  -11.280;  649.680
1082.425;   13.498;  -12.830;  573.480
1082.970;   16.268;  -11.680;  717.040
1083.514;   14.656;  -15.500;  597.000
1084.059;   13.247;  -11.770;  586.720
1084.603;   13.538;  -13.480;  565.840
1085.147;   14.048;  -13.940;  645.220
1085.692;   15.144;  -13.170;  716.800
1086.236;   12.293;  -15.740;  503.140
1086.780;   14.693;  -10.750;  751.440
1087.325;   14.204;  -14.900;  654.620
1087.869;   13.699;  -15.160;  610.700
1088.413;   14.048;  -11.030;  705.040
1088.957;   12.562;  -15.210;  543.400
1089.501;   14.670;  -12.310;  766.640
1090.045;   14.120;  -12.790;  726.480
1090.589;   11.028;  -14.040;  569.920
1091.133;   13.580;  -12.800;  673.340
1091.676;   12.884;  -13.600;  591.940
1092.220;   12.200;  -12.960;  600.920
1092.764;   13.286;  -10.830;  706.960
1093.307;   12.955;  -12.390;  673.780
1093.851;   10.812;  -15.850;  556.540
1094.395;   12.196;  -12.980;  683.140
1094.938;   12.138;  -13.670;  632.520
1095.482;   11.522;  -12.740;  559.800
1096.025;   12.577;  -13.340;  710.880
1096.568;   13.280;  -10.500;  779.280
1097.112;    9.286;  -13.500;  508.180
1097.655;   10.791;  -13.060;  603.000
1098.198;   10.285;  -13.240;  600.180
1098.741;   10.457;  -15.490;  612.860
1099.285;   11.530;  -13.410;  657.300
1099.828;    8.936;  -15.640;  439.400
1100.371;   11.019;  -13.980;  608.160
1100.914;   11.374;  -13.990;  682.660
1101.457;   10.275;  -15.030;  679.900
1101.999;    8.936;  -12.480;  584.680
1102.542;   11.000;  -12.410;  641.440
1103.085;   10.336;  -14.730;  658.500
1103.628;   11.042;  -12.190;  762.060
1104.170;    9.056;  -12.360;  588.280
1104.713;    9.816;  -13.350;  646.700
1105.256;    9.253;  -14.930;  557.440
1105.798;    8.412;  -15.150;  499.980
1106.341;   10.434;  -13.230;  728.900
1106.883;    8.995;  -14.680;  521.340
1107.425;    9.770;  -14.810;  668.180
1107.968;    8.787;  -12.940;  612.380
1108.510;    9.620;  -10.550;  684.960
1109.052;    7.704;  -15.640;  612.620
1109.594;    7.988;  -14.440;  554.440
1110.136;    9.099;  -11.380;  643.220
1110.679;    7.575;  -13.090;  633.080
1111.221;    8.721;  -14.230;  604.460
1111.763;    7.659;  -14.260;  559.220
1112.304;    7.394;  -14.510;  547.140
1112.846;    8.172;  -14.700;  666.240
1113.388;   11.271;  -12.270;  942.180
1113.930;    8.717;  -13.340;  694.200
1114.472;    7.778;  -12.560;  606.540
1115.013;    5.829;  -14.280;  551.280
1115.555;    6.876;  -14.010;  587.100
1116.097;    6.504;  -14.730;  579.480
1116.638;    7.410;  -12.160;  684.600
1117.180;    7.249;  -14.320;  667.740
1117.721;    6.294;  -15.730;  568.580
1118.262;    7.492;  -13.480;  677.960
1118.804;    7.042;  -11.530;  637.340
1119.345;    6.612;  -13.540;  578.400
1119.886;    8.007;  -14.470;  704.040
1120.427;    6.415;  -13.030;  589.020
1120.969;    5.840;  -13.150;  597.920
1121.510;    5.801;  -13.940;  563.060
1122.051;    6.635;  -12.310;  723.580
1122.592;    6.247;  -13.870;  655.420
1123.133;    4.521;  -12.890;  547.940
1123.673;    7.204;  -13.300;  706.480
1124.214;    5.315;  -14.000;  612.460
1124.755;    6.317;  -13.210;  639.460
1125.296;    5.870;  -13.450;  627.320
1125.836;    7.433;  -12.610;  691.500
1126.377;    5.552;  -15.840;  599.660
1126.918;    6.358;  -11.830;  614.980
1127.458;    5.147;  -11.830;  622.220
1127.999;    5.566;  -11.490;  656.980
1128.539;    5.641;  -12.900;  694.240
1129.079;    5.203;  -14.910;  632.720
1129.620;    4.208;  -12.920;  558.100
1130.160;    4.042;  -14.640;  539.480
1130.700;    5.349;  -13.270;  640.840
1131.240;    5.630;  -14.110;  643.700
1131.781;    4.207;  -13.130;  619.680
1132.321;    4.547;  -15.220;  599.120
1132.861;    3.648;  -15.670;  564.200
1133.401;    3.286;  -13.970;  593.940
1133.941;    4.234;  -13.740;  626.280
1134.481;    3.719;  -13.200;  597.580
1135.020;    3.290;  -14.830;  609.160
1135.560;    4.445;  -14.590;  674.940
1136.100;    2.876;  -13.730;  501.160
1136.640;    2.418;  -15.240;  510.480
1137.179;    2.956;  -14.710;  537.960
1137.719;    3.934;  -14.090;  605.400
1138.258;    3.487;  -12.470;  587.360
1138.798;    3.518;  -12.580;  663.780
1139.337;    2.516;  -16.480;  482.840
1139.877;    3.900;  -13.970;  642.360
1140.416;    6.181;   -9.870;  878.060
1140.955;    1.686;  -14.860;  535.380
1141.494;    2.756;  -14.530;  669.280
1142.034;    2.025;  -13.940;  583.520
1142.573;    3.564;  -11.160;  646.280
1143.112;    1.762;  -15.050;  553.480
1143.651;    2.099;  -15.390;  536.480
1144.190;    3.248;  -12.990;  691.640
1144.729;    2.816;  -12.220;  607.420
1145.267;    2.863;  -14.020;  584.900
1145.806;    3.003;  -12.740;  637.040
1146.345;    2.255;  -14.810;  635.020
1146.884;    2.360;  -12.920;  622.500
1147.422;    0.983;  -13.930;  533.060
1147.961;    3.751;  -11.830;  708.460
1148.500;    3.138;  -12.710;  669.720
1149.038;    2.903;  -14.420;  632.500
1149.577;    2.286;  -13.920;  698.640
1150.115;    0.739;  -17.050;  452.280
1150.653;    1.858;  -14.890;  607.340
1151.192;    1.904;  -15.270;  552.920
1151.730;    0.937;  -13.160;  652.560
1152.268;    1.317;  -15.430;  589.520
1152.806;    1.540;  -15.880;  571.180
1153.344;   -0.158;  -13.240;  577.640
1153.882;    1.412;  -13.010;  600.060
1154.421;   -0.054;  -16.180;  470.620
1154.958;    1.120;  -13.880;  595.240
1155.496;    2.310;  -13.590;  645.280
1156.034;    1.356;  -11.910;  721.880
1156.572;    2.472;  -12.010;  667.060
1157.110;   -0.336;  -16.250;  473.940
1157.647;    1.799;  -15.230;  676.960
1158.185;   -0.279;  -13.770;  564.320
1158.723;   -0.461;  -15.300;  509.200
1159.260;    1.676;  -13.130;  701.700
1159.798;    1.394;  -11.300;  658.160
1160.335;    0.508;  -13.210;  631.820

