
Integration time [ms]:   3.276
Averaging Nr. [scans]: 1000
Smoothing Nr. [pixels]: 0
Data measured with spectrometer [name]: 7414430SP
Wave   ;Sample   ;Dark     ;Reference
[nm]   ;[counts] ;[counts] ;[counts] 

288.544;  150.918;    7.793;  793.890
289.143;  155.210;    7.462;  681.602
289.742;  155.682;    8.602;  828.814
290.341;  140.764;    1.321;  789.841
290.940;  129.708;   -0.709;  730.702
291.538;  131.156;    0.881;  881.108
292.137;  130.738;    0.122;  792.581
292.736;  135.071;   -1.929;  975.101
293.335;  131.992;   -8.229;  735.086
293.934;  132.326;   -5.279;  781.677
294.532;  130.406;   -1.369; 1031.958
295.131;  115.650;   -7.641;  834.394
295.730;  116.835;   -8.420;  809.588
296.328;  115.957;   -5.611;  783.442
296.927;  115.862;   -5.781;  779.652
297.525;  117.417;   -6.361;  781.236
298.124;  107.413;  -11.382;  654.009
298.722;  111.839;   -7.641;  761.933
299.321;  108.978;   -6.811;  708.597
299.919;  107.478;   -6.991;  751.918
300.518;  104.396;  -10.362;  689.338
301.116;  106.005;   -9.581;  691.381
301.715;  105.834;   -4.891;  730.222
302.313;  104.514;   -8.801;  704.943
302.911;   99.703;   -8.522;  733.830
303.509;  105.890;   -6.171;  925.627
304.108;  103.029;   -7.311;  760.383
304.706;  102.502;   -8.321;  801.664
305.304;   96.173;  -10.222;  796.707
305.902;  101.792;   -6.021;  784.484
306.500;   97.089;   -4.971;  728.200
307.098;   95.738;   -7.061;  746.560
307.696;   94.311;   -8.801;  780.432
308.294;   95.199;   -6.411;  731.359
308.892;   96.530;   -2.901;  759.769
309.490;   92.835;   -5.041;  712.161
310.088;   91.297;   -5.002;  788.444
310.686;   95.205;   -2.041;  821.749
311.284;   91.483;   -2.351;  766.040
311.882;   88.445;   -4.422;  731.225
312.480;   85.787;   -4.192;  697.167
313.078;   87.172;   -1.172;  808.331
313.675;   88.169;   -2.601;  691.600
314.273;   83.178;   -1.312;  797.837
314.871;   82.253;   -3.942;  589.829
315.468;   80.921;   -2.802;  652.090
316.066;   83.065;   -0.701;  694.427
316.664;   75.702;   -4.362;  656.351
317.261;   80.289;   -2.872;  910.128
317.859;   75.771;   -2.022;  768.735
318.456;   76.157;   -0.531;  830.096
319.054;   71.686;   -3.912;  787.828
319.651;   70.398;   -4.752;  759.928
320.249;   69.696;   -2.602;  810.188
320.846;   67.383;   -0.821;  714.286
321.443;   65.148;   -4.642;  832.135
322.041;   61.483;   -5.002;  812.315
322.638;   60.054;   -3.982;  701.456
323.235;   61.140;   -3.411;  665.683
323.833;   58.082;   -7.361;  740.354
324.430;   53.557;   -8.611;  615.900
325.027;   55.290;   -4.061;  876.855
325.624;   54.468;   -4.031;  644.532
326.221;   51.106;   -7.481;  689.717
326.818;   50.354;   -5.281;  818.332
327.415;   54.823;   -7.460;  748.828
328.012;   53.929;   -5.510;  690.585
328.609;   52.694;   -7.880;  731.389
329.206;   50.423;   -8.331;  778.621
329.803;   50.269;   -5.121;  737.841
330.400;   53.952;   -4.510;  704.260
330.997;   55.248;   -6.441;  817.147
331.594;   52.824;   -8.831;  788.185
332.191;   58.288;   -7.621;  728.722
332.787;   61.669;   -4.591;  844.463
333.384;   60.444;   -7.412;  763.093
333.981;   58.223;   -8.293;  815.687
334.578;   61.401;   -7.052;  708.378
335.174;   64.333;   -3.102;  731.469
335.771;   63.102;   -5.943;  836.456
336.367;   60.288;   -7.393;  710.631
336.964;   63.991;   -4.063;  793.266
337.561;   61.943;   -3.813;  731.112
338.157;   57.506;   -4.654;  911.916
338.754;   55.018;   -7.934;  796.589
339.350;   53.379;   -4.414;  722.493
339.946;   55.623;   -4.664;  773.135
340.543;   47.185;   -6.375;  846.136
341.139;   41.295;   -9.815;  720.836
341.735;   40.314;   -4.526;  772.593
342.332;   38.929;   -4.895;  691.472
342.928;   39.076;   -4.295;  795.394
343.524;   32.635;   -5.476;  761.684
344.120;   29.573;   -5.856;  738.562
344.716;   32.309;   -2.155;  723.717
345.313;   30.322;   -6.275;  795.342
345.909;   25.359;   -8.815;  627.336
346.505;   25.962;   -5.305;  740.247
347.101;   27.103;   -2.674;  827.864
347.697;   28.571;   -4.344;  785.398
348.293;   22.374;   -9.975;  627.244
348.889;   23.662;   -5.774;  745.914
349.485;   22.666;   -5.004;  688.205
350.081;   21.770;   -4.704;  772.592
350.676;   18.742;   -6.635;  691.606
351.272;   22.762;   -4.504;  809.530
351.868;   21.145;   -3.914;  780.497
352.464;   19.338;   -9.044;  723.932
353.059;   15.259;   -8.314;  646.017
353.655;   19.681;   -7.024;  777.063
354.251;   19.877;   -5.343;  759.845
354.846;   14.991;   -8.604;  740.646
355.442;   12.103;   -6.945;  753.071
356.038;   14.596;   -7.564;  751.708
356.633;   14.661;   -5.814;  728.594
357.229;   12.407;   -7.364;  724.757
357.824;   11.040;   -8.024;  703.600
358.420;   10.205;   -9.384;  679.726
359.015;   10.676;   -5.104;  695.357
359.610;   10.993;   -6.854;  763.920
360.206;    5.072;  -10.185;  603.240
360.801;    7.836;   -7.054;  646.503
361.396;   10.575;   -5.034;  725.975
361.992;    5.546;   -8.284;  668.220
362.587;    2.848;   -8.625;  670.160
363.182;    5.862;   -7.674;  689.631
363.777;    6.464;   -5.164;  738.242
364.372;    5.694;   -8.604;  737.314
364.967;    1.219;   -9.055;  680.744
365.563;    6.137;   -6.114;  815.567
366.158;    3.004;   -5.814;  685.161
366.753;    3.758;   -7.854;  649.263
367.348;    2.596;   -7.804;  746.056
367.942;    2.119;   -7.954;  697.298
368.537;    1.131;   -4.984;  754.245
369.132;    0.688;   -8.564;  703.428
369.727;   -2.907;   -8.855;  638.079
370.322;   -0.792;   -6.245;  580.186
370.917;   -2.284;   -6.425;  710.646
371.511;    1.314;   -6.294;  861.834
372.106;   -2.596;   -7.685;  776.964
372.701;   -5.512;   -7.335;  585.988
373.296;   -0.137;   -4.564;  863.135
373.890;   -5.338;  -10.235;  647.840
374.485;   -7.358;   -7.885;  691.199
375.079;   -3.344;   -7.324;  738.685
375.674;   -1.090;   -3.494;  812.970
376.268;   -6.635;   -8.525;  691.759
376.863;  -12.198;  -10.086;  580.327
377.457;   -5.426;   -7.025;  662.490
378.052;   -7.374;   -3.585;  764.884
378.646;   -8.123;   -7.595;  741.167
379.240;   -8.387;   -8.335;  721.176
379.835;   -7.269;   -5.785;  636.978
380.429;   -9.206;   -4.335;  562.557
381.023;   -9.936;   -6.805;  779.205
381.617;  -12.224;   -9.195;  680.106
382.212;   -8.052;   -6.905;  685.303
382.806;   -7.802;   -3.745;  760.690
383.400;  -11.953;   -7.745;  672.281
383.994;  -13.509;   -9.765;  664.870
384.588;   -8.751;   -6.564;  697.701
385.182;   -7.234;   -5.344;  726.624
385.776;   -9.450;   -8.514;  706.875
386.370;  -13.419;   -9.555;  681.968
386.964;  -11.338;   -8.715;  684.155
387.558;   -9.722;   -6.174;  598.360
388.152;  -13.165;   -8.725;  681.959
388.745;  -11.646;   -7.965;  814.707
389.339;   -9.376;   -5.924;  747.642
389.933;   -8.617;   -5.524;  695.370
390.527;   -9.956;   -7.114;  859.029
391.120;  -16.134;  -10.725;  595.318
391.714;  -13.096;   -8.035;  711.633
392.308;   -9.823;   -3.574;  780.253
392.901;  -13.657;   -7.245;  642.460
393.495;  -15.128;   -9.285;  595.414
394.089;  -13.455;   -5.895;  760.452
394.682;  -14.002;   -4.295;  697.188
395.275;  -14.671;   -9.875;  719.927
395.869;  -16.286;   -8.485;  667.314
396.462;  -14.578;   -7.455;  616.609
397.056;   -9.900;   -5.424;  776.621
397.649;  -15.580;   -6.605;  731.575
398.242;  -13.013;   -8.224;  712.645
398.836;  -11.691;   -7.474;  766.408
399.429;  -12.508;   -7.094;  631.041
400.022;  -16.043;   -9.475;  665.902
400.615;  -13.842;   -7.145;  805.609
401.208;  -11.241;   -7.174;  691.451
401.802;  -13.860;   -5.515;  699.329
402.395;  -15.774;   -9.875;  683.502
402.988;  -16.643;   -8.845;  696.627
403.581;  -13.311;   -8.874;  646.878
404.174;  -10.872;   -5.324;  686.568
404.767;  -13.803;   -9.575;  638.583
405.360;  -15.882;  -10.965;  621.445
405.953;  -11.135;   -8.764;  759.034
406.545;  -10.337;   -7.514;  725.342
407.138;  -14.980;  -10.025;  618.350
407.731;  -12.742;  -10.034;  613.303
408.324;   -9.086;   -9.374;  660.554
408.917;   -9.842;   -6.534;  681.864
409.509;  -11.970;   -8.004;  740.396
410.102;  -14.724;   -9.875;  643.948
410.695;   -7.756;   -8.604;  665.758
411.287;   -9.275;   -6.794;  599.821
411.880;  -10.402;   -9.334;  585.421
412.472;  -14.288;  -10.254;  613.092
413.065;  -10.313;   -6.714;  629.408
413.657;   -8.720;   -7.234;  576.678
414.250;   -8.639;  -10.544;  646.681
414.842;  -10.053;   -9.744;  676.353
415.434;   -7.807;   -6.994;  570.463
416.027;   -3.565;   -5.893;  652.196
416.619;   -5.460;   -7.264;  713.400
417.211;   -7.258;  -10.374;  599.352
417.804;   -3.159;   -7.993;  628.499
418.396;   -6.646;   -7.234;  607.643
418.988;   -4.262;   -9.443;  659.238
419.580;   -7.787;  -10.724;  568.276
420.172;   -5.624;  -10.323;  536.196
420.764;   -2.107;   -8.793;  672.482
421.356;   -2.688;  -11.143;  636.898
421.948;   -3.255;   -8.293;  677.661
422.540;    1.225;   -7.893;  680.027
423.132;    0.745;   -7.082;  600.641
423.724;   -2.215;   -8.653;  561.267
424.316;   -0.592;  -10.213;  621.345
424.908;    2.959;   -9.762;  591.517
425.500;    3.471;   -5.572;  647.978
426.092;    3.578;   -8.422;  648.268
426.683;    2.913;   -9.283;  684.836
427.275;    5.977;   -7.852;  641.471
427.867;    7.756;   -5.272;  668.948
428.458;    7.782;   -7.682;  732.344
429.050;    6.528;  -10.612;  680.749
429.642;    8.016;   -9.882;  743.124
430.233;    8.522;   -6.962;  569.356
430.825;   10.045;   -6.842;  724.809
431.416;    7.722;   -9.672;  698.241
432.008;   11.971;   -6.552;  651.723
432.599;   12.128;   -6.891;  656.073
433.190;    9.177;  -10.912;  637.670
433.782;    8.054;  -11.172;  590.395
434.373;   15.272;   -6.061;  884.765
434.964;   13.744;   -8.251;  602.920
435.556;   11.643;   -9.722;  634.537
436.147;   14.736;   -9.082;  758.490
436.738;   14.386;   -8.041;  701.099
437.329;   20.398;   -7.341;  721.723
437.920;   13.096;   -8.162;  666.688
438.511;   12.941;  -11.802;  564.526
439.103;   19.623;  -10.191;  623.998
439.694;   21.435;   -7.601;  681.583
440.285;   22.299;   -8.541;  764.432
440.876;   19.589;   -9.751;  845.738
441.466;   20.074;   -9.401;  575.162
442.057;   24.965;   -7.760;  665.814
442.648;   23.458;   -9.971;  746.255
443.239;   21.837;  -11.001;  620.477
443.830;   26.962;   -7.990;  704.958
444.421;   28.713;   -7.910;  655.474
445.011;   25.482;   -8.131;  693.619
445.602;   24.614;   -7.111;  743.126
446.193;   27.056;  -10.920;  488.117
446.783;   31.504;   -6.500;  640.397
447.374;   26.909;   -8.671;  692.759
447.964;   27.716;  -10.781;  713.770
448.555;   36.482;   -9.650;  822.742
449.145;   32.550;   -8.660;  662.853
449.736;   32.960;   -8.990;  803.179
450.326;   32.483;   -9.500;  713.626
450.917;   38.151;   -8.680;  675.324
451.507;   37.102;   -7.520;  600.661
452.097;   37.347;   -8.590;  746.267
452.688;   38.215;  -11.340;  742.160
453.278;   38.176;  -10.100;  566.840
453.868;   42.556;   -6.019;  793.550
454.458;   41.094;   -9.440;  651.141
455.048;   40.905;  -10.560;  711.783
455.639;   43.296;  -11.799;  567.096
456.229;   46.728;   -6.899;  710.694
456.819;   48.297;   -7.389;  751.158
457.409;   48.272;  -11.119;  773.993
457.999;   51.379;   -9.289;  737.505
458.589;   51.180;   -6.139;  686.606
459.179;   51.120;   -8.729;  717.658
459.769;   48.618;   -9.789;  627.099
460.358;   53.261;  -10.259;  797.262
460.948;   52.912;   -7.299;  689.503
461.538;   55.590;  -10.289;  660.677
462.128;   54.016;  -11.269;  664.934
462.717;   60.408;   -9.368;  710.326
463.307;   63.016;   -7.908;  705.846
463.897;   58.883;   -9.599;  656.942
464.486;   57.581;   -9.769;  837.128
465.076;   62.361;   -8.048;  733.776
465.666;   66.241;   -9.358;  652.900
466.255;   63.324;   -7.919;  785.651
466.845;   62.744;  -11.689;  666.749
467.434;   66.228;   -7.818;  725.873
468.023;   66.857;   -7.678;  658.357
468.613;   64.995;  -10.939;  713.946
469.202;   68.028;  -10.118;  646.507
469.791;   72.944;   -9.108;  737.811
470.381;   75.130;   -6.058;  742.813
470.970;   74.077;  -10.428;  711.099
471.559;   74.365;  -10.268;  733.291
472.148;   77.930;   -8.448;  675.737
472.738;   79.368;   -6.917;  765.466
473.327;   79.622;  -11.978;  637.529
473.916;   79.233;  -11.888;  737.446
474.505;   84.404;   -9.437;  751.703
475.094;   86.787;   -6.747;  806.570
475.683;   85.596;   -9.367;  797.699
476.272;   86.763;  -12.637;  730.632
476.861;   90.195;  -10.027;  706.754
477.449;   96.238;   -8.716;  728.487
478.038;   90.891;   -9.577;  692.513
478.627;   90.876;   -9.718;  714.852
479.216;   98.297;   -8.947;  769.441
479.805;  101.601;   -6.256;  783.375
480.393;  100.898;   -7.937; 1008.945
480.982;   99.836;   -7.717;  874.501
481.571;  106.731;   -9.266;  858.333
482.159;  106.707;   -7.636;  705.386
482.748;  106.460;   -9.667;  821.385
483.336;  111.379;  -10.376;  858.209
483.925;  112.007;   -7.147;  774.373
484.513;  119.004;   -7.996;  758.962
485.102;  115.162;  -10.027;  810.965
485.690;  123.830;  -10.446; 1011.050
486.278;  125.817;   -8.446;  979.329
486.867;  126.738;   -6.356;  809.662
487.455;  128.049;   -9.136;  898.229
488.043;  129.405;  -10.646;  748.361
488.631;  138.808;   -7.456; 1005.079
489.220;  142.436;   -6.636;  908.626
489.808;  143.100;  -11.036;  741.415
490.396;  149.615;  -10.246;  914.645
490.984;  155.815;   -8.556;  830.161
491.572;  165.713;   -5.886;  940.315
492.160;  171.007;   -9.486;  919.081
492.748;  182.898;  -10.976;  884.341
493.336;  205.479;   -8.776; 1019.693
493.924;  230.365;   -5.465;  958.077
494.512;  259.165;   -9.986; 1066.638
495.100;  293.538;  -10.636; 1103.280
495.687;  349.564;  -10.885; 1206.373
496.275;  410.537;   -8.126; 1150.796
496.863;  480.175;  -10.586; 1281.171
497.451;  578.482;  -11.926; 1386.805
498.038;  709.307;  -10.885; 1556.729
498.626;  817.470;   -6.315; 1741.407
499.214;  968.491;   -7.326; 2016.609
499.801; 1169.170;  -11.906; 2220.633
500.389; 1404.937;  -10.466; 2312.494
500.976; 1695.696;   -5.236; 2744.849
501.564; 2121.889;   -8.936; 3148.565
502.151; 2469.848;  -13.176; 3515.999
502.738; 2877.081;  -10.646; 3971.274
503.326; 3285.540;   -9.525; 4403.796
503.913; 3699.238;  -10.856; 5161.749
504.500; 4071.184;  -11.586; 5986.420
505.088; 4446.574;  -10.336; 6381.201
505.675; 4989.995;   -6.355; 6925.547
506.262; 5684.583;   -9.046; 7619.060
506.849; 6414.342;  -10.416; 8733.969
507.436; 6942.651;  -10.305; 9790.121
508.023; 7513.863;   -5.496; 9985.472
508.610; 7749.918;   -7.856;10434.618
509.197; 8335.229;  -10.097;11198.435
509.784; 9668.874;  -10.886;12391.194
510.371;10838.106;   -9.315;13603.713
510.958;11588.873;   -9.936;14426.586
511.545;12310.551;   -9.326;15243.775
512.132;13133.248;  -10.075;15945.876
512.719;13624.378;   -7.796;16340.369
513.305;14734.960;  -10.606;18011.766
513.892;15475.303;  -11.486;19754.971
514.479;16650.355;   -9.126;20967.805
515.066;18140.531;   -6.026;22299.793
515.652;19806.982;   -8.466;22908.660
516.239;20974.357;  -10.886;23798.875
516.825;21662.225;  -11.496;25567.275
517.412;22644.773;   -5.796;28154.959
517.998;23514.328;  -10.506;28344.111
518.585;23514.887;  -10.076;27134.219
519.171;24040.336;   -8.315;27268.576
519.758;25921.775;   -8.596;28964.129
520.344;27994.604;   -8.466;30664.494
520.930;27611.131;  -11.006;32550.605
521.516;28436.410;  -10.495;35422.895
522.103;30223.213;   -5.526;38280.004
522.689;30752.674;   -8.746;37835.117
523.275;30385.256;  -11.376;37288.613
523.861;32117.662;  -11.156;37281.395
524.447;33910.547;   -8.135;37846.949
525.033;33733.422;   -7.896;38321.949
525.619;33854.957;  -12.476;38579.285
526.205;35106.996;   -9.516;40622.875
526.791;37801.977;   -6.926;42258.836
527.377;37620.258;   -8.346;42966.902
527.963;38279.801;   -8.717;42018.949
528.549;37544.531;  -11.016;42476.828
529.135;36066.699;   -8.536;41854.852
529.721;34723.008;   -9.666;41237.711
530.306;33601.566;  -10.066;41259.445
530.892;32579.135;  -11.356;41506.047
531.478;32150.070;   -6.596;43559.613
532.063;34548.828;   -8.836;47695.563
532.649;36745.316;  -10.047;50808.324
533.235;38009.012;   -9.746;51787.500
533.820;37426.563;   -6.566;52145.035
534.406;36577.078;  -10.817;51133.488
534.991;33832.082;   -9.416;49996.805
535.576;30772.787;   -9.036;48882.852
536.162;32642.814;   -6.156;46942.285
536.747;37784.242;  -11.607;45711.746
537.333;44146.637;  -11.787;48510.180
537.918;49573.305;  -12.437;50439.891
538.503;50456.512;   -7.196;50863.711
539.088;47267.402;  -10.556;50906.922
539.673;46969.309;   -8.767;52621.965
540.259;47736.293;  -10.026;52368.094
540.844;45195.766;   -7.416;50879.109
541.429;47030.820;   -9.467;52077.777
542.014;49092.492;   -9.527;52716.695
542.599;47852.707;   -9.946;52363.281
543.184;44543.840;   -7.927;53187.137
543.769;45386.355;   -9.297;54697.605
544.354;45674.488;  -10.127;53913.914
544.938;44363.148;   -9.267;49680.164
545.523;46132.285;   -6.506;47386.277
546.108;49089.660;   -9.787;49151.949
546.693;50851.508;  -11.587;51384.637
547.278;51038.941;  -10.986;51853.254
547.862;48169.031;   -8.206;51173.750
548.447;43673.875;  -10.067;51691.395
549.031;42752.535;   -9.637;52456.703
549.616;47272.492;   -9.926;52714.516
550.201;47248.598;   -6.347;52414.598
550.785;48441.152;   -7.917;52355.059
551.370;47573.734;  -10.867;54589.453
551.954;46847.703;   -9.047;58267.348
552.538;47663.047;   -7.827;59062.176
553.123;46182.543;  -10.287;58115.285
553.707;43817.914;  -12.178;56556.285
554.291;45399.750;   -8.717;56201.668
554.876;48868.375;   -7.457;55335.762
555.460;49042.785;  -10.387;54155.703
556.044;48744.148;   -9.618;53721.484
556.628;46429.688;  -11.567;53731.016
557.212;45315.758;   -8.097;54312.531
557.796;44302.098;  -11.077;53797.773
558.380;44533.262;  -11.108;56145.984
558.964;44591.574;   -9.057;57277.930
559.548;45543.223;   -6.977;56459.641
560.132;43604.262;  -11.457;54434.543
560.716;41813.719;  -11.378;54800.617
561.300;42871.605;   -9.577;57606.945
561.884;44116.445;   -7.127;58972.445
562.467;41943.781;   -7.118;57327.570
563.051;41058.398;  -13.358;54962.434
563.635;42713.258;  -10.178;52594.473
564.219;43542.434;   -7.837;50610.410
564.802;44159.609;  -11.398;49551.180
565.386;43552.766;  -12.788;48370.953
565.969;42818.770;   -9.077;48178.871
566.553;41584.758;   -6.207;49957.305
567.136;42681.660;   -8.568;50369.594
567.720;39633.695;  -11.868;49492.004
568.303;37597.820;   -8.268;50616.352
568.887;37607.102;   -8.698;50727.148
569.470;38278.895;   -6.808;51698.379
570.053;37558.309;  -13.188;52122.078
570.637;35134.223;  -12.037;52536.438
571.220;34815.770;   -8.577;51186.098
571.803;35877.523;   -8.498;51032.762
572.386;37820.621;  -10.498;49609.887
572.969;40240.973;   -9.388;48285.926
573.552;38915.469;   -8.338;47624.285
574.135;37353.637;   -8.518;45498.641
574.718;34830.027;  -13.628;41970.434
575.301;34264.230;  -10.893;41447.137
575.884;33698.438;   -8.158;40923.836
576.467;34814.602;  -10.328;45267.723
577.050;36075.941;  -13.058;48175.543
577.633;37023.887;   -9.458;47729.328
578.216;36389.035;   -8.928;47579.793
578.799;35577.859;   -9.358;47820.996
579.381;34562.945;  -11.388;48115.551
579.964;32359.887;  -11.718;47333.766
580.547;34577.957;   -8.588;46668.969
581.129;35484.777;   -8.859;44466.141
581.712;36327.004;  -10.729;44164.922
582.294;36670.199;  -11.118;46477.855
582.877;36613.938;   -5.218;48244.254
583.459;35005.766;   -8.679;47437.895
584.042;32934.441;  -10.709;46943.219
584.624;32639.408;  -11.669;46792.227
585.206;32526.094;   -8.218;46557.250
585.789;32867.590;  -10.569;45793.773
586.371;35110.961;  -11.859;43836.391
586.953;35787.078;  -10.719;42972.492
587.536;36644.840;   -7.198;42487.211
588.118;37417.555;   -8.720;42086.414
588.700;33337.434;  -10.439;43389.930
589.282;32223.842;   -9.198;43646.039
589.864;33362.859;   -9.199;43438.109
590.446;34712.043;  -11.319;43151.926
591.028;34624.633;  -11.159;42781.867
591.610;33271.414;  -11.779;42839.098
592.192;30449.885;   -7.668;42820.402
592.774;29175.520;  -11.949;40724.277
593.356;28241.627;  -12.129;39874.789
593.937;27192.221;  -10.669;39980.648
594.519;29391.527;   -6.509;42069.633
595.101;31432.049;  -10.849;42976.031
595.683;31442.227;  -11.679;44084.441
596.264;32198.943;   -9.049;43478.797
596.846;32236.865;   -8.849;43803.672
597.427;32248.373;   -9.570;42986.934
598.009;33416.320;  -12.620;42832.219
598.591;33675.508;  -10.039;42580.086
599.172;33419.754;  -10.369;43061.805
599.753;33582.445;   -9.140;41691.469
600.335;34823.590;  -11.430;40692.520
600.916;32999.598;   -9.939;39982.422
601.498;30941.418;   -8.479;40318.617
602.079;29464.021;  -10.920;40670.609
602.660;29089.311;  -11.480;41450.898
603.241;30847.822;  -11.699;41137.738
603.823;29648.572;   -9.579;38868.797
604.404;28528.133;  -10.620;38182.785
604.985;30274.205;  -10.450;38078.047
605.566;30539.309;   -9.129;38056.633
606.147;30557.285;   -7.510;37020.418
606.728;31975.773;  -10.660;37883.359
607.309;30592.246;  -11.740;38748.273
607.890;30607.457;   -9.759;38850.230
608.471;30205.816;   -8.250;37457.918
609.051;29369.662;   -9.240;36066.457
609.632;28051.783;  -12.120;35991.074
610.213;28157.924;   -9.110;37402.641
610.794;29028.801;   -8.030;38383.363
611.374;29124.045;   -8.110;40562.387
611.955;30139.064;  -13.560;38533.727
612.536;31436.188;  -11.400;36951.789
613.116;30765.730;   -8.070;37197.891
613.697;31073.732;  -10.830;38411.125
614.277;29257.365;  -11.641;38673.938
614.858;29934.414;  -13.310;37075.863
615.438;29730.957;   -7.460;35092.906
616.019;27813.477;   -7.601;33666.301
616.599;27912.473;  -12.020;34189.023
617.179;29494.498;  -11.780;36952.047
617.760;30810.414;   -8.570;39582.574
618.340;31509.957;  -11.471;38943.977
618.920;32180.934;  -11.170;37594.156
619.500;32188.623;  -11.071;37866.938
620.080;31169.225;   -7.750;37869.043
620.660;32123.145;  -12.711;36868.617
621.241;33916.129;  -10.211;36352.309
621.821;34591.953;  -10.961;35459.520
622.401;33426.133;   -7.720;35207.414
622.980;32199.771;   -8.981;35980.422
623.560;30755.762;   -9.331;37351.328
624.140;29412.434;   -9.850;34388.582
624.720;24806.107;   -7.451;32368.764
625.300;21523.174;   -9.070;32638.629
625.880;24859.203;  -12.601;34599.035
626.459;28970.869;  -11.751;36831.738
627.039;31702.988;   -9.281;38299.098
627.619;31476.791;   -8.801;38289.574
628.198;30088.637;  -12.071;37220.695
628.778;29183.104;   -9.461;37632.563
629.357;29716.215;   -8.491;38003.012
629.937;29921.467;   -9.721;38402.039
630.516;29515.682;   -9.951;37868.801
631.096;29383.354;  -11.731;35760.410
631.675;31303.518;   -8.572;35225.219
632.254;36372.266;  -11.282;35130.289
632.834;36064.496;  -13.322;35794.570
633.413;34522.953;  -10.301;35788.922
633.992;32190.896;   -8.582;34532.863
634.571;32663.686;   -8.352;33590.113
635.151;35189.980;  -11.912;34943.863
635.730;33770.422;  -10.511;35352.523
636.309;30590.850;   -7.731;35366.605
636.888;28059.662;   -9.952;36165.637
637.467;28287.324;  -11.672;37515.902
638.046;29605.990;   -8.901;39288.695
638.625;32369.543;   -7.912;38279.699
639.204;32326.805;  -10.022;37741.598
639.782;31366.445;  -12.252;38364.551
640.361;27714.400;  -10.041;36740.621
640.940;25025.820;  -11.161;34950.082
641.519;25852.920;   -9.701;34137.398
642.097;28708.916;  -11.271;35654.258
642.676;31249.545;   -8.651;35637.957
643.255;32603.457;   -8.711;36567.074
643.833;31996.162;   -9.581;37809.434
644.412;32023.389;  -13.711;37337.293
644.990;30967.121;  -11.811;37018.531
645.569;30647.986;   -9.411;36518.469
646.147;30262.895;  -10.291;36186.430
646.726;30590.730;  -12.401;36267.688
647.304;31651.561;  -10.411;36647.625
647.882;32735.824;   -9.651;39286.742
648.461;34124.836;   -9.631;39157.703
649.039;32774.246;  -11.881;35412.883
649.617;31824.781;   -9.661;34744.918
650.195;30893.691;   -9.301;35403.098
650.773;29642.127;  -10.511;35053.797
651.352;27426.225;  -11.521;33756.816
651.930;25136.352;  -12.211;31868.773
652.508;23630.779;   -9.171;33121.551
653.086;27409.662;   -9.371;33564.793
653.663;30605.941;  -13.161;34054.668
654.241;29178.777;  -13.031;35693.309
654.819;30359.717;   -9.371;36422.906
655.397;30173.113;  -10.511;38213.484
655.975;29647.090;  -10.371;39507.625
656.553;29314.023;  -10.051;39498.223
657.130;27895.941;  -10.061;40395.480
657.708;27207.121;   -9.561;39242.020
658.286;27373.129;  -11.511;38920.020
658.863;28629.820;  -10.261;40202.898
659.441;31965.717;   -7.531;39677.938
660.018;32157.377;   -9.501;40413.355
660.596;30778.398;  -13.301;39931.414
661.173;32099.324;  -11.211;39604.531
661.750;32422.738;   -9.951;39700.070
662.328;31316.359;   -9.390;39292.809
662.905;30536.600;  -11.330;38235.648
663.482;26588.488;   -9.050;36212.305
664.060;24669.797;   -8.240;35944.945
664.637;27516.799;  -10.050;35170.785
665.214;28838.395;  -11.760;34197.523
665.791;30459.840;  -10.530;34549.520
666.368;29744.836;   -9.690;35118.578
666.945;30009.371;   -9.320;36019.418
667.522;31459.064;  -11.860;36048.438
668.099;31282.490;  -10.770;36243.914
668.676;29979.621;   -6.260;35958.875
669.253;28719.326;   -7.000;37384.730
669.830;28822.242;  -10.190;36779.629
670.407;28697.900;   -9.550;35231.289
670.984;28585.123;   -9.260;35544.270
671.560;29562.459;   -9.280;35466.867
672.137;29059.459;  -11.810;34280.863
672.714;30004.457;  -11.490;34632.863
673.290;31208.736;   -7.740;35135.422
673.867;31244.314;  -10.660;36114.480
674.443;31030.074;  -12.230;36152.859
675.020;28941.768;  -10.450;35327.238
675.596;29803.545;   -9.260;35795.176
676.173;30544.873;  -10.780;35430.355
676.749;30179.041;  -13.690;33549.516
677.326;29921.928;  -11.980;32210.012
677.902;29760.063;   -8.630;32068.871
678.478;29224.225;  -10.730;32583.891
679.054;28291.521;  -10.520;32088.928
679.631;28623.916;  -11.920;30978.848
680.207;29987.736;   -7.490;33160.887
680.783;31419.676;   -9.860;35570.363
681.359;30609.080;  -13.380;36125.184
681.935;30476.365;  -12.480;35240.922
682.511;30597.633;   -7.900;34429.961
683.087;31036.043;   -7.710;34463.680
683.663;30219.096;  -11.480;34648.898
684.239;28766.605;  -14.090;34546.457
684.815;28018.637;   -7.560;35586.375
685.390;28038.666;   -9.910;35821.895
685.966;28509.152;  -11.159;35085.871
686.542;30853.619;  -11.169;34198.230
687.118;33429.098;   -5.959;32847.707
687.693;34151.383;  -10.329;32794.027
688.269;33761.699;  -12.059;33072.367
688.844;31891.475;  -10.909;33141.664
689.420;29922.523;   -8.019;33965.742
689.995;28263.006;   -8.399;34655.523
690.571;26802.643;  -10.949;33576.742
691.146;26677.586;   -9.619;32657.219
691.722;26608.619;   -8.999;32526.979
692.297;26129.891;  -11.589;33014.617
692.872;27331.416;  -11.739;34012.254
693.448;27276.479;  -11.059;34237.434
694.023;26333.979;  -10.139;34142.672
694.598;28108.252;   -9.029;34132.031
695.173;28821.121;  -13.319;34205.250
695.748;27745.346;  -10.169;32882.488
696.323;27615.766;   -8.339;32864.906
696.898;27873.664;   -8.169;33170.004
697.473;28308.736;  -12.309;32432.984
698.048;27794.600;  -10.989;31649.303
698.623;27374.107;   -9.329;30778.141
699.198;28666.342;   -9.849;31140.119
699.773;30175.326;  -12.329;31764.299
700.348;29065.869;  -10.389;31780.816
700.922;28992.299;   -9.269;32046.375
701.497;30170.682;   -9.329;32603.574
702.072;30506.732;  -10.789;34799.871
702.646;28912.668;  -10.839;35793.172
703.221;26620.813;   -9.099;35201.590
703.795;28362.570;  -10.939;34764.527
704.370;28935.568;  -12.859;34307.367
704.944;29249.436;  -11.559;33509.887
705.519;29850.148;   -7.939;31388.584
706.093;30960.621;  -10.499;31340.104
706.668;31369.873;  -11.289;32630.281
707.242;30204.297;  -11.509;32728.779
707.816;29013.432;   -9.639;32947.238
708.390;27567.408;  -11.429;33277.855
708.965;27979.902;  -11.869;33834.336
709.539;28079.420;  -11.689;33709.273
710.113;28118.189;  -10.478;33044.313
710.687;27583.328;  -10.228;31953.992
711.261;26104.529;  -13.698;30505.949
711.835;25877.104;  -13.378;30262.369
712.409;26184.672;   -9.698;31254.447
712.983;28212.543;  -11.898;32754.986
713.557;29531.406;  -15.138;34018.824
714.131;29493.287;  -14.098;34579.625
714.704;28542.529;   -9.958;33890.262
715.278;25957.156;  -10.028;33531.102
715.852;24661.572;  -11.148;33601.660
716.425;25682.182;   -9.068;33515.117
716.999;26880.246;  -10.038;33185.555
717.573;27779.861;   -9.798;33905.996
718.146;28717.496;  -12.378;35199.293
718.720;28859.490;  -11.918;35060.551
719.293;28924.678;   -8.088;34973.230
719.867;31984.900;  -10.888;36394.449
720.440;31845.225;  -11.938;36663.008
721.013;30066.840;  -12.818;35102.426
721.587;28381.289;  -10.298;33985.266
722.160;26983.221;  -10.048;33524.965
722.733;25958.178;  -12.108;32987.043
723.306;26202.676;  -10.818;33066.301
723.880;28325.457;   -8.908;33399.500
724.453;30792.250;   -9.878;33468.297
725.026;30230.014;  -11.188;33816.637
725.599;27274.348;  -11.678;32797.996
726.172;26910.244;   -9.618;33187.434
726.745;27848.811;   -8.258;35136.613
727.318;29092.295;  -12.978;35751.730
727.891;30002.498;  -12.148;35890.430
728.463;29560.490;   -8.968;34822.090
729.036;28093.531;  -10.188;32895.086
729.609;28578.324;  -11.788;31823.225
730.182;25868.664;  -11.788;31445.283
730.754;23586.197;  -10.268;32373.223
731.327;24095.855;   -9.998;33676.820
731.900;24492.430;  -12.228;33417.000
732.472;24985.932;  -13.848;31978.498
733.045;26309.090;   -8.698;30368.777
733.617;26273.504;  -10.607;30574.215
734.190;26713.545;  -11.507;31280.975
734.762;24672.248;  -13.647;31674.412
735.334;22849.480;   -9.767;31247.291
735.907;23236.160;   -9.897;29876.211
736.479;23554.531;  -11.637;29808.488
737.051;23182.877;   -9.567;30233.547
737.623;23671.785;   -8.187;31469.086
738.195;23865.414;  -11.187;31784.225
738.768;25784.938;  -12.337;32120.523
739.340;26881.406;  -12.227;32094.342
739.912;26172.604;  -11.057;31312.680
740.484;24674.971;  -10.207;31946.238
741.056;22816.045;  -10.047;32984.059
741.628;23658.988;  -13.627;33897.715
742.199;25657.227;   -7.177;33213.016
742.771;24609.146;  -10.797;31369.113
743.343;22786.689;  -11.997;31865.473
743.915;21923.217;  -12.867;32388.631
744.487;21861.170;   -7.617;31079.568
745.058;21900.590;   -9.557;30570.107
745.630;22530.996;   -9.877;29970.127
746.201;23966.756;  -14.177;29186.766
746.773;24924.367;   -9.237;28805.723
747.344;24718.342;   -9.847;29591.223
747.916;22758.561;  -11.657;31412.201
748.487;22667.900;  -10.587;32194.898
749.059;23997.260;   -8.707;32533.719
749.630;24744.945;  -10.537;32158.518
750.201;23797.402;  -11.687;30855.395
750.773;22094.990;  -11.647;28622.555
751.344;21740.551;   -7.147;28405.732
751.915;22613.004;   -9.757;28461.551
752.486;22876.637;  -12.427;27842.850
753.057;21004.133;  -12.227;27845.008
753.628;19756.836;  -10.417;27728.107
754.199;20552.240;  -11.767;27381.086
754.770;21551.771;  -11.187;25882.203
755.341;21808.936;  -10.507;25886.184
755.912;22088.619;   -9.387;26050.861
756.483;21708.258;  -10.647;26798.779
757.054;19967.756;  -11.837;27048.238
757.625;18506.982;  -12.716;26294.838
758.195;18169.100;   -9.666;26142.076
758.766;17788.355;   -8.656;26392.234
759.337;18343.768;  -12.856;26334.594
759.907;19757.430;  -13.366;27579.652
760.478;20723.227;   -8.576;28352.770
761.048;20328.463;  -10.526;27325.088
761.619;19345.973;  -11.116;26460.428
762.189;19346.779;  -12.136;26029.826
762.760;20267.314;   -9.456;26430.145
763.330;21461.289;   -7.136;26670.902
763.900;21127.148;  -11.786;26603.021
764.471;18769.129;  -11.546;25542.740
765.041;17386.334;   -8.096;24358.459
765.611;17130.801;   -8.876;23991.297
766.181;17351.125;  -12.196;24470.236
766.751;18557.529;  -11.636;24845.975
767.321;18460.938;  -10.156;24533.633
767.891;16449.414;  -11.766;24916.492
768.461;15775.069;  -14.936;24776.771
769.031;16160.167;  -12.356;24757.988
769.601;17912.947;   -7.526;24181.088
770.171;18140.457;  -10.766;23670.387
770.741;17167.371;  -13.176;22960.045
771.311;17064.168;  -10.616;22917.523
771.880;17696.920;   -9.576;23562.941
772.450;17741.094;  -10.336;24216.500
773.020;17632.754;  -13.516;24140.398
773.589;16695.080;  -13.466;24414.857
774.159;15947.534;   -8.686;23858.717
774.729;15595.740;   -9.476;22942.135
775.298;15307.759;  -13.666;22324.033
775.867;14887.746;  -11.716;21140.313
776.437;15068.736;   -9.906;20838.092
777.006;14839.928;  -12.166;20599.510
777.576;14394.734;  -12.356;20508.809
778.145;14294.486;  -11.646;20732.947
778.714;14414.081;   -8.226;21062.465
779.283;13982.046;   -9.556;20949.664
779.853;13482.311;  -14.116;20508.623
780.422;13893.279;  -11.506;20649.082
780.991;13472.257;   -9.556;21527.520
781.560;12131.690;   -9.095;22632.658
782.129;11906.021;  -12.135;23048.277
782.698;11919.466;  -10.865;23438.555
783.267;11557.038;   -9.335;23267.734
783.836;11449.194;  -11.045;22415.133
784.404;12403.940;  -13.865;20443.152
784.973;13121.059;  -13.095;19699.150
785.542;13217.972;  -11.575;19763.828
786.111;13029.489;   -9.705;20341.408
786.679;12570.902;  -12.105;20207.967
787.248;12277.791;  -12.455;19516.465
787.817;12060.045;  -11.535;18900.363
788.385;11738.924;   -9.765;17879.121
788.954;11205.239;  -14.005;17658.301
789.522;10531.807;  -11.955;17788.879
790.090;10868.605;  -10.135;18118.277
790.659;11502.014;  -10.975;18338.736
791.227;11185.701;  -13.375;18508.615
791.795;11566.235;  -12.375;17898.254
792.364;11868.798;  -10.725;17295.133
792.932;12225.033;   -9.715;16822.051
793.500;12512.104;  -12.675;17040.148
794.068;12707.527;  -13.495;17179.787
794.636;12889.241;  -10.885;16664.246
795.204;12182.321;  -11.045;16524.545
795.772;12102.920;  -13.175;17274.564
796.340;11605.630;  -12.445;17891.002
796.908;11361.908;   -9.735;17648.561
797.476;11266.646;   -9.815;17064.080
798.044;10893.185;  -13.985;16672.777
798.612;10153.378;  -13.115;17023.996
799.180; 9769.686;  -10.185;16561.615
799.747; 9604.633;   -9.055;15962.773
800.315; 9272.554;  -12.385;15296.992
800.883; 9084.449;  -15.035;14801.771
801.450; 9331.270;  -10.365;14534.430
802.018; 9466.513;   -9.855;14173.248
802.585; 9466.683;  -11.905;14029.547
803.153; 9441.388;  -11.585;13836.846
803.720; 9241.929;   -9.095;13567.324
804.287; 8728.063;   -9.135;13360.622
804.855; 8204.338;  -11.604;13681.981
805.422; 8084.075;  -11.794;13536.560
805.989; 8182.572;  -10.734;13355.958
806.556; 8369.580;  -10.444;13747.896
807.124; 8618.409;  -12.764;13987.376
807.691; 8574.148;  -12.964;14038.674
808.258; 8400.622;  -11.134;14120.152
808.825; 8085.596;   -9.854;13860.111
809.392; 8206.176;  -10.504;13268.790
809.959; 7747.002;  -13.054;12680.389
810.526; 7227.286;   -8.294;12427.308
811.093; 7175.212;   -8.394;12030.105
811.659; 7821.918;  -12.304;11653.664
812.226; 8462.649;  -13.944;11637.183
812.793; 8251.441;  -10.484;11611.521
813.360; 7593.941;  -10.144;11885.181
813.926; 7233.849;  -11.684;12770.539
814.493; 7021.040;  -13.644;12677.638
815.060; 6635.551;   -9.724;11974.336
815.626; 6551.008;   -9.854;11594.715
816.193; 6899.407;  -13.254;11579.474
816.759; 6938.048;  -13.204;11666.972
817.325; 6970.822;   -9.434;11325.530
817.892; 7335.409;  -10.134;11105.369
818.458; 7772.006;  -13.474;10843.928
819.024; 7434.484;  -11.854;10714.406
819.591; 7147.894;  -10.244;10469.165
820.157; 6956.975;  -10.704;10235.523
820.723; 6426.954;  -12.324;10847.563
821.289; 6103.104;   -9.444;11040.980
821.855; 6055.628;   -8.374;10357.100
822.421; 6059.868;  -10.234; 9978.918
822.987; 6043.407;  -13.294; 9754.177
823.553; 5637.503;  -10.884;10065.755
824.119; 5383.845;   -8.884;10036.294
824.685; 5516.762;   -6.784;10029.192
825.251; 5669.778;  -12.004;10199.230
825.816; 5628.934;  -11.474; 9820.189
826.382; 5328.331;   -9.174; 9297.248
826.948; 5431.021;   -9.214; 9381.347
827.513; 5843.539;  -10.774; 9450.726
828.079; 5748.979;  -11.924; 9472.444
828.645; 5140.526;  -10.543; 9292.643
829.210; 4910.107;  -10.533; 9065.341
829.776; 4867.458;  -10.753; 9132.620
830.341; 4754.646;  -10.173; 9092.878
830.906; 4897.713;  -10.743; 9078.557
831.472; 5250.630;  -11.113; 8534.535
832.037; 5102.194;  -10.603; 8677.874
832.602; 4611.570;  -13.323; 8628.692
833.167; 4341.296;  -10.823; 8879.031
833.733; 4284.641;  -10.113; 9189.790
834.298; 4438.178;  -13.583; 9052.608
834.863; 4599.104;  -12.703; 8895.087
835.428; 4620.546;  -10.523; 8824.266
835.993; 4439.260;   -6.963; 8845.385
836.558; 4233.481;  -10.763; 8888.563
837.123; 4289.441;   -9.903; 8966.582
837.688; 4549.814;   -9.913; 8617.860
838.253; 4840.964;  -10.283; 8590.699
838.817; 5035.579;  -12.963; 8443.797
839.382; 4955.216;  -14.243; 8799.356
839.947; 4655.740;  -10.733; 8810.595
840.511; 4353.548;   -9.383; 8796.394
841.076; 3975.476;  -12.563; 8347.231
841.641; 4026.131;  -12.953; 8224.330
842.205; 4130.633;   -7.043; 8223.349
842.770; 4136.303;   -8.163; 8622.107
843.334; 4240.943;  -12.503; 8410.386
843.898; 4188.438;  -11.693; 8337.465
844.463; 4176.216;  -10.203; 8506.283
845.027; 3970.956;   -9.533; 8280.962
845.591; 3791.007;  -13.443; 8231.141
846.156; 3806.943;  -13.143; 7969.179
846.720; 3735.323;   -9.433; 7768.278
847.284; 3643.687;  -11.033; 7630.957
847.848; 3508.231;  -10.403; 7472.395
848.412; 3413.622;  -11.553; 7437.394
848.976; 3450.347;   -8.393; 7674.592
849.540; 3357.907;   -8.713; 7836.011
850.104; 3391.108;  -12.463; 7913.669
850.668; 3749.552;  -12.973; 7694.508
851.232; 3934.791;  -10.793; 7756.887
851.796; 3813.081;  -10.662; 7926.545
852.359; 3492.119;  -13.082; 7827.844
852.923; 3297.762;  -12.192; 7641.163
853.487; 3160.782;  -11.912; 7342.501
854.050; 3149.908;  -10.892; 7042.820
854.614; 3289.146;  -13.992; 7151.338
855.177; 3393.447;  -11.732; 7105.077
855.741; 3431.604;   -8.962; 6989.675
856.304; 3319.914;   -9.442; 6596.634
856.868; 3295.305;  -14.192; 6356.272
857.431; 3422.301;  -12.702; 6468.571
857.995; 3556.687;   -9.942; 6373.210
858.558; 3595.813;   -9.112; 6324.448
859.121; 3338.981;  -12.932; 6408.327
859.684; 3148.477;  -13.442; 6347.886
860.247; 3250.136;  -10.632; 6321.264
860.810; 3293.520;  -11.272; 6301.903
861.374; 3052.975;   -9.832; 6607.881
861.937; 2779.731;  -11.762; 6408.200
862.500; 2770.870;   -9.722; 6572.639
863.062; 2918.573;  -10.512; 6387.297
863.625; 3053.176;  -11.232; 6190.836
864.188; 3214.255;  -14.112; 5807.254
864.751; 3308.885;  -11.302; 5682.413
865.314; 3232.854;  -10.112; 5547.492
865.876; 2995.277;  -12.182; 5500.150
866.439; 2948.321;  -10.722; 5415.909
867.002; 2913.793;   -9.252; 5501.567
867.564; 2744.696;   -9.572; 5413.946
868.127; 2538.705;  -13.142; 5160.325
868.689; 2413.957;  -12.902; 5133.183
869.252; 2306.554;   -9.732; 5252.382
869.814; 2202.133;   -9.432; 5297.141
870.377; 2195.804;  -11.552; 5390.919
870.939; 2253.471;   -9.052; 5599.898
871.501; 2334.148;  -10.982; 5248.336
872.063; 2361.327;  -12.292; 4854.235
872.626; 2302.838;  -14.912; 4817.074
873.188; 2284.645;  -13.112; 4987.732
873.750; 2252.614;  -13.442; 4868.651
874.312; 2170.311;   -9.402; 4779.330
874.874; 2091.344;  -11.062; 4866.348
875.436; 2012.833;  -13.931; 4718.887
875.998; 2010.090;   -9.561; 4660.005
876.560; 2043.115;  -11.321; 4462.964
877.122; 1985.730;  -12.221; 4145.042
877.683; 1878.533;  -12.191; 4056.481
878.245; 1793.835;  -12.101; 3950.740
878.807; 1833.196;   -8.971; 4058.958
879.369; 1858.102;  -12.071; 3954.677
879.930; 1763.175;  -14.621; 3941.495
880.492; 1693.474;  -10.311; 4067.014
881.053; 1667.803;  -10.901; 3859.633
881.615; 1576.222;  -14.411; 3776.071
882.176; 1476.222;  -13.761; 3734.750
882.738; 1419.977;   -9.181; 3678.489
883.299; 1402.065;  -11.791; 3405.407
883.860; 1390.175;  -13.121; 3351.106
884.422; 1369.871;  -11.211; 3394.044
884.983; 1328.440;  -10.091; 3166.443
885.544; 1272.331;   -8.461; 3189.802
886.105; 1237.740;  -12.361; 3160.360
886.666; 1189.280;  -14.141; 3093.059
887.227; 1044.988;  -11.361; 2941.957
887.788;  821.095;  -11.401; 2974.836
888.349;  624.798;  -13.791; 2721.214
888.910;  547.640;  -13.191; 2696.493
889.471;  538.163;   -9.881; 2560.172
890.032;  549.378;   -9.881; 2558.190
890.593;  561.574;  -10.371; 2567.669
891.153;  577.344;  -13.301; 2460.307
891.714;  576.091;  -11.431; 2372.046
892.275;  574.373;  -11.291; 2309.505
892.835;  567.638;  -11.471; 2382.543
893.396;  540.103;  -11.541; 2295.502
893.956;  501.884;  -11.181; 2162.420
894.517;  470.730;  -11.741; 2125.439
895.077;  466.455;  -11.671; 2086.978
895.638;  472.918;  -11.311; 2126.316
896.198;  452.650;   -9.831; 1838.275
896.758;  417.122;   -8.421; 1892.813
897.319;  390.768;  -12.351; 1792.232
897.879;  378.495;  -13.511; 1762.751
898.439;  356.941;  -12.001; 1661.149
898.999;  335.739;  -10.180; 1781.468
899.559;  327.525;  -12.030; 1703.347
900.119;  324.181;  -15.710; 1537.525
900.679;  319.784;   -8.900; 1638.384
901.239;  307.799;   -8.340; 1527.902
901.799;  298.580;  -13.910; 1456.441
902.359;  292.642;  -13.460; 1357.140
902.919;  287.039;  -11.490; 1331.118
903.479;  276.227;  -12.110; 1317.257
904.038;  256.850;  -11.720; 1262.595
904.598;  242.728;  -13.610; 1152.034
905.158;  237.947;  -11.040; 1240.893
905.717;  232.038;  -10.900; 1233.691
906.277;  220.998;  -15.080; 1217.330
906.836;  211.831;  -13.380; 1222.408
907.396;  203.750;  -10.780; 1193.047
907.955;  196.389;   -8.500; 1182.526
908.515;  190.916;  -12.760; 1099.364
909.074;  184.623;  -11.900; 1092.863
909.633;  179.524;   -8.950; 1069.121
910.192;  176.612;   -8.770; 1196.460
910.752;  171.946;  -12.390; 1029.960
911.311;  168.134;  -13.680; 1009.780
911.870;  165.095;  -12.370;  971.460
912.429;  165.273;  -10.900; 1094.080
912.988;  164.129;  -11.690; 1081.060
913.547;  160.983;  -13.240;  940.380
914.106;  156.044;  -11.990;  999.420
914.665;  152.843;   -9.990;  984.020
915.224;  151.699;  -12.880; 1035.760
915.782;  151.804;  -12.350;  922.560
916.341;  151.867;   -9.110; 1049.840
916.900;  147.828;   -9.270;  925.260
917.458;  145.496;  -13.240;  884.220
918.017;  144.933;  -13.550;  942.600
918.576;  145.115;  -12.320;  904.440
919.134;  142.755;  -11.490;  837.980
919.693;  141.205;  -13.670;  893.060
920.251;  139.736;  -15.470;  876.500
920.809;  139.508;  -11.290;  839.580
921.368;  139.060;  -10.210;  885.360
921.926;  137.119;  -12.140;  842.940
922.484;  136.343;  -13.080;  903.360
923.042;  135.659;  -11.720;  880.340
923.601;  139.082;   -7.480;  998.680
924.159;  136.746;  -11.570;  935.560
924.717;  133.226;  -13.840;  841.080
925.275;  133.666;  -10.640;  903.240
925.833;  132.881;  -11.540;  779.320
926.391;  133.536;  -12.960;  938.380
926.949;  131.291;  -14.130;  857.680
927.506;  132.919;  -11.750;  903.500
928.064;  132.871;  -10.250;  877.580
928.622;  131.955;  -13.030;  880.100
929.180;  131.498;  -13.400;  814.180
929.737;  132.133;  -10.700;  808.540
930.295;  135.881;  -10.070;  928.480
930.853;  137.682;  -11.960;  849.100
931.410;  137.250;  -13.120;  821.120
931.968;  138.009;  -10.770;  940.660
932.525;  137.470;  -10.680;  909.380
933.082;  137.590;  -13.130;  811.440
933.640;  138.432;  -13.210;  925.900
934.197;  136.998;  -11.060;  886.360
934.754;  138.402;   -9.580;  897.780
935.312;  141.822;  -14.000;  863.340
935.869;  145.760;  -10.710; 1012.980
936.426;  146.190;   -9.860;  872.800
936.983;  146.562;   -9.710;  889.020
937.540;  146.323;  -13.990;  838.280
938.097;  145.718;  -14.040;  940.120
938.654;  146.227;  -10.310;  898.860
939.211;  147.824;  -10.560;  952.480
939.768;  151.335;  -13.900;  915.420
940.324;  154.876;  -14.760;  904.200
940.881;  157.083;  -10.370;  878.500
941.438;  157.818;   -8.260; 1021.200
941.995;  152.973;  -12.540;  992.560
942.551;  150.417;  -14.670;  875.620
943.108;  150.209;  -10.450;  937.920
943.664;  152.382;  -10.750;  869.340
944.221;  155.885;  -11.550; 1088.140
944.777;  152.915;  -14.770;  869.680
945.334;  153.519;  -12.820;  884.840
945.890;  155.252;  -10.130;  946.480
946.446;  155.703;  -13.470;  947.020
947.003;  157.633;  -12.120;  964.940
947.559;  160.275;   -9.980; 1063.040
948.115;  159.519;   -9.080; 1026.540
948.671;  157.809;  -10.830;  967.300
949.227;  155.299;  -12.440;  859.560
949.783;  153.344;  -12.910;  858.900
950.339;  154.835;  -10.270;  991.000
950.895;  155.458;  -13.630; 1023.840
951.451;  153.848;  -15.100;  925.280
952.007;  153.576;  -11.330;  998.540
952.563;  153.052;  -10.580;  937.780
953.118;  151.500;  -13.440;  904.940
953.674;  150.768;  -12.710;  935.780
954.230;  151.232;  -10.350;  949.640
954.785;  148.801;   -9.190;  936.640
955.341;  146.838;  -11.200;  998.160
955.897;  144.602;  -16.560;  834.660
956.452;  147.533;  -12.570;  953.840
957.008;  146.013;   -7.970; 1083.640
957.563;  143.850;  -11.940; 1009.540
958.118;  137.942;  -13.450;  877.700
958.674;  138.775;  -12.030;  946.780
959.229;  140.433;   -9.410; 1013.980
959.784;  138.742;  -12.000;  832.400
960.339;  137.549;  -14.780; 1001.280
960.894;  134.611;   -9.860;  963.760
961.449;  130.263;   -9.970;  859.960
962.004;  129.972;  -10.900; 1212.840
962.559;  124.085;  -13.150;  860.140
963.114;  122.392;  -13.740;  742.480
963.669;  121.829;   -9.820;  915.500
964.224;  119.602;  -13.890;  874.340
964.779;  118.465;  -12.600;  828.420
965.334;  119.497;  -10.950; 1017.860
965.888;  118.955;  -11.170;  875.360
966.443;  121.809;  -12.540;  972.380
966.998;  121.328;  -15.780;  819.460
967.552;  121.793;   -9.760;  908.380
968.107;  117.725;   -9.060;  868.300
968.661;  117.773;  -11.950;  922.440
969.216;  118.292;  -12.800;  856.280
969.770;  118.233;  -11.210;  917.200
970.324;  117.914;  -11.610;  923.140
970.879;  114.037;  -11.370;  947.180
971.433;  110.772;  -12.540;  952.720
971.987;  106.205;  -11.320;  895.340
972.541;  103.017;  -10.720;  917.100
973.095;  103.911;   -9.680; 1009.460
973.649;  101.462;  -11.440;  809.480
974.203;  100.530;  -11.210;  829.040
974.757;  100.411;  -10.240;  855.220
975.311;  101.234;  -13.720;  872.600
975.865;  100.548;  -13.770;  881.820
976.419;   98.976;  -11.690;  857.400
976.973;   98.602;   -9.510;  849.620
977.526;   99.909;  -12.620;  949.920
978.080;   99.490;  -12.010;  796.780
978.634;   99.721;  -10.170;  921.320
979.187;   98.272;   -9.020;  905.400
979.741;   95.983;   -9.820; 1018.380
980.294;   90.881;  -14.870;  789.160
980.848;   90.290;  -12.380;  717.220
981.401;   90.834;  -10.350;  816.540
981.955;   92.819;  -13.720;  844.300
982.508;   92.216;  -11.490;  746.340
983.061;   92.382;  -10.000;  915.260
983.615;   88.266;  -11.480;  798.800
984.168;   85.058;  -13.220;  770.080
984.721;   84.435;  -13.960;  880.760
985.274;   83.398;  -10.870;  867.500
985.827;   82.910;   -9.790;  834.220
986.380;   80.386;  -13.120;  721.340
986.933;   79.335;  -12.450;  864.800
987.486;   78.239;  -10.210;  861.920
988.039;   76.881;   -8.430;  863.100
988.591;   75.904;  -10.520;  893.260
989.144;   72.405;  -14.860;  737.260
989.697;   72.430;  -13.080;  758.740
990.250;   73.213;  -10.150;  858.100
990.802;   70.816;  -13.430;  755.860
991.355;   71.548;  -12.750;  974.880
991.907;   69.429;  -12.040;  864.320
992.460;   67.311;  -11.330;  753.760
993.012;   66.583;  -13.610;  749.540
993.565;   65.490;  -13.460;  711.360
994.117;   67.855;   -9.360;  950.780
994.669;   63.921;  -11.300;  701.320
995.221;   62.619;  -13.540;  791.920
995.774;   60.286;  -13.430;  787.580
996.326;   58.425;  -12.520;  740.220
996.878;   58.518;  -10.950;  838.420
997.430;   57.003;  -14.300;  699.860
997.982;   55.845;  -13.760;  750.140
998.534;   54.878;  -11.530;  739.060
999.086;   54.082;  -10.310;  738.220
999.638;   52.446;  -12.530;  661.380
1000.190;   52.146;  -11.840;  699.320
1000.741;   51.374;  -10.260;  742.700
1001.293;   51.403;   -8.860;  686.020
1001.845;   49.818;  -13.700;  676.640
1002.396;   49.760;  -12.100;  743.400
1002.948;   49.708;  -12.760;  737.400
1003.500;   48.279;  -10.380;  723.780
1004.051;   49.058;  -11.900;  907.580
1004.603;   47.144;  -12.250;  791.820
1005.154;   43.852;  -13.210;  608.980
1005.705;   43.015;  -10.950;  723.960
1006.257;   42.237;  -13.880;  707.220
1006.808;   41.003;  -12.840;  685.460
1007.359;   41.124;  -10.570;  763.240
1007.910;   40.024;   -9.620;  646.640
1008.461;   39.377;  -13.630;  732.940
1009.013;   37.878;  -17.200;  588.340
1009.564;   39.970;  -10.200;  793.520
1010.115;   38.159;  -12.570;  597.040
1010.665;   37.269;  -15.150;  602.160
1011.216;   36.880;  -14.480;  667.920
1011.767;   37.006;  -11.340;  697.920
1012.318;   37.327;   -9.780;  736.980
1012.869;   35.995;  -12.380;  679.000
1013.419;   35.032;  -15.560;  603.120
1013.970;   35.277;  -11.010;  666.640
1014.521;   35.519;  -11.610;  620.620
1015.071;   35.142;  -13.450;  670.380
1015.622;   34.800;  -13.870;  635.460
1016.172;   34.657;  -11.610;  596.820
1016.723;   33.715;  -12.120;  614.380
1017.273;   33.676;  -13.620;  604.160
1017.823;   33.676;  -14.140;  650.340
1018.374;   32.678;  -12.800;  611.760
1018.924;   33.198;  -12.340;  716.880
1019.474;   32.752;  -11.410;  718.880
1020.024;   31.526;  -14.770;  657.580
1020.574;   32.801;   -9.780;  726.160
1021.124;   32.357;   -8.560;  673.580
1021.674;   31.535;  -15.190;  559.120
1022.224;   32.193;  -13.530;  708.940
1022.774;   32.482;  -13.280;  668.820
1023.324;   32.339;  -10.690;  753.520
1023.874;   33.320;  -10.240;  875.760
1024.423;   30.679;  -12.540;  613.700
1024.973;   30.292;  -10.010;  610.760
1025.523;   30.079;  -10.550;  620.960
1026.072;   29.177;  -13.560;  606.420
1026.622;   28.871;  -15.120;  675.740
1027.172;   30.793;  -11.260;  715.660
1027.721;   28.932;  -11.410;  601.220
1028.270;   29.145;  -13.530;  663.400
1028.820;   29.202;  -13.680;  638.080
1029.369;   29.769;  -13.520;  612.700
1029.918;   28.200;  -10.980;  649.840
1030.468;   28.362;  -13.530;  564.780
1031.017;   29.197;  -13.170;  634.800
1031.566;   27.971;  -12.200;  608.900
1032.115;   28.525;   -9.960;  694.500
1032.664;   27.100;  -13.210;  596.480
1033.213;   28.228;  -12.500;  735.420
1033.762;   27.974;  -11.910;  635.620
1034.311;   26.055;   -9.640;  677.220
1034.860;   27.450;  -13.310;  691.000
1035.408;   27.499;  -11.830;  722.720
1035.957;   27.910;  -12.000;  719.540
1036.506;   25.272;  -11.690;  530.800
1037.055;   27.228;  -10.990;  844.320
1037.603;   26.386;  -15.120;  664.000
1038.152;   25.099;  -12.450;  534.760
1038.700;   25.308;  -10.560;  585.740
1039.249;   25.291;  -11.080;  681.220
1039.797;   25.330;  -12.540;  633.360
1040.345;   24.745;  -11.920;  705.420
1040.894;   25.062;  -11.410;  625.300
1041.442;   25.124;  -14.320;  632.200
1041.990;   24.450;  -16.240;  559.160
1042.538;   23.497;  -11.680;  536.180
1043.087;   24.355;  -10.760;  570.860
1043.635;   25.746;  -11.850;  670.500
1044.183;   23.664;  -15.480;  586.400
1044.731;   23.416;  -11.770;  576.000
1045.279;   22.994;  -13.090;  674.920
1045.827;   24.966;  -12.440;  892.400
1046.374;   22.250;  -13.840;  515.420
1046.922;   22.423;  -13.220;  590.580
1047.470;   24.040;  -10.230;  691.300
1048.018;   22.488;  -14.590;  647.960
1048.565;   23.799;  -12.050;  708.600
1049.113;   22.132;  -11.650;  557.000
1049.660;   22.537;  -10.510;  629.660
1050.208;   23.024;  -13.310;  675.640
1050.755;   21.177;  -15.900;  606.580
1051.303;   21.802;  -11.430;  686.820
1051.850;   21.362;   -8.480;  635.120
1052.397;   20.072;  -15.010;  473.960
1052.945;   20.426;  -13.960;  617.760
1053.492;   22.257;  -13.150;  741.840
1054.039;   22.484;   -9.630;  720.180
1054.586;   19.794;  -13.680;  557.240
1055.133;   21.220;  -14.570;  693.140
1055.680;   21.253;  -13.820;  646.620
1056.227;   20.834;  -11.730;  542.780
1056.774;   21.398;  -12.480;  794.980
1057.321;   19.633;  -13.930;  523.260
1057.868;   19.807;  -11.690;  651.320
1058.415;   19.529;   -9.520;  651.980
1058.961;   20.252;  -13.160;  678.940
1059.508;   19.445;  -12.920;  643.820
1060.055;   19.519;  -11.920;  581.780
1060.601;   20.073;  -11.500;  624.300
1061.148;   19.715;  -14.330;  616.820
1061.694;   17.680;  -16.870;  592.580
1062.241;   19.124;  -10.330;  596.320
1062.787;   19.160;  -10.620;  663.140
1063.334;   20.938;  -10.110;  808.560
1063.880;   18.795;  -13.400;  668.360
1064.426;   18.824;  -10.680;  706.820
1064.972;   18.421;   -9.920;  601.340
1065.518;   16.676;  -10.980;  566.640
1066.065;   18.391;  -14.890;  624.460
1066.611;   17.899;  -12.870;  598.800
1067.157;   18.552;  -12.950;  641.860
1067.703;   16.952;  -13.540;  668.480
1068.249;   17.573;  -13.540;  605.220
1068.794;   18.083;  -12.600;  626.880
1069.340;   16.551;  -10.620;  578.960
1069.886;   17.186;  -12.830;  590.700
1070.432;   15.808;  -14.870;  541.720
1070.977;   16.800;  -11.980;  601.080
1071.523;   16.807;   -8.200;  573.060
1072.068;   16.579;  -12.330;  582.000
1072.614;   16.644;  -16.370;  527.760
1073.160;   17.503;  -11.100;  687.040
1073.705;   15.830;  -10.480;  572.520
1074.250;   16.198;  -14.520;  559.900
1074.796;   16.660;  -11.460;  655.160
1075.341;   16.555;  -11.950;  664.100
1075.886;   16.254;  -11.460;  594.240
1076.431;   15.163;  -13.770;  649.880
1076.976;   15.254;  -12.680;  639.220
1077.521;   14.218;  -13.170;  583.080
1078.067;   14.912;  -10.860;  579.400
1078.612;   15.155;  -13.920;  661.620
1079.156;   15.115;  -13.880;  601.540
1079.701;   15.138;  -13.120;  693.260
1080.246;   15.725;   -9.940;  696.300
1080.791;   14.526;  -14.740;  625.020
1081.336;   15.188;  -13.750;  659.320
1081.880;   14.358;  -13.400;  649.680
1082.425;   14.096;  -12.220;  573.480
1082.970;   14.892;  -11.610;  717.040
1083.514;   13.488;  -13.580;  597.000
1084.059;   13.578;  -12.810;  586.720
1084.603;   13.001;  -12.320;  565.840
1085.147;   13.245;  -13.190;  645.220
1085.692;   13.884;  -12.480;  716.800
1086.236;   13.087;  -13.020;  503.140
1086.780;   14.514;   -9.190;  751.440
1087.325;   13.920;  -12.480;  654.620
1087.869;   13.621;  -12.450;  610.700
1088.413;   14.006;  -12.240;  705.040
1088.957;   11.824;   -9.020;  543.400
1089.501;   13.525;  -10.320;  766.640
1090.045;   12.784;  -12.720;  726.480
1090.589;   11.568;  -13.690;  569.920
1091.133;   12.810;  -10.020;  673.340
1091.676;   12.607;  -12.330;  591.940
1092.220;   12.049;  -14.970;  600.920
1092.764;   13.018;  -12.430;  706.960
1093.307;   12.719;   -9.800;  673.780
1093.851;   11.038;  -14.970;  556.540
1094.395;   11.637;  -15.310;  683.140
1094.938;   11.741;  -10.370;  632.520
1095.482;   11.745;  -11.050;  559.800
1096.025;   11.729;  -11.840;  710.880
1096.568;   12.070;  -12.840;  779.280
1097.112;    9.646;  -14.700;  508.180
1097.655;   11.883;   -8.720;  603.000
1098.198;   10.199;  -13.610;  600.180
1098.741;   10.020;  -13.350;  612.860
1099.285;   11.415;  -11.230;  657.300
1099.828;    9.381;  -11.840;  439.400
1100.371;   10.893;  -10.840;  608.160
1100.914;    9.859;  -14.190;  682.660
1101.457;   10.337;  -11.240;  679.900
1101.999;    9.623;  -11.270;  584.680
1102.542;    9.449;  -11.480;  641.440
1103.085;    9.616;  -11.750;  658.500
1103.628;   10.446;  -11.400;  762.060
1104.170;    9.494;  -10.490;  588.280
1104.713;    9.663;  -10.600;  646.700
1105.256;    8.851;  -14.360;  557.440
1105.798;    8.070;  -13.210;  499.980
1106.341;   10.774;  -10.270;  728.900
1106.883;    9.161;  -12.200;  521.340
1107.425;    8.962;  -13.110;  668.180
1107.968;    8.439;  -12.840;  612.380
1108.510;    9.732;   -6.480;  684.960
1109.052;    7.692;  -13.940;  612.620
1109.594;    7.831;  -13.690;  554.440
1110.136;    9.008;  -11.880;  643.220
1110.679;    7.645;   -9.500;  633.080
1111.221;    8.647;  -14.160;  604.460
1111.763;    7.969;  -13.980;  559.220
1112.304;    6.928;  -13.880;  547.140
1112.846;    8.149;  -12.210;  666.240
1113.388;   11.095;  -11.390;  942.180
1113.930;    7.963;  -14.540;  694.200
1114.472;    7.201;  -12.640;  606.540
1115.013;    6.622;  -11.620;  551.280
1115.555;    6.958;  -13.640;  587.100
1116.097;    5.590;  -15.380;  579.480
1116.638;    7.496;  -12.640;  684.600
1117.180;    7.812;   -9.850;  667.740
1117.721;    7.083;  -13.690;  568.580
1118.262;    7.384;  -12.680;  677.960
1118.804;    7.937;  -12.530;  637.340
1119.345;    5.949;  -11.690;  578.400
1119.886;    7.784;  -13.380;  704.040
1120.427;    5.928;  -14.070;  589.020
1120.969;    5.897;  -13.500;  597.920
1121.510;    5.939;  -11.480;  563.060
1122.051;    6.461;  -12.830;  723.580
1122.592;    5.856;  -14.290;  655.420
1123.133;    4.485;  -12.400;  547.940
1123.673;    6.224;  -10.130;  706.480
1124.214;    5.592;  -12.930;  612.460
1124.755;    6.149;  -14.380;  639.460
1125.296;    5.679;  -14.000;  627.320
1125.836;    6.558;  -10.070;  691.500
1126.377;    5.279;  -12.640;  599.660
1126.918;    5.928;  -12.960;  614.980
1127.458;    4.674;  -13.350;  622.220
1127.999;    5.680;  -10.750;  656.980
1128.539;    5.881;  -12.350;  694.240
1129.079;    4.279;  -14.860;  632.720
1129.620;    3.982;  -13.840;  558.100
1130.160;    3.917;  -12.330;  539.480
1130.700;    4.512;  -14.530;  640.840
1131.240;    5.283;  -12.530;  643.700
1131.781;    4.371;  -14.450;  619.680
1132.321;    4.500;   -9.790;  599.120
1132.861;    3.359;  -14.860;  564.200
1133.401;    3.810;  -14.290;  593.940
1133.941;    4.414;  -11.750;  626.280
1134.481;    3.626;   -9.920;  597.580
1135.020;    3.799;  -12.290;  609.160
1135.560;    3.898;  -11.650;  674.940
1136.100;    3.179;  -16.270;  501.160
1136.640;    3.399;  -10.890;  510.480
1137.179;    2.942;  -14.180;  537.960
1137.719;    3.545;  -16.250;  605.400
1138.258;    3.377;  -14.230;  587.360
1138.798;    3.786;   -9.090;  663.780
1139.337;    2.327;  -15.130;  482.840
1139.877;    3.002;  -13.680;  642.360
1140.416;    5.152;  -11.320;  878.060
1140.955;    3.072;  -10.860;  535.380
1141.494;    3.001;  -12.920;  669.280
1142.034;    1.771;  -13.930;  583.520
1142.573;    3.786;  -11.440;  646.280
1143.112;    2.238;  -12.000;  553.480
1143.651;    2.639;  -13.670;  536.480
1144.190;    3.081;  -12.730;  691.640
1144.729;    2.261;  -14.560;  607.420
1145.267;    2.390;  -11.830;  584.900
1145.806;    3.187;  -12.230;  637.040
1146.345;    1.196;  -14.130;  635.020
1146.884;    2.090;  -11.590;  622.500
1147.422;    1.177;  -12.550;  533.060
1147.961;    3.142;  -11.180;  708.460
1148.500;    2.509;  -11.510;  669.720
1149.038;    2.499;  -11.640;  632.500
1149.577;    2.413;  -10.130;  698.640
1150.115;   -0.037;  -13.970;  452.280
1150.653;    2.085;  -14.520;  607.340
1151.192;    2.255;  -12.810;  552.920
1151.730;    1.914;   -9.100;  652.560
1152.268;    0.731;  -12.220;  589.520
1152.806;    0.704;  -14.140;  571.180
1153.344;    0.316;  -12.350;  577.640
1153.882;    1.080;   -8.980;  600.060
1154.421;   -0.515;  -15.190;  470.620
1154.958;    0.596;  -15.210;  595.240
1155.496;    1.913;  -12.850;  645.280
1156.034;    1.140;   -9.940;  721.880
1156.572;    2.042;  -13.570;  667.060
1157.110;   -0.216;  -14.590;  473.940
1157.647;    1.851;  -13.030;  676.960
1158.185;    0.068;  -12.140;  564.320
1158.723;   -0.487;  -14.390;  509.200
1159.260;    0.849;  -14.090;  701.700
1159.798;    0.439;  -11.920;  658.160
1160.335;    0.300;  -11.110;  631.820

