
Integration time [ms]:   3.276
Averaging Nr. [scans]: 1000
Smoothing Nr. [pixels]: 0
Data measured with spectrometer [name]: 7414430SP
Wave   ;Sample   ;Dark     ;Reference
[nm]   ;[counts] ;[counts] ;[counts] 

288.544;  155.104;    7.793;  793.890
289.143;  158.674;    7.462;  681.602
289.742;  158.956;    8.602;  828.814
290.341;  145.847;    1.321;  789.841
290.940;  136.212;   -0.709;  730.702
291.538;  137.110;    0.881;  881.108
292.137;  135.636;    0.122;  792.581
292.736;  139.369;   -1.929;  975.101
293.335;  135.388;   -8.229;  735.086
293.934;  136.026;   -5.279;  781.677
294.532;  135.591;   -1.369; 1031.958
295.131;  121.125;   -7.641;  834.394
295.730;  122.322;   -8.420;  809.588
296.328;  121.020;   -5.611;  783.442
296.927;  120.724;   -5.781;  779.652
297.525;  120.225;   -6.361;  781.236
298.124;  111.761;  -11.382;  654.009
298.722;  115.928;   -7.641;  761.933
299.321;  114.012;   -6.811;  708.597
299.919;  111.560;   -6.991;  751.918
300.518;  107.139;  -10.362;  689.338
301.116;  108.820;   -9.581;  691.381
301.715;  108.663;   -4.891;  730.222
302.313;  108.152;   -8.801;  704.943
302.911;  103.861;   -8.522;  733.830
303.509;  108.963;   -6.171;  925.627
304.108;  105.860;   -7.311;  760.383
304.706;  104.813;   -8.321;  801.664
305.304;   99.774;  -10.222;  796.707
305.902;  105.573;   -6.021;  784.484
306.500;  100.890;   -4.971;  728.200
307.098;   97.958;   -7.061;  746.560
307.696;   97.269;   -8.801;  780.432
308.294;   98.530;   -6.411;  731.359
308.892;  100.047;   -2.901;  759.769
309.490;   94.658;   -5.041;  712.161
310.088;   93.527;   -5.002;  788.444
310.686;   98.331;   -2.041;  821.749
311.284;   93.785;   -2.351;  766.040
311.882;   91.220;   -4.422;  731.225
312.480;   87.845;   -4.192;  697.167
313.078;   90.072;   -1.172;  808.331
313.675;   91.016;   -2.601;  691.600
314.273;   84.681;   -1.312;  797.837
314.871;   84.107;   -3.942;  589.829
315.468;   82.305;   -2.802;  652.090
316.066;   86.517;   -0.701;  694.427
316.664;   78.012;   -4.362;  656.351
317.261;   82.149;   -2.872;  910.128
317.859;   78.116;   -2.022;  768.735
318.456;   78.426;   -0.531;  830.096
319.054;   73.484;   -3.912;  787.828
319.651;   72.417;   -4.752;  759.928
320.249;   72.082;   -2.602;  810.188
320.846;   69.844;   -0.821;  714.286
321.443;   66.718;   -4.642;  832.135
322.041;   63.526;   -5.002;  812.315
322.638;   61.610;   -3.982;  701.456
323.235;   62.863;   -3.411;  665.683
323.833;   59.674;   -7.361;  740.354
324.430;   55.261;   -8.611;  615.900
325.027;   55.839;   -4.061;  876.855
325.624;   56.027;   -4.031;  644.532
326.221;   52.762;   -7.481;  689.717
326.818;   52.458;   -5.281;  818.332
327.415;   55.102;   -7.460;  748.828
328.012;   54.825;   -5.510;  690.585
328.609;   52.084;   -7.880;  731.389
329.206;   50.426;   -8.331;  778.621
329.803;   50.448;   -5.121;  737.841
330.400;   53.709;   -4.510;  704.260
330.997;   55.885;   -6.441;  817.147
331.594;   54.406;   -8.831;  788.185
332.191;   59.453;   -7.621;  728.722
332.787;   62.525;   -4.591;  844.463
333.384;   61.062;   -7.412;  763.093
333.981;   60.049;   -8.293;  815.687
334.578;   62.085;   -7.052;  708.378
335.174;   65.417;   -3.102;  731.469
335.771;   64.914;   -5.943;  836.456
336.367;   62.010;   -7.393;  710.631
336.964;   65.384;   -4.063;  793.266
337.561;   63.980;   -3.813;  731.112
338.157;   58.399;   -4.654;  911.916
338.754;   57.796;   -7.934;  796.589
339.350;   56.957;   -4.414;  722.493
339.946;   57.256;   -4.664;  773.135
340.543;   49.931;   -6.375;  846.136
341.139;   44.121;   -9.815;  720.836
341.735;   41.746;   -4.526;  772.593
342.332;   40.044;   -4.895;  691.472
342.928;   40.720;   -4.295;  795.394
343.524;   34.407;   -5.476;  761.684
344.120;   30.551;   -5.856;  738.562
344.716;   33.884;   -2.155;  723.717
345.313;   31.107;   -6.275;  795.342
345.909;   25.660;   -8.815;  627.336
346.505;   28.161;   -5.305;  740.247
347.101;   27.951;   -2.674;  827.864
347.697;   28.180;   -4.344;  785.398
348.293;   23.107;   -9.975;  627.244
348.889;   24.099;   -5.774;  745.914
349.485;   23.718;   -5.004;  688.205
350.081;   23.120;   -4.704;  772.592
350.676;   18.770;   -6.635;  691.606
351.272;   23.827;   -4.504;  809.530
351.868;   22.910;   -3.914;  780.497
352.464;   20.086;   -9.044;  723.932
353.059;   16.188;   -8.314;  646.017
353.655;   20.271;   -7.024;  777.063
354.251;   21.076;   -5.343;  759.845
354.846;   14.857;   -8.604;  740.646
355.442;   12.904;   -6.945;  753.071
356.038;   15.900;   -7.564;  751.708
356.633;   15.541;   -5.814;  728.594
357.229;   12.967;   -7.364;  724.757
357.824;   11.189;   -8.024;  703.600
358.420;   10.675;   -9.384;  679.726
359.015;   10.817;   -5.104;  695.357
359.610;   11.841;   -6.854;  763.920
360.206;    5.667;  -10.185;  603.240
360.801;    9.185;   -7.054;  646.503
361.396;   11.539;   -5.034;  725.975
361.992;    6.885;   -8.284;  668.220
362.587;    3.326;   -8.625;  670.160
363.182;    5.627;   -7.674;  689.631
363.777;    5.887;   -5.164;  738.242
364.372;    5.949;   -8.604;  737.314
364.967;    1.713;   -9.055;  680.744
365.563;    6.990;   -6.114;  815.567
366.158;    3.354;   -5.814;  685.161
366.753;    3.949;   -7.854;  649.263
367.348;    1.913;   -7.804;  746.056
367.942;    2.438;   -7.954;  697.298
368.537;    1.535;   -4.984;  754.245
369.132;    1.106;   -8.564;  703.428
369.727;   -2.707;   -8.855;  638.079
370.322;   -1.001;   -6.245;  580.186
370.917;   -1.554;   -6.425;  710.646
371.511;    0.821;   -6.294;  861.834
372.106;   -2.397;   -7.685;  776.964
372.701;   -5.474;   -7.335;  585.988
373.296;   -0.143;   -4.564;  863.135
373.890;   -4.420;  -10.235;  647.840
374.485;   -7.386;   -7.885;  691.199
375.079;   -2.764;   -7.324;  738.685
375.674;   -1.331;   -3.494;  812.970
376.268;   -6.794;   -8.525;  691.759
376.863;  -11.600;  -10.086;  580.327
377.457;   -5.384;   -7.025;  662.490
378.052;   -6.791;   -3.585;  764.884
378.646;   -8.416;   -7.595;  741.167
379.240;   -9.050;   -8.335;  721.176
379.835;   -7.342;   -5.785;  636.978
380.429;   -9.293;   -4.335;  562.557
381.023;   -9.999;   -6.805;  779.205
381.617;  -12.354;   -9.195;  680.106
382.212;   -9.141;   -6.905;  685.303
382.806;   -7.354;   -3.745;  760.690
383.400;  -12.361;   -7.745;  672.281
383.994;  -13.344;   -9.765;  664.870
384.588;   -9.008;   -6.564;  697.701
385.182;   -6.964;   -5.344;  726.624
385.776;   -9.835;   -8.514;  706.875
386.370;  -12.865;   -9.555;  681.968
386.964;  -11.655;   -8.715;  684.155
387.558;   -9.869;   -6.174;  598.360
388.152;  -13.056;   -8.725;  681.959
388.745;  -11.249;   -7.965;  814.707
389.339;   -9.810;   -5.924;  747.642
389.933;   -9.348;   -5.524;  695.370
390.527;  -10.590;   -7.114;  859.029
391.120;  -16.979;  -10.725;  595.318
391.714;  -12.683;   -8.035;  711.633
392.308;  -10.508;   -3.574;  780.253
392.901;  -13.798;   -7.245;  642.460
393.495;  -15.601;   -9.285;  595.414
394.089;  -13.108;   -5.895;  760.452
394.682;  -13.563;   -4.295;  697.188
395.275;  -15.184;   -9.875;  719.927
395.869;  -16.202;   -8.485;  667.314
396.462;  -14.384;   -7.455;  616.609
397.056;  -10.894;   -5.424;  776.621
397.649;  -16.230;   -6.605;  731.575
398.242;  -12.747;   -8.224;  712.645
398.836;  -12.286;   -7.474;  766.408
399.429;  -13.492;   -7.094;  631.041
400.022;  -17.091;   -9.475;  665.902
400.615;  -14.110;   -7.145;  805.609
401.208;  -12.132;   -7.174;  691.451
401.802;  -14.738;   -5.515;  699.329
402.395;  -16.031;   -9.875;  683.502
402.988;  -17.549;   -8.845;  696.627
403.581;  -13.601;   -8.874;  646.878
404.174;  -11.408;   -5.324;  686.568
404.767;  -14.410;   -9.575;  638.583
405.360;  -17.087;  -10.965;  621.445
405.953;  -11.100;   -8.764;  759.034
406.545;  -10.611;   -7.514;  725.342
407.138;  -15.368;  -10.025;  618.350
407.731;  -14.755;  -10.034;  613.303
408.324;   -9.570;   -9.374;  660.554
408.917;  -10.811;   -6.534;  681.864
409.509;  -13.462;   -8.004;  740.396
410.102;  -15.110;   -9.875;  643.948
410.695;   -8.960;   -8.604;  665.758
411.287;   -9.424;   -6.794;  599.821
411.880;  -11.148;   -9.334;  585.421
412.472;  -14.677;  -10.254;  613.092
413.065;  -11.262;   -6.714;  629.408
413.657;   -9.039;   -7.234;  576.678
414.250;   -9.743;  -10.544;  646.681
414.842;  -11.195;   -9.744;  676.353
415.434;   -8.564;   -6.994;  570.463
416.027;   -4.453;   -5.893;  652.196
416.619;   -6.930;   -7.264;  713.400
417.211;   -8.334;  -10.374;  599.352
417.804;   -4.109;   -7.993;  628.499
418.396;   -7.063;   -7.234;  607.643
418.988;   -6.491;   -9.443;  659.238
419.580;   -9.512;  -10.724;  568.276
420.172;   -6.606;  -10.323;  536.196
420.764;   -2.812;   -8.793;  672.482
421.356;   -3.473;  -11.143;  636.898
421.948;   -4.984;   -8.293;  677.661
422.540;    0.496;   -7.893;  680.027
423.132;   -0.910;   -7.082;  600.641
423.724;   -4.443;   -8.653;  561.267
424.316;   -1.531;  -10.213;  621.345
424.908;    1.973;   -9.762;  591.517
425.500;    2.599;   -5.572;  647.978
426.092;    2.042;   -8.422;  648.268
426.683;    0.648;   -9.283;  684.836
427.275;    5.029;   -7.852;  641.471
427.867;    6.425;   -5.272;  668.948
428.458;    6.267;   -7.682;  732.344
429.050;    4.563;  -10.612;  680.749
429.642;    7.195;   -9.882;  743.124
430.233;    7.505;   -6.962;  569.356
430.825;    8.135;   -6.842;  724.809
431.416;    5.230;   -9.672;  698.241
432.008;   10.011;   -6.552;  651.723
432.599;   10.134;   -6.891;  656.073
433.190;    6.997;  -10.912;  637.670
433.782;    6.935;  -11.172;  590.395
434.373;   14.352;   -6.061;  884.765
434.964;   12.949;   -8.251;  602.920
435.556;   10.013;   -9.722;  634.537
436.147;   12.453;   -9.082;  758.490
436.738;   13.323;   -8.041;  701.099
437.329;   18.233;   -7.341;  721.723
437.920;   10.593;   -8.162;  666.688
438.511;   10.747;  -11.802;  564.526
439.103;   18.483;  -10.191;  623.998
439.694;   19.708;   -7.601;  681.583
440.285;   20.308;   -8.541;  764.432
440.876;   18.047;   -9.751;  845.738
441.466;   18.083;   -9.401;  575.162
442.057;   23.157;   -7.760;  665.814
442.648;   21.049;   -9.971;  746.255
443.239;   19.800;  -11.001;  620.477
443.830;   25.192;   -7.990;  704.958
444.421;   26.624;   -7.910;  655.474
445.011;   22.520;   -8.131;  693.619
445.602;   22.678;   -7.111;  743.126
446.193;   24.835;  -10.920;  488.117
446.783;   29.369;   -6.500;  640.397
447.374;   23.995;   -8.671;  692.759
447.964;   24.700;  -10.781;  713.770
448.555;   33.140;   -9.650;  822.742
449.145;   29.651;   -8.660;  662.853
449.736;   30.367;   -8.990;  803.179
450.326;   30.586;   -9.500;  713.626
450.917;   35.284;   -8.680;  675.324
451.507;   35.102;   -7.520;  600.661
452.097;   34.315;   -8.590;  746.267
452.688;   35.744;  -11.340;  742.160
453.278;   35.704;  -10.100;  566.840
453.868;   40.177;   -6.019;  793.550
454.458;   38.162;   -9.440;  651.141
455.048;   38.038;  -10.560;  711.783
455.639;   39.850;  -11.799;  567.096
456.229;   43.429;   -6.899;  710.694
456.819;   44.929;   -7.389;  751.158
457.409;   45.148;  -11.119;  773.993
457.999;   48.719;   -9.289;  737.505
458.589;   48.198;   -6.139;  686.606
459.179;   46.934;   -8.729;  717.658
459.769;   45.428;   -9.789;  627.099
460.358;   51.543;  -10.259;  797.262
460.948;   50.540;   -7.299;  689.503
461.538;   51.773;  -10.289;  660.677
462.128;   50.092;  -11.269;  664.934
462.717;   56.100;   -9.368;  710.326
463.307;   59.490;   -7.908;  705.846
463.897;   55.128;   -9.599;  656.942
464.486;   54.123;   -9.769;  837.128
465.076;   59.608;   -8.048;  733.776
465.666;   62.504;   -9.358;  652.900
466.255;   59.661;   -7.919;  785.651
466.845;   59.050;  -11.689;  666.749
467.434;   62.198;   -7.818;  725.873
468.023;   63.537;   -7.678;  658.357
468.613;   61.400;  -10.939;  713.946
469.202;   65.936;  -10.118;  646.507
469.791;   69.914;   -9.108;  737.811
470.381;   71.819;   -6.058;  742.813
470.970;   70.927;  -10.428;  711.099
471.559;   70.038;  -10.268;  733.291
472.148;   73.293;   -8.448;  675.737
472.738;   76.760;   -6.917;  765.466
473.327;   76.327;  -11.978;  637.529
473.916;   75.508;  -11.888;  737.446
474.505;   79.102;   -9.437;  751.703
475.094;   82.695;   -6.747;  806.570
475.683;   81.911;   -9.367;  797.699
476.272;   82.605;  -12.637;  730.632
476.861;   85.415;  -10.027;  706.754
477.449;   92.383;   -8.716;  728.487
478.038;   86.178;   -9.577;  692.513
478.627;   86.904;   -9.718;  714.852
479.216;   94.853;   -8.947;  769.441
479.805;   97.339;   -6.256;  783.375
480.393;   96.564;   -7.937; 1008.945
480.982;   96.662;   -7.717;  874.501
481.571;  102.788;   -9.266;  858.333
482.159;  102.704;   -7.636;  705.386
482.748;  102.202;   -9.667;  821.385
483.336;  106.528;  -10.376;  858.209
483.925;  108.145;   -7.147;  774.373
484.513;  115.288;   -7.996;  758.962
485.102;  111.710;  -10.027;  810.965
485.690;  120.198;  -10.446; 1011.050
486.278;  121.289;   -8.446;  979.329
486.867;  123.475;   -6.356;  809.662
487.455;  125.057;   -9.136;  898.229
488.043;  126.204;  -10.646;  748.361
488.631;  135.813;   -7.456; 1005.079
489.220;  139.872;   -6.636;  908.626
489.808;  139.355;  -11.036;  741.415
490.396;  148.937;  -10.246;  914.645
490.984;  155.929;   -8.556;  830.161
491.572;  168.226;   -5.886;  940.315
492.160;  175.916;   -9.486;  919.081
492.748;  186.467;  -10.976;  884.341
493.336;  211.542;   -8.776; 1019.693
493.924;  245.284;   -5.465;  958.077
494.512;  285.099;   -9.986; 1066.638
495.100;  331.849;  -10.636; 1103.280
495.687;  402.841;  -10.885; 1206.373
496.275;  492.475;   -8.126; 1150.796
496.863;  577.295;  -10.586; 1281.171
497.451;  693.604;  -11.926; 1386.805
498.038;  808.240;  -10.885; 1556.729
498.626;  946.843;   -6.315; 1741.407
499.214; 1168.278;   -7.326; 2016.609
499.801; 1420.242;  -11.906; 2220.633
500.389; 1754.780;  -10.466; 2312.494
500.976; 2053.992;   -5.236; 2744.849
501.564; 2551.207;   -8.936; 3148.565
502.151; 3234.513;  -13.176; 3515.999
502.738; 3642.461;  -10.646; 3971.274
503.326; 4065.247;   -9.525; 4403.796
503.913; 4497.113;  -10.856; 5161.749
504.500; 4968.880;  -11.586; 5986.420
505.088; 5589.786;  -10.336; 6381.201
505.675; 6510.642;   -6.355; 6925.547
506.262; 7103.555;   -9.046; 7619.060
506.849; 7503.229;  -10.416; 8733.969
507.436; 8018.181;  -10.305; 9790.121
508.023; 8422.002;   -5.496; 9985.472
508.610; 8449.385;   -7.856;10434.618
509.197; 9422.736;  -10.097;11198.435
509.784;10803.705;  -10.886;12391.194
510.371;12219.115;   -9.315;13603.713
510.958;13338.943;   -9.936;14426.586
511.545;13908.148;   -9.326;15243.775
512.132;14155.465;  -10.075;15945.876
512.719;14645.604;   -7.796;16340.369
513.305;15861.172;  -10.606;18011.766
513.892;17387.463;  -11.486;19754.971
514.479;18693.004;   -9.126;20967.805
515.066;20047.105;   -6.026;22299.793
515.652;20132.031;   -8.466;22908.660
516.239;20514.297;  -10.886;23798.875
516.825;21867.367;  -11.496;25567.275
517.412;23385.127;   -5.796;28154.959
517.998;24636.152;  -10.506;28344.111
518.585;25687.072;  -10.076;27134.219
519.171;25112.438;   -8.315;27268.576
519.758;25635.330;   -8.596;28964.129
520.344;28247.066;   -8.466;30664.494
520.930;27345.707;  -11.006;32550.605
521.516;25625.914;  -10.495;35422.895
522.103;27346.906;   -5.526;38280.004
522.689;29702.684;   -8.746;37835.117
523.275;30795.965;  -11.376;37288.613
523.861;32801.063;  -11.156;37281.395
524.447;32423.828;   -8.135;37846.949
525.033;32618.619;   -7.896;38321.949
525.619;33383.805;  -12.476;38579.285
526.205;33541.910;   -9.516;40622.875
526.791;33030.785;   -6.926;42258.836
527.377;32848.020;   -8.346;42966.902
527.963;34483.258;   -8.717;42018.949
528.549;35781.164;  -11.016;42476.828
529.135;34249.070;   -8.536;41854.852
529.721;34297.582;   -9.666;41237.711
530.306;33194.703;  -10.066;41259.445
530.892;34024.234;  -11.356;41506.047
531.478;35992.047;   -6.596;43559.613
532.063;37923.027;   -8.836;47695.563
532.649;36220.199;  -10.047;50808.324
533.235;36362.543;   -9.746;51787.500
533.820;38474.285;   -6.566;52145.035
534.406;39930.047;  -10.817;51133.488
534.991;41843.668;   -9.416;49996.805
535.576;40460.059;   -9.036;48882.852
536.162;37700.836;   -6.156;46942.285
536.747;38155.121;  -11.607;45711.746
537.333;40800.258;  -11.787;48510.180
537.918;41550.676;  -12.437;50439.891
538.503;40945.613;   -7.196;50863.711
539.088;41496.957;  -10.556;50906.922
539.673;42484.355;   -8.767;52621.965
540.259;39456.410;  -10.026;52368.094
540.844;38637.461;   -7.416;50879.109
541.429;38411.664;   -9.467;52077.777
542.014;38016.652;   -9.527;52716.695
542.599;40922.766;   -9.946;52363.281
543.184;42373.078;   -7.927;53187.137
543.769;42581.340;   -9.297;54697.605
544.354;42759.488;  -10.127;53913.914
544.938;40813.691;   -9.267;49680.164
545.523;38932.102;   -6.506;47386.277
546.108;40389.645;   -9.787;49151.949
546.693;41099.852;  -11.587;51384.637
547.278;41419.617;  -10.986;51853.254
547.862;41925.133;   -8.206;51173.750
548.447;40339.270;  -10.067;51691.395
549.031;39972.375;   -9.637;52456.703
549.616;40520.164;   -9.926;52714.516
550.201;39910.684;   -6.347;52414.598
550.785;40936.859;   -7.917;52355.059
551.370;41815.055;  -10.867;54589.453
551.954;43749.535;   -9.047;58267.348
552.538;43033.563;   -7.827;59062.176
553.123;41218.109;  -10.287;58115.285
553.707;40369.711;  -12.178;56556.285
554.291;38145.785;   -8.717;56201.668
554.876;39412.395;   -7.457;55335.762
555.460;41304.160;  -10.387;54155.703
556.044;42660.664;   -9.618;53721.484
556.628;43209.484;  -11.567;53731.016
557.212;43742.199;   -8.097;54312.531
557.796;45252.531;  -11.077;53797.773
558.380;43542.551;  -11.108;56145.984
558.964;42254.520;   -9.057;57277.930
559.548;40022.902;   -6.977;56459.641
560.132;36778.246;  -11.457;54434.543
560.716;38094.508;  -11.378;54800.617
561.300;40412.234;   -9.577;57606.945
561.884;39261.695;   -7.127;58972.445
562.467;37842.664;   -7.118;57327.570
563.051;36685.684;  -13.358;54962.434
563.635;34935.715;  -10.178;52594.473
564.219;36568.547;   -7.837;50610.410
564.802;39864.656;  -11.398;49551.180
565.386;40326.691;  -12.788;48370.953
565.969;41311.707;   -9.077;48178.871
566.553;40386.551;   -6.207;49957.305
567.136;38986.266;   -8.568;50369.594
567.720;39978.590;  -11.868;49492.004
568.303;41096.824;   -8.268;50616.352
568.887;40283.676;   -8.698;50727.148
569.470;37980.355;   -6.808;51698.379
570.053;35856.594;  -13.188;52122.078
570.637;33871.785;  -12.037;52536.438
571.220;34170.512;   -8.577;51186.098
571.803;34193.488;   -8.498;51032.762
572.386;35886.641;  -10.498;49609.887
572.969;36553.414;   -9.388;48285.926
573.552;36405.473;   -8.338;47624.285
574.135;34948.340;   -8.518;45498.641
574.718;31510.256;  -13.628;41970.434
575.301;32622.184;  -10.893;41447.137
575.884;33734.109;   -8.158;40923.836
576.467;38248.094;  -10.328;45267.723
577.050;38559.066;  -13.058;48175.543
577.633;37262.066;   -9.458;47729.328
578.216;34128.449;   -8.928;47579.793
578.799;32038.660;   -9.358;47820.996
579.381;33530.082;  -11.388;48115.551
579.964;34008.176;  -11.718;47333.766
580.547;32889.871;   -8.588;46668.969
581.129;33499.180;   -8.859;44466.141
581.712;35250.094;  -10.729;44164.922
582.294;34995.004;  -11.118;46477.855
582.877;35692.188;   -5.218;48244.254
583.459;35808.520;   -8.679;47437.895
584.042;37122.816;  -10.709;46943.219
584.624;35223.977;  -11.669;46792.227
585.206;34104.871;   -8.218;46557.250
585.789;35034.199;  -10.569;45793.773
586.371;35475.840;  -11.859;43836.391
586.953;36264.176;  -10.719;42972.492
587.536;37625.680;   -7.198;42487.211
588.118;36910.742;   -8.720;42086.414
588.700;35911.125;  -10.439;43389.930
589.282;33126.027;   -9.198;43646.039
589.864;30865.168;   -9.199;43438.109
590.446;30680.555;  -11.319;43151.926
591.028;30079.076;  -11.159;42781.867
591.610;29646.469;  -11.779;42839.098
592.192;29681.289;   -7.668;42820.402
592.774;27611.318;  -11.949;40724.277
593.356;25207.684;  -12.129;39874.789
593.937;26396.754;  -10.669;39980.648
594.519;30787.008;   -6.509;42069.633
595.101;32189.895;  -10.849;42976.031
595.683;31402.414;  -11.679;44084.441
596.264;30808.998;   -9.049;43478.797
596.846;30645.055;   -8.849;43803.672
597.427;30630.949;   -9.570;42986.934
598.009;32390.332;  -12.620;42832.219
598.591;32377.295;  -10.039;42580.086
599.172;34447.961;  -10.369;43061.805
599.753;36729.195;   -9.140;41691.469
600.335;36240.750;  -11.430;40692.520
600.916;33806.156;   -9.939;39982.422
601.498;30454.209;   -8.479;40318.617
602.079;29675.043;  -10.920;40670.609
602.660;29415.639;  -11.480;41450.898
603.241;30432.340;  -11.699;41137.738
603.823;30884.139;   -9.579;38868.797
604.404;30522.715;  -10.620;38182.785
604.985;33378.969;  -10.450;38078.047
605.566;34302.094;   -9.129;38056.633
606.147;35162.527;   -7.510;37020.418
606.728;33970.188;  -10.660;37883.359
607.309;32044.422;  -11.740;38748.273
607.890;31851.064;   -9.759;38850.230
608.471;30636.176;   -8.250;37457.918
609.051;30651.885;   -9.240;36066.457
609.632;30493.160;  -12.120;35991.074
610.213;30033.627;   -9.110;37402.641
610.794;31288.340;   -8.030;38383.363
611.374;30214.793;   -8.110;40562.387
611.955;29980.469;  -13.560;38533.727
612.536;31004.010;  -11.400;36951.789
613.116;30494.420;   -8.070;37197.891
613.697;31316.510;  -10.830;38411.125
614.277;30993.941;  -11.641;38673.938
614.858;30319.248;  -13.310;37075.863
615.438;30431.992;   -7.460;35092.906
616.019;28355.354;   -7.601;33666.301
616.599;29054.803;  -12.020;34189.023
617.179;29010.455;  -11.780;36952.047
617.760;27865.369;   -8.570;39582.574
618.340;28187.020;  -11.471;38943.977
618.920;28660.045;  -11.170;37594.156
619.500;29611.662;  -11.071;37866.938
620.080;30110.516;   -7.750;37869.043
620.660;30458.563;  -12.711;36868.617
621.241;31215.781;  -10.211;36352.309
621.821;30637.086;  -10.961;35459.520
622.401;30687.930;   -7.720;35207.414
622.980;32651.990;   -8.981;35980.422
623.560;31446.014;   -9.331;37351.328
624.140;27251.975;   -9.850;34388.582
624.720;23335.541;   -7.451;32368.764
625.300;22937.031;   -9.070;32638.629
625.880;27041.398;  -12.601;34599.035
626.459;30171.254;  -11.751;36831.738
627.039;30152.475;   -9.281;38299.098
627.619;29408.402;   -8.801;38289.574
628.198;29491.889;  -12.071;37220.695
628.778;30071.463;   -9.461;37632.563
629.357;30683.705;   -8.491;38003.012
629.937;30343.793;   -9.721;38402.039
630.516;31125.869;   -9.951;37868.801
631.096;32537.014;  -11.731;35760.410
631.675;34938.816;   -8.572;35225.219
632.254;34644.816;  -11.282;35130.289
632.834;33205.672;  -13.322;35794.570
633.413;33955.848;  -10.301;35788.922
633.992;34085.840;   -8.582;34532.863
634.571;34832.914;   -8.352;33590.113
635.151;34176.961;  -11.912;34943.863
635.730;32149.615;  -10.511;35352.523
636.309;32019.295;   -7.731;35366.605
636.888;31340.201;   -9.952;36165.637
637.467;30631.857;  -11.672;37515.902
638.046;29336.871;   -8.901;39288.695
638.625;28726.813;   -7.912;38279.699
639.204;27993.748;  -10.022;37741.598
639.782;29313.396;  -12.252;38364.551
640.361;31383.242;  -10.041;36740.621
640.940;31244.186;  -11.161;34950.082
641.519;30768.314;   -9.701;34137.398
642.097;31784.385;  -11.271;35654.258
642.676;31658.957;   -8.651;35637.957
643.255;30722.166;   -8.711;36567.074
643.833;30504.557;   -9.581;37809.434
644.412;31320.648;  -13.711;37337.293
644.990;32683.359;  -11.811;37018.531
645.569;35320.848;   -9.411;36518.469
646.147;35936.277;  -10.291;36186.430
646.726;34180.555;  -12.401;36267.688
647.304;32548.869;  -10.411;36647.625
647.882;33182.445;   -9.651;39286.742
648.461;32983.754;   -9.631;39157.703
649.039;30667.129;  -11.881;35412.883
649.617;30491.398;   -9.661;34744.918
650.195;30987.646;   -9.301;35403.098
650.773;30285.113;  -10.511;35053.797
651.352;30226.146;  -11.521;33756.816
651.930;29080.875;  -12.211;31868.773
652.508;28057.189;   -9.171;33121.551
653.086;29378.928;   -9.371;33564.793
653.663;31494.916;  -13.161;34054.668
654.241;30386.736;  -13.031;35693.309
654.819;28527.672;   -9.371;36422.906
655.397;29166.447;  -10.511;38213.484
655.975;29438.266;  -10.371;39507.625
656.553;30531.242;  -10.051;39498.223
657.130;31371.502;  -10.061;40395.480
657.708;28327.666;   -9.561;39242.020
658.286;25549.568;  -11.511;38920.020
658.863;25693.840;  -10.261;40202.898
659.441;28403.576;   -7.531;39677.938
660.018;31170.941;   -9.501;40413.355
660.596;31822.656;  -13.301;39931.414
661.173;34368.332;  -11.211;39604.531
661.750;33667.387;   -9.951;39700.070
662.328;31166.795;   -9.390;39292.809
662.905;29757.631;  -11.330;38235.648
663.482;26871.416;   -9.050;36212.305
664.060;24695.025;   -8.240;35944.945
664.637;28670.244;  -10.050;35170.785
665.214;33260.289;  -11.760;34197.523
665.791;32122.861;  -10.530;34549.520
666.368;31715.855;   -9.690;35118.578
666.945;32157.580;   -9.320;36019.418
667.522;33042.852;  -11.860;36048.438
668.099;32239.645;  -10.770;36243.914
668.676;32323.934;   -6.260;35958.875
669.253;34265.238;   -7.000;37384.730
669.830;34471.602;  -10.190;36779.629
670.407;33386.719;   -9.550;35231.289
670.984;32860.961;   -9.260;35544.270
671.560;31332.943;   -9.280;35466.867
672.137;29580.564;  -11.810;34280.863
672.714;29436.543;  -11.490;34632.863
673.290;30292.594;   -7.740;35135.422
673.867;30782.119;  -10.660;36114.480
674.443;30072.836;  -12.230;36152.859
675.020;28491.434;  -10.450;35327.238
675.596;26984.420;   -9.260;35795.176
676.173;27816.795;  -10.780;35430.355
676.749;28479.480;  -13.690;33549.516
677.326;29565.707;  -11.980;32210.012
677.902;27758.898;   -8.630;32068.871
678.478;25896.309;  -10.730;32583.891
679.054;27541.320;  -10.520;32088.928
679.631;29036.590;  -11.920;30978.848
680.207;30197.633;   -7.490;33160.887
680.783;31177.133;   -9.860;35570.363
681.359;31625.090;  -13.380;36125.184
681.935;30583.377;  -12.480;35240.922
682.511;31254.973;   -7.900;34429.961
683.087;31845.924;   -7.710;34463.680
683.663;32586.721;  -11.480;34648.898
684.239;32199.631;  -14.090;34546.457
684.815;33108.094;   -7.560;35586.375
685.390;33085.227;   -9.910;35821.895
685.966;32672.264;  -11.159;35085.871
686.542;33238.293;  -11.169;34198.230
687.118;31695.121;   -5.959;32847.707
687.693;31874.271;  -10.329;32794.027
688.269;31254.775;  -12.059;33072.367
688.844;31887.852;  -10.909;33141.664
689.420;32996.637;   -8.019;33965.742
689.995;29793.715;   -8.399;34655.523
690.571;28884.695;  -10.949;33576.742
691.146;28170.404;   -9.619;32657.219
691.722;26218.188;   -8.999;32526.979
692.297;25410.596;  -11.589;33014.617
692.872;26110.605;  -11.739;34012.254
693.448;26329.518;  -11.059;34237.434
694.023;28209.021;  -10.139;34142.672
694.598;30356.473;   -9.029;34132.031
695.173;30181.484;  -13.319;34205.250
695.748;27704.758;  -10.169;32882.488
696.323;25419.891;   -8.339;32864.906
696.898;24927.865;   -8.169;33170.004
697.473;27917.779;  -12.309;32432.984
698.048;27835.842;  -10.989;31649.303
698.623;26775.105;   -9.329;30778.141
699.198;28231.029;   -9.849;31140.119
699.773;29433.430;  -12.329;31764.299
700.348;29216.006;  -10.389;31780.816
700.922;27440.229;   -9.269;32046.375
701.497;25846.863;   -9.329;32603.574
702.072;27406.674;  -10.789;34799.871
702.646;27286.260;  -10.839;35793.172
703.221;27976.074;   -9.099;35201.590
703.795;28634.201;  -10.939;34764.527
704.370;27255.369;  -12.859;34307.367
704.944;28473.225;  -11.559;33509.887
705.519;29509.281;   -7.939;31388.584
706.093;31560.895;  -10.499;31340.104
706.668;32693.377;  -11.289;32630.281
707.242;31746.287;  -11.509;32728.779
707.816;30327.102;   -9.639;32947.238
708.390;29814.340;  -11.429;33277.855
708.965;30875.719;  -11.869;33834.336
709.539;31050.338;  -11.689;33709.273
710.113;30615.941;  -10.478;33044.313
710.687;27898.697;  -10.228;31953.992
711.261;27048.844;  -13.698;30505.949
711.835;26869.549;  -13.378;30262.369
712.409;26737.254;   -9.698;31254.447
712.983;26430.049;  -11.898;32754.986
713.557;25337.242;  -15.138;34018.824
714.131;26613.002;  -14.098;34579.625
714.704;26491.811;   -9.958;33890.262
715.278;25762.537;  -10.028;33531.102
715.852;24941.543;  -11.148;33601.660
716.425;24451.061;   -9.068;33515.117
716.999;25993.941;  -10.038;33185.555
717.573;26648.441;   -9.798;33905.996
718.146;27737.111;  -12.378;35199.293
718.720;28395.436;  -11.918;35060.551
719.293;27566.873;   -8.088;34973.230
719.867;26591.088;  -10.888;36394.449
720.440;27375.668;  -11.938;36663.008
721.013;29456.264;  -12.818;35102.426
721.587;30970.785;  -10.298;33985.266
722.160;30658.717;  -10.048;33524.965
722.733;28701.477;  -12.108;32987.043
723.306;26412.061;  -10.818;33066.301
723.880;26741.301;   -8.908;33399.500
724.453;25850.264;   -9.878;33468.297
725.026;25687.676;  -11.188;33816.637
725.599;25957.260;  -11.678;32797.996
726.172;25642.547;   -9.618;33187.434
726.745;26650.084;   -8.258;35136.613
727.318;29392.943;  -12.978;35751.730
727.891;31460.855;  -12.148;35890.430
728.463;32738.832;   -8.968;34822.090
729.036;32952.941;  -10.188;32895.086
729.609;30571.211;  -11.788;31823.225
730.182;28772.967;  -11.788;31445.283
730.754;28017.732;  -10.268;32373.223
731.327;27770.756;   -9.998;33676.820
731.900;26996.633;  -12.228;33417.000
732.472;26009.035;  -13.848;31978.498
733.045;25806.691;   -8.698;30368.777
733.617;25362.938;  -10.607;30574.215
734.190;23961.416;  -11.507;31280.975
734.762;24143.316;  -13.647;31674.412
735.334;25431.748;   -9.767;31247.291
735.907;25708.438;   -9.897;29876.211
736.479;23718.354;  -11.637;29808.488
737.051;23228.646;   -9.567;30233.547
737.623;24200.678;   -8.187;31469.086
738.195;26140.732;  -11.187;31784.225
738.768;26628.602;  -12.337;32120.523
739.340;26067.045;  -12.227;32094.342
739.912;25671.434;  -11.057;31312.680
740.484;26580.404;  -10.207;31946.238
741.056;27793.141;  -10.047;32984.059
741.628;27273.500;  -13.627;33897.715
742.199;27710.555;   -7.177;33213.016
742.771;25865.936;  -10.797;31369.113
743.343;24144.584;  -11.997;31865.473
743.915;24172.027;  -12.867;32388.631
744.487;24715.541;   -7.617;31079.568
745.058;26104.578;   -9.557;30570.107
745.630;25969.834;   -9.877;29970.127
746.201;24828.434;  -14.177;29186.766
746.773;24515.465;   -9.237;28805.723
747.344;24714.361;   -9.847;29591.223
747.916;24859.178;  -11.657;31412.201
748.487;24357.119;  -10.587;32194.898
749.059;24052.555;   -8.707;32533.719
749.630;22973.537;  -10.537;32158.518
750.201;23146.193;  -11.687;30855.395
750.773;23262.580;  -11.647;28622.555
751.344;24603.004;   -7.147;28405.732
751.915;24581.213;   -9.757;28461.551
752.486;24078.695;  -12.427;27842.850
753.057;22457.502;  -12.227;27845.008
753.628;22018.662;  -10.417;27728.107
754.199;22086.061;  -11.767;27381.086
754.770;21504.820;  -11.187;25882.203
755.341;20995.805;  -10.507;25886.184
755.912;21288.695;   -9.387;26050.861
756.483;21722.408;  -10.647;26798.779
757.054;21307.363;  -11.837;27048.238
757.625;19475.994;  -12.716;26294.838
758.195;18824.100;   -9.666;26142.076
758.766;19777.412;   -8.656;26392.234
759.337;19651.590;  -12.856;26334.594
759.907;18859.977;  -13.366;27579.652
760.478;17947.105;   -8.576;28352.770
761.048;18451.898;  -10.526;27325.088
761.619;19041.350;  -11.116;26460.428
762.189;18612.234;  -12.136;26029.826
762.760;18580.486;   -9.456;26430.145
763.330;18704.012;   -7.136;26670.902
763.900;18613.412;  -11.786;26603.021
764.471;17913.752;  -11.546;25542.740
765.041;17656.934;   -8.096;24358.459
765.611;17721.547;   -8.876;23991.297
766.181;17630.842;  -12.196;24470.236
766.751;18082.826;  -11.636;24845.975
767.321;18080.096;  -10.156;24533.633
767.891;17835.029;  -11.766;24916.492
768.461;17569.236;  -14.936;24776.771
769.031;16740.098;  -12.356;24757.988
769.601;16435.285;   -7.526;24181.088
770.171;16779.945;  -10.766;23670.387
770.741;17416.131;  -13.176;22960.045
771.311;16991.613;  -10.616;22917.523
771.880;15650.497;   -9.576;23562.941
772.450;15075.730;  -10.336;24216.500
773.020;15229.741;  -13.516;24140.398
773.589;15080.408;  -13.466;24414.857
774.159;14578.034;   -8.686;23858.717
774.729;13995.644;   -9.476;22942.135
775.298;13991.781;  -13.666;22324.033
775.867;14070.483;  -11.716;21140.313
776.437;13556.813;   -9.906;20838.092
777.006;13378.450;  -12.166;20599.510
777.576;14503.993;  -12.356;20508.809
778.145;13830.985;  -11.646;20732.947
778.714;12550.943;   -8.226;21062.465
779.283;12067.894;   -9.556;20949.664
779.853;11865.057;  -14.116;20508.623
780.422;12107.959;  -11.506;20649.082
780.991;12492.079;   -9.556;21527.520
781.560;13041.025;   -9.095;22632.658
782.129;12040.643;  -12.135;23048.277
782.698;10903.010;  -10.865;23438.555
783.267;10347.074;   -9.335;23267.734
783.836;10599.781;  -11.045;22415.133
784.404;11212.866;  -13.865;20443.152
784.973;11391.901;  -13.095;19699.150
785.542;11315.426;  -11.575;19763.828
786.111;11137.969;   -9.705;20341.408
786.679;11013.889;  -12.105;20207.967
787.248;10777.685;  -12.455;19516.465
787.817;10666.490;  -11.535;18900.363
788.385;10507.364;   -9.765;17879.121
788.954;10358.162;  -14.005;17658.301
789.522;10241.053;  -11.955;17788.879
790.090; 9479.143;  -10.135;18118.277
790.659; 8740.726;  -10.975;18338.736
791.227; 8830.732;  -13.375;18508.615
791.795; 9171.701;  -12.375;17898.254
792.364; 9319.068;  -10.725;17295.133
792.932; 9604.225;   -9.715;16822.051
793.500; 9451.580;  -12.675;17040.148
794.068; 9720.073;  -13.495;17179.787
794.636; 9831.309;  -10.885;16664.246
795.204; 9555.260;  -11.045;16524.545
795.772; 9592.051;  -13.175;17274.564
796.340; 9438.566;  -12.445;17891.002
796.908; 9629.752;   -9.735;17648.561
797.476; 9973.091;   -9.815;17064.080
798.044; 9721.854;  -13.985;16672.777
798.612; 9366.147;  -13.115;17023.996
799.180; 8705.202;  -10.185;16561.615
799.747; 8437.269;   -9.055;15962.773
800.315; 8722.683;  -12.385;15296.992
800.883; 8214.454;  -15.035;14801.771
801.450; 7555.838;  -10.365;14534.430
802.018; 7346.138;   -9.855;14173.248
802.585; 7371.177;  -11.905;14029.547
803.153; 7614.825;  -11.585;13836.846
803.720; 7434.358;   -9.095;13567.324
804.287; 7349.565;   -9.135;13360.622
804.855; 7545.903;  -11.604;13681.981
805.422; 7909.651;  -11.794;13536.560
805.989; 8167.854;  -10.734;13355.958
806.556; 8175.891;  -10.444;13747.896
807.124; 8504.078;  -12.764;13987.376
807.691; 9008.306;  -12.964;14038.674
808.258; 9103.419;  -11.134;14120.152
808.825; 9149.755;   -9.854;13860.111
809.392; 8831.941;  -10.504;13268.790
809.959; 8175.016;  -13.054;12680.389
810.526; 7512.293;   -8.294;12427.308
811.093; 6919.056;   -8.394;12030.105
811.659; 6744.493;  -12.304;11653.664
812.226; 6938.883;  -13.944;11637.183
812.793; 7344.450;  -10.484;11611.521
813.360; 7492.167;  -10.144;11885.181
813.926; 7510.034;  -11.684;12770.539
814.493; 7438.279;  -13.644;12677.638
815.060; 7314.555;   -9.724;11974.336
815.626; 7497.230;   -9.854;11594.715
816.193; 7604.195;  -13.254;11579.474
816.759; 6994.315;  -13.204;11666.972
817.325; 6548.154;   -9.434;11325.530
817.892; 6415.751;  -10.134;11105.369
818.458; 6579.801;  -13.474;10843.928
819.024; 7040.271;  -11.854;10714.406
819.591; 7131.724;  -10.244;10469.165
820.157; 6893.721;  -10.704;10235.523
820.723; 6888.340;  -12.324;10847.563
821.289; 6798.022;   -9.444;11040.980
821.855; 6845.231;   -8.374;10357.100
822.421; 7192.409;  -10.234; 9978.918
822.987; 7163.760;  -13.294; 9754.177
823.553; 6842.786;  -10.884;10065.755
824.119; 6592.492;   -8.884;10036.294
824.685; 6078.099;   -6.784;10029.192
825.251; 5968.038;  -12.004;10199.230
825.816; 5684.666;  -11.474; 9820.189
826.382; 5443.158;   -9.174; 9297.248
826.948; 5726.858;   -9.214; 9381.347
827.513; 6166.733;  -10.774; 9450.726
828.079; 6231.683;  -11.924; 9472.444
828.645; 5993.888;  -10.543; 9292.643
829.210; 5854.812;  -10.533; 9065.341
829.776; 5761.756;  -10.753; 9132.620
830.341; 5907.197;  -10.173; 9092.878
830.906; 5938.451;  -10.743; 9078.557
831.472; 5692.760;  -11.113; 8534.535
832.037; 5302.711;  -10.603; 8677.874
832.602; 5149.302;  -13.323; 8628.692
833.167; 4900.805;  -10.823; 8879.031
833.733; 4745.826;  -10.113; 9189.790
834.298; 4578.177;  -13.583; 9052.608
834.863; 4740.736;  -12.703; 8895.087
835.428; 4951.989;  -10.523; 8824.266
835.993; 4882.317;   -6.963; 8845.385
836.558; 4840.293;  -10.763; 8888.563
837.123; 4976.008;   -9.903; 8966.582
837.688; 5318.131;   -9.913; 8617.860
838.253; 5354.107;  -10.283; 8590.699
838.817; 4996.761;  -12.963; 8443.797
839.382; 4867.746;  -14.243; 8799.356
839.947; 5007.255;  -10.733; 8810.595
840.511; 5020.875;   -9.383; 8796.394
841.076; 4852.473;  -12.563; 8347.231
841.641; 4667.226;  -12.953; 8224.330
842.205; 4530.131;   -7.043; 8223.349
842.770; 4321.097;   -8.163; 8622.107
843.334; 4462.955;  -12.503; 8410.386
843.898; 4629.982;  -11.693; 8337.465
844.463; 4227.921;  -10.203; 8506.283
845.027; 3922.758;   -9.533; 8280.962
845.591; 3945.716;  -13.443; 8231.141
846.156; 4003.691;  -13.143; 7969.179
846.720; 3850.291;   -9.433; 7768.278
847.284; 3767.485;  -11.033; 7630.957
847.848; 3762.284;  -10.403; 7472.395
848.412; 3599.545;  -11.553; 7437.394
848.976; 3501.312;   -8.393; 7674.592
849.540; 3458.260;   -8.713; 7836.011
850.104; 3430.852;  -12.463; 7913.669
850.668; 3498.448;  -12.973; 7694.508
851.232; 3477.033;  -10.793; 7756.887
851.796; 3501.222;  -10.662; 7926.545
852.359; 3599.685;  -13.082; 7827.844
852.923; 3584.561;  -12.192; 7641.163
853.487; 3593.939;  -11.912; 7342.501
854.050; 3442.537;  -10.892; 7042.820
854.614; 3496.626;  -13.992; 7151.338
855.177; 3578.589;  -11.732; 7105.077
855.741; 3454.202;   -8.962; 6989.675
856.304; 3313.966;   -9.442; 6596.634
856.868; 3187.546;  -14.192; 6356.272
857.431; 3133.283;  -12.702; 6468.571
857.995; 3143.908;   -9.942; 6373.210
858.558; 3249.953;   -9.112; 6324.448
859.121; 3152.950;  -12.932; 6408.327
859.684; 3006.232;  -13.442; 6347.886
860.247; 2959.941;  -10.632; 6321.264
860.810; 2922.880;  -11.272; 6301.903
861.374; 2859.603;   -9.832; 6607.881
861.937; 2791.624;  -11.762; 6408.200
862.500; 2794.704;   -9.722; 6572.639
863.062; 2777.347;  -10.512; 6387.297
863.625; 2770.947;  -11.232; 6190.836
864.188; 2805.414;  -14.112; 5807.254
864.751; 2824.001;  -11.302; 5682.413
865.314; 2712.087;  -10.112; 5547.492
865.876; 2542.978;  -12.182; 5500.150
866.439; 2395.791;  -10.722; 5415.909
867.002; 2299.508;   -9.252; 5501.567
867.564; 2359.662;   -9.572; 5413.946
868.127; 2405.941;  -13.142; 5160.325
868.689; 2487.730;  -12.902; 5133.183
869.252; 2609.278;   -9.732; 5252.382
869.814; 2547.576;   -9.432; 5297.141
870.377; 2441.959;  -11.552; 5390.919
870.939; 2423.453;   -9.052; 5599.898
871.501; 2367.875;  -10.982; 5248.336
872.063; 2255.480;  -12.292; 4854.235
872.626; 2196.977;  -14.912; 4817.074
873.188; 2111.993;  -13.112; 4987.732
873.750; 2087.740;  -13.442; 4868.651
874.312; 2049.339;   -9.402; 4779.330
874.874; 2003.870;  -11.062; 4866.348
875.436; 1892.730;  -13.931; 4718.887
875.998; 1768.896;   -9.561; 4660.005
876.560; 1751.549;  -11.321; 4462.964
877.122; 1815.051;  -12.221; 4145.042
877.683; 1940.395;  -12.191; 4056.481
878.245; 1986.004;  -12.101; 3950.740
878.807; 2009.320;   -8.971; 4058.958
879.369; 1945.573;  -12.071; 3954.677
879.930; 1801.593;  -14.621; 3941.495
880.492; 1710.001;  -10.311; 4067.014
881.053; 1713.836;  -10.901; 3859.633
881.615; 1707.396;  -14.411; 3776.071
882.176; 1633.311;  -13.761; 3734.750
882.738; 1550.391;   -9.181; 3678.489
883.299; 1532.866;  -11.791; 3405.407
883.860; 1547.192;  -13.121; 3351.106
884.422; 1490.592;  -11.211; 3394.044
884.983; 1399.204;  -10.091; 3166.443
885.544; 1351.714;   -8.461; 3189.802
886.105; 1286.510;  -12.361; 3160.360
886.666; 1217.795;  -14.141; 3093.059
887.227; 1184.406;  -11.361; 2941.957
887.788; 1127.231;  -11.401; 2974.836
888.349; 1029.455;  -13.791; 2721.214
888.910;  983.333;  -13.191; 2696.493
889.471;  947.051;   -9.881; 2560.172
890.032;  952.450;   -9.881; 2558.190
890.593;  944.494;  -10.371; 2567.669
891.153;  852.086;  -13.301; 2460.307
891.714;  735.277;  -11.431; 2372.046
892.275;  685.713;  -11.291; 2309.505
892.835;  696.105;  -11.471; 2382.543
893.396;  687.524;  -11.541; 2295.502
893.956;  658.378;  -11.181; 2162.420
894.517;  616.909;  -11.741; 2125.439
895.077;  563.006;  -11.671; 2086.978
895.638;  519.856;  -11.311; 2126.316
896.198;  506.623;   -9.831; 1838.275
896.758;  491.855;   -8.421; 1892.813
897.319;  468.615;  -12.351; 1792.232
897.879;  447.189;  -13.511; 1762.751
898.439;  412.953;  -12.001; 1661.149
898.999;  391.429;  -10.180; 1781.468
899.559;  385.294;  -12.030; 1703.347
900.119;  377.075;  -15.710; 1537.525
900.679;  362.071;   -8.900; 1638.384
901.239;  341.228;   -8.340; 1527.902
901.799;  313.123;  -13.910; 1456.441
902.359;  289.327;  -13.460; 1357.140
902.919;  281.049;  -11.490; 1331.118
903.479;  280.259;  -12.110; 1317.257
904.038;  274.788;  -11.720; 1262.595
904.598;  265.984;  -13.610; 1152.034
905.158;  254.828;  -11.040; 1240.893
905.717;  239.122;  -10.900; 1233.691
906.277;  228.357;  -15.080; 1217.330
906.836;  225.320;  -13.380; 1222.408
907.396;  223.364;  -10.780; 1193.047
907.955;  215.663;   -8.500; 1182.526
908.515;  210.489;  -12.760; 1099.364
909.074;  210.192;  -11.900; 1092.863
909.633;  208.181;   -8.950; 1069.121
910.192;  207.062;   -8.770; 1196.460
910.752;  195.230;  -12.390; 1029.960
911.311;  184.200;  -13.680; 1009.780
911.870;  175.261;  -12.370;  971.460
912.429;  169.358;  -10.900; 1094.080
912.988;  166.752;  -11.690; 1081.060
913.547;  164.168;  -13.240;  940.380
914.106;  162.850;  -11.990;  999.420
914.665;  160.850;   -9.990;  984.020
915.224;  158.611;  -12.880; 1035.760
915.782;  156.198;  -12.350;  922.560
916.341;  155.804;   -9.110; 1049.840
916.900;  153.121;   -9.270;  925.260
917.458;  150.751;  -13.240;  884.220
918.017;  149.768;  -13.550;  942.600
918.576;  148.379;  -12.320;  904.440
919.134;  145.984;  -11.490;  837.980
919.693;  143.612;  -13.670;  893.060
920.251;  142.394;  -15.470;  876.500
920.809;  142.805;  -11.290;  839.580
921.368;  142.910;  -10.210;  885.360
921.926;  139.446;  -12.140;  842.940
922.484;  136.927;  -13.080;  903.360
923.042;  136.854;  -11.720;  880.340
923.601;  137.100;   -7.480;  998.680
924.159;  134.446;  -11.570;  935.560
924.717;  132.681;  -13.840;  841.080
925.275;  132.705;  -10.640;  903.240
925.833;  131.218;  -11.540;  779.320
926.391;  132.703;  -12.960;  938.380
926.949;  133.273;  -14.130;  857.680
927.506;  132.848;  -11.750;  903.500
928.064;  132.759;  -10.250;  877.580
928.622;  132.861;  -13.030;  880.100
929.180;  135.265;  -13.400;  814.180
929.737;  137.836;  -10.700;  808.540
930.295;  140.411;  -10.070;  928.480
930.853;  140.063;  -11.960;  849.100
931.410;  140.912;  -13.120;  821.120
931.968;  142.791;  -10.770;  940.660
932.525;  143.482;  -10.680;  909.380
933.082;  142.226;  -13.130;  811.440
933.640;  143.541;  -13.210;  925.900
934.197;  142.573;  -11.060;  886.360
934.754;  143.553;   -9.580;  897.780
935.312;  144.277;  -14.000;  863.340
935.869;  146.791;  -10.710; 1012.980
936.426;  145.338;   -9.860;  872.800
936.983;  145.160;   -9.710;  889.020
937.540;  145.934;  -13.990;  838.280
938.097;  150.073;  -14.040;  940.120
938.654;  154.383;  -10.310;  898.860
939.211;  155.119;  -10.560;  952.480
939.768;  155.415;  -13.900;  915.420
940.324;  158.239;  -14.760;  904.200
940.881;  161.159;  -10.370;  878.500
941.438;  164.682;   -8.260; 1021.200
941.995;  164.138;  -12.540;  992.560
942.551;  163.875;  -14.670;  875.620
943.108;  165.163;  -10.450;  937.920
943.664;  165.943;  -10.750;  869.340
944.221;  171.257;  -11.550; 1088.140
944.777;  170.034;  -14.770;  869.680
945.334;  168.507;  -12.820;  884.840
945.890;  163.693;  -10.130;  946.480
946.446;  159.278;  -13.470;  947.020
947.003;  162.172;  -12.120;  964.940
947.559;  163.151;   -9.980; 1063.040
948.115;  158.105;   -9.080; 1026.540
948.671;  155.574;  -10.830;  967.300
949.227;  155.238;  -12.440;  859.560
949.783;  156.080;  -12.910;  858.900
950.339;  160.130;  -10.270;  991.000
950.895;  160.552;  -13.630; 1023.840
951.451;  160.942;  -15.100;  925.280
952.007;  159.287;  -11.330;  998.540
952.563;  155.555;  -10.580;  937.780
953.118;  151.553;  -13.440;  904.940
953.674;  151.336;  -12.710;  935.780
954.230;  153.314;  -10.350;  949.640
954.785;  157.657;   -9.190;  936.640
955.341;  158.860;  -11.200;  998.160
955.897;  154.028;  -16.560;  834.660
956.452;  153.459;  -12.570;  953.840
957.008;  150.326;   -7.970; 1083.640
957.563;  145.183;  -11.940; 1009.540
958.118;  140.659;  -13.450;  877.700
958.674;  139.941;  -12.030;  946.780
959.229;  141.240;   -9.410; 1013.980
959.784;  140.669;  -12.000;  832.400
960.339;  142.578;  -14.780; 1001.280
960.894;  140.291;   -9.860;  963.760
961.449;  136.900;   -9.970;  859.960
962.004;  137.940;  -10.900; 1212.840
962.559;  136.561;  -13.150;  860.140
963.114;  137.857;  -13.740;  742.480
963.669;  137.003;   -9.820;  915.500
964.224;  134.156;  -13.890;  874.340
964.779;  132.540;  -12.600;  828.420
965.334;  128.064;  -10.950; 1017.860
965.888;  117.600;  -11.170;  875.360
966.443;  108.124;  -12.540;  972.380
966.998;   98.197;  -15.780;  819.460
967.552;   95.453;   -9.760;  908.380
968.107;   92.201;   -9.060;  868.300
968.661;   94.531;  -11.950;  922.440
969.216;   96.485;  -12.800;  856.280
969.770;   99.254;  -11.210;  917.200
970.324;  101.769;  -11.610;  923.140
970.879;  102.844;  -11.370;  947.180
971.433;  105.664;  -12.540;  952.720
971.987;  105.101;  -11.320;  895.340
972.541;  104.230;  -10.720;  917.100
973.095;  104.390;   -9.680; 1009.460
973.649;  101.898;  -11.440;  809.480
974.203;  101.119;  -11.210;  829.040
974.757;  101.217;  -10.240;  855.220
975.311;  100.820;  -13.720;  872.600
975.865;  101.184;  -13.770;  881.820
976.419;   98.326;  -11.690;  857.400
976.973;   96.260;   -9.510;  849.620
977.526;   96.064;  -12.620;  949.920
978.080;   93.607;  -12.010;  796.780
978.634;   94.433;  -10.170;  921.320
979.187;   93.824;   -9.020;  905.400
979.741;   95.056;   -9.820; 1018.380
980.294;   92.470;  -14.870;  789.160
980.848;   92.411;  -12.380;  717.220
981.401;   93.605;  -10.350;  816.540
981.955;   91.140;  -13.720;  844.300
982.508;   87.213;  -11.490;  746.340
983.061;   88.836;  -10.000;  915.260
983.615;   86.013;  -11.480;  798.800
984.168;   83.851;  -13.220;  770.080
984.721;   83.111;  -13.960;  880.760
985.274;   82.189;  -10.870;  867.500
985.827;   80.086;   -9.790;  834.220
986.380;   78.548;  -13.120;  721.340
986.933;   77.994;  -12.450;  864.800
987.486;   77.413;  -10.210;  861.920
988.039;   78.056;   -8.430;  863.100
988.591;   76.250;  -10.520;  893.260
989.144;   74.075;  -14.860;  737.260
989.697;   73.363;  -13.080;  758.740
990.250;   73.074;  -10.150;  858.100
990.802;   70.036;  -13.430;  755.860
991.355;   69.889;  -12.750;  974.880
991.907;   68.169;  -12.040;  864.320
992.460;   66.448;  -11.330;  753.760
993.012;   65.858;  -13.610;  749.540
993.565;   63.436;  -13.460;  711.360
994.117;   65.137;   -9.360;  950.780
994.669;   62.101;  -11.300;  701.320
995.221;   60.766;  -13.540;  791.920
995.774;   59.958;  -13.430;  787.580
996.326;   58.529;  -12.520;  740.220
996.878;   58.564;  -10.950;  838.420
997.430;   55.133;  -14.300;  699.860
997.982;   54.744;  -13.760;  750.140
998.534;   54.292;  -11.530;  739.060
999.086;   53.296;  -10.310;  738.220
999.638;   52.042;  -12.530;  661.380
1000.190;   51.155;  -11.840;  699.320
1000.741;   50.513;  -10.260;  742.700
1001.293;   50.787;   -8.860;  686.020
1001.845;   50.260;  -13.700;  676.640
1002.396;   49.599;  -12.100;  743.400
1002.948;   48.970;  -12.760;  737.400
1003.500;   47.457;  -10.380;  723.780
1004.051;   48.085;  -11.900;  907.580
1004.603;   46.187;  -12.250;  791.820
1005.154;   43.832;  -13.210;  608.980
1005.705;   41.379;  -10.950;  723.960
1006.257;   41.286;  -13.880;  707.220
1006.808;   39.876;  -12.840;  685.460
1007.359;   40.777;  -10.570;  763.240
1007.910;   39.920;   -9.620;  646.640
1008.461;   38.331;  -13.630;  732.940
1009.013;   38.053;  -17.200;  588.340
1009.564;   39.202;  -10.200;  793.520
1010.115;   36.822;  -12.570;  597.040
1010.665;   36.797;  -15.150;  602.160
1011.216;   36.072;  -14.480;  667.920
1011.767;   36.387;  -11.340;  697.920
1012.318;   36.806;   -9.780;  736.980
1012.869;   35.504;  -12.380;  679.000
1013.419;   35.176;  -15.560;  603.120
1013.970;   35.362;  -11.010;  666.640
1014.521;   34.907;  -11.610;  620.620
1015.071;   35.076;  -13.450;  670.380
1015.622;   34.546;  -13.870;  635.460
1016.172;   33.525;  -11.610;  596.820
1016.723;   34.212;  -12.120;  614.380
1017.273;   33.222;  -13.620;  604.160
1017.823;   32.769;  -14.140;  650.340
1018.374;   32.566;  -12.800;  611.760
1018.924;   31.887;  -12.340;  716.880
1019.474;   32.971;  -11.410;  718.880
1020.024;   31.245;  -14.770;  657.580
1020.574;   32.906;   -9.780;  726.160
1021.124;   32.745;   -8.560;  673.580
1021.674;   31.435;  -15.190;  559.120
1022.224;   32.238;  -13.530;  708.940
1022.774;   32.369;  -13.280;  668.820
1023.324;   32.513;  -10.690;  753.520
1023.874;   32.698;  -10.240;  875.760
1024.423;   30.506;  -12.540;  613.700
1024.973;   30.551;  -10.010;  610.760
1025.523;   30.288;  -10.550;  620.960
1026.072;   29.279;  -13.560;  606.420
1026.622;   29.440;  -15.120;  675.740
1027.172;   30.367;  -11.260;  715.660
1027.721;   29.515;  -11.410;  601.220
1028.270;   29.283;  -13.530;  663.400
1028.820;   28.783;  -13.680;  638.080
1029.369;   28.609;  -13.520;  612.700
1029.918;   28.925;  -10.980;  649.840
1030.468;   28.163;  -13.530;  564.780
1031.017;   28.310;  -13.170;  634.800
1031.566;   27.697;  -12.200;  608.900
1032.115;   28.518;   -9.960;  694.500
1032.664;   26.904;  -13.210;  596.480
1033.213;   28.067;  -12.500;  735.420
1033.762;   27.209;  -11.910;  635.620
1034.311;   27.113;   -9.640;  677.220
1034.860;   27.359;  -13.310;  691.000
1035.408;   26.449;  -11.830;  722.720
1035.957;   27.409;  -12.000;  719.540
1036.506;   25.266;  -11.690;  530.800
1037.055;   27.111;  -10.990;  844.320
1037.603;   25.701;  -15.120;  664.000
1038.152;   24.364;  -12.450;  534.760
1038.700;   25.514;  -10.560;  585.740
1039.249;   24.834;  -11.080;  681.220
1039.797;   25.011;  -12.540;  633.360
1040.345;   25.042;  -11.920;  705.420
1040.894;   24.971;  -11.410;  625.300
1041.442;   24.141;  -14.320;  632.200
1041.990;   23.799;  -16.240;  559.160
1042.538;   23.251;  -11.680;  536.180
1043.087;   23.780;  -10.760;  570.860
1043.635;   24.485;  -11.850;  670.500
1044.183;   23.222;  -15.480;  586.400
1044.731;   22.913;  -11.770;  576.000
1045.279;   22.779;  -13.090;  674.920
1045.827;   24.972;  -12.440;  892.400
1046.374;   22.072;  -13.840;  515.420
1046.922;   21.983;  -13.220;  590.580
1047.470;   23.953;  -10.230;  691.300
1048.018;   22.807;  -14.590;  647.960
1048.565;   23.006;  -12.050;  708.600
1049.113;   22.021;  -11.650;  557.000
1049.660;   21.143;  -10.510;  629.660
1050.208;   22.169;  -13.310;  675.640
1050.755;   21.098;  -15.900;  606.580
1051.303;   21.998;  -11.430;  686.820
1051.850;   21.304;   -8.480;  635.120
1052.397;   19.175;  -15.010;  473.960
1052.945;   19.756;  -13.960;  617.760
1053.492;   22.547;  -13.150;  741.840
1054.039;   21.776;   -9.630;  720.180
1054.586;   20.251;  -13.680;  557.240
1055.133;   20.980;  -14.570;  693.140
1055.680;   20.873;  -13.820;  646.620
1056.227;   20.052;  -11.730;  542.780
1056.774;   21.606;  -12.480;  794.980
1057.321;   18.953;  -13.930;  523.260
1057.868;   19.571;  -11.690;  651.320
1058.415;   19.614;   -9.520;  651.980
1058.961;   19.065;  -13.160;  678.940
1059.508;   19.312;  -12.920;  643.820
1060.055;   18.912;  -11.920;  581.780
1060.601;   18.990;  -11.500;  624.300
1061.148;   18.641;  -14.330;  616.820
1061.694;   17.833;  -16.870;  592.580
1062.241;   18.242;  -10.330;  596.320
1062.787;   19.166;  -10.620;  663.140
1063.334;   19.272;  -10.110;  808.560
1063.880;   18.202;  -13.400;  668.360
1064.426;   18.514;  -10.680;  706.820
1064.972;   17.999;   -9.920;  601.340
1065.518;   16.328;  -10.980;  566.640
1066.065;   17.166;  -14.890;  624.460
1066.611;   17.090;  -12.870;  598.800
1067.157;   17.934;  -12.950;  641.860
1067.703;   16.844;  -13.540;  668.480
1068.249;   16.436;  -13.540;  605.220
1068.794;   16.893;  -12.600;  626.880
1069.340;   16.297;  -10.620;  578.960
1069.886;   16.834;  -12.830;  590.700
1070.432;   15.605;  -14.870;  541.720
1070.977;   15.997;  -11.980;  601.080
1071.523;   16.124;   -8.200;  573.060
1072.068;   15.801;  -12.330;  582.000
1072.614;   15.376;  -16.370;  527.760
1073.160;   16.632;  -11.100;  687.040
1073.705;   15.384;  -10.480;  572.520
1074.250;   14.161;  -14.520;  559.900
1074.796;   15.840;  -11.460;  655.160
1075.341;   16.098;  -11.950;  664.100
1075.886;   14.779;  -11.460;  594.240
1076.431;   14.291;  -13.770;  649.880
1076.976;   14.330;  -12.680;  639.220
1077.521;   14.883;  -13.170;  583.080
1078.067;   13.891;  -10.860;  579.400
1078.612;   14.282;  -13.920;  661.620
1079.156;   13.693;  -13.880;  601.540
1079.701;   15.009;  -13.120;  693.260
1080.246;   14.689;   -9.940;  696.300
1080.791;   14.008;  -14.740;  625.020
1081.336;   13.538;  -13.750;  659.320
1081.880;   14.295;  -13.400;  649.680
1082.425;   13.311;  -12.220;  573.480
1082.970;   13.891;  -11.610;  717.040
1083.514;   13.087;  -13.580;  597.000
1084.059;   12.433;  -12.810;  586.720
1084.603;   12.964;  -12.320;  565.840
1085.147;   13.063;  -13.190;  645.220
1085.692;   13.044;  -12.480;  716.800
1086.236;   12.344;  -13.020;  503.140
1086.780;   14.549;   -9.190;  751.440
1087.325;   12.757;  -12.480;  654.620
1087.869;   12.231;  -12.450;  610.700
1088.413;   13.540;  -12.240;  705.040
1088.957;   11.285;   -9.020;  543.400
1089.501;   13.193;  -10.320;  766.640
1090.045;   11.429;  -12.720;  726.480
1090.589;   10.355;  -13.690;  569.920
1091.133;   11.941;  -10.020;  673.340
1091.676;   11.547;  -12.330;  591.940
1092.220;   10.756;  -14.970;  600.920
1092.764;   11.432;  -12.430;  706.960
1093.307;   12.120;   -9.800;  673.780
1093.851;   10.279;  -14.970;  556.540
1094.395;   11.556;  -15.310;  683.140
1094.938;   10.344;  -10.370;  632.520
1095.482;   10.995;  -11.050;  559.800
1096.025;   10.459;  -11.840;  710.880
1096.568;   11.388;  -12.840;  779.280
1097.112;    9.803;  -14.700;  508.180
1097.655;   11.482;   -8.720;  603.000
1098.198;    9.237;  -13.610;  600.180
1098.741;    9.341;  -13.350;  612.860
1099.285;   10.946;  -11.230;  657.300
1099.828;    8.408;  -11.840;  439.400
1100.371;    9.448;  -10.840;  608.160
1100.914;    9.755;  -14.190;  682.660
1101.457;    9.617;  -11.240;  679.900
1101.999;    8.848;  -11.270;  584.680
1102.542;    9.363;  -11.480;  641.440
1103.085;    8.403;  -11.750;  658.500
1103.628;   10.013;  -11.400;  762.060
1104.170;    9.116;  -10.490;  588.280
1104.713;    8.826;  -10.600;  646.700
1105.256;    7.704;  -14.360;  557.440
1105.798;    8.292;  -13.210;  499.980
1106.341;    9.653;  -10.270;  728.900
1106.883;    7.921;  -12.200;  521.340
1107.425;    8.951;  -13.110;  668.180
1107.968;    8.486;  -12.840;  612.380
1108.510;    9.181;   -6.480;  684.960
1109.052;    7.055;  -13.940;  612.620
1109.594;    7.170;  -13.690;  554.440
1110.136;    8.578;  -11.880;  643.220
1110.679;    8.007;   -9.500;  633.080
1111.221;    7.995;  -14.160;  604.460
1111.763;    6.916;  -13.980;  559.220
1112.304;    7.302;  -13.880;  547.140
1112.846;    7.840;  -12.210;  666.240
1113.388;   10.110;  -11.390;  942.180
1113.930;    6.315;  -14.540;  694.200
1114.472;    7.125;  -12.640;  606.540
1115.013;    5.153;  -11.620;  551.280
1115.555;    5.370;  -13.640;  587.100
1116.097;    5.244;  -15.380;  579.480
1116.638;    7.012;  -12.640;  684.600
1117.180;    7.458;   -9.850;  667.740
1117.721;    5.955;  -13.690;  568.580
1118.262;    6.738;  -12.680;  677.960
1118.804;    6.568;  -12.530;  637.340
1119.345;    5.778;  -11.690;  578.400
1119.886;    5.952;  -13.380;  704.040
1120.427;    5.385;  -14.070;  589.020
1120.969;    5.059;  -13.500;  597.920
1121.510;    5.357;  -11.480;  563.060
1122.051;    5.486;  -12.830;  723.580
1122.592;    4.535;  -14.290;  655.420
1123.133;    4.806;  -12.400;  547.940
1123.673;    6.345;  -10.130;  706.480
1124.214;    5.192;  -12.930;  612.460
1124.755;    5.182;  -14.380;  639.460
1125.296;    4.585;  -14.000;  627.320
1125.836;    5.794;  -10.070;  691.500
1126.377;    4.570;  -12.640;  599.660
1126.918;    4.994;  -12.960;  614.980
1127.458;    4.646;  -13.350;  622.220
1127.999;    5.446;  -10.750;  656.980
1128.539;    4.714;  -12.350;  694.240
1129.079;    3.587;  -14.860;  632.720
1129.620;    3.954;  -13.840;  558.100
1130.160;    3.445;  -12.330;  539.480
1130.700;    3.773;  -14.530;  640.840
1131.240;    4.224;  -12.530;  643.700
1131.781;    3.649;  -14.450;  619.680
1132.321;    3.620;   -9.790;  599.120
1132.861;    2.794;  -14.860;  564.200
1133.401;    2.728;  -14.290;  593.940
1133.941;    3.444;  -11.750;  626.280
1134.481;    3.487;   -9.920;  597.580
1135.020;    2.590;  -12.290;  609.160
1135.560;    2.612;  -11.650;  674.940
1136.100;    2.978;  -16.270;  501.160
1136.640;    2.909;  -10.890;  510.480
1137.179;    1.933;  -14.180;  537.960
1137.719;    2.805;  -16.250;  605.400
1138.258;    2.351;  -14.230;  587.360
1138.798;    3.504;   -9.090;  663.780
1139.337;    1.363;  -15.130;  482.840
1139.877;    2.233;  -13.680;  642.360
1140.416;    4.333;  -11.320;  878.060
1140.955;    1.950;  -10.860;  535.380
1141.494;    1.911;  -12.920;  669.280
1142.034;    1.780;  -13.930;  583.520
1142.573;    2.083;  -11.440;  646.280
1143.112;    1.659;  -12.000;  553.480
1143.651;    2.075;  -13.670;  536.480
1144.190;    1.896;  -12.730;  691.640
1144.729;    1.955;  -14.560;  607.420
1145.267;    1.458;  -11.830;  584.900
1145.806;    2.217;  -12.230;  637.040
1146.345;    1.152;  -14.130;  635.020
1146.884;    1.593;  -11.590;  622.500
1147.422;    1.067;  -12.550;  533.060
1147.961;    1.930;  -11.180;  708.460
1148.500;    2.002;  -11.510;  669.720
1149.038;    2.078;  -11.640;  632.500
1149.577;    2.080;  -10.130;  698.640
1150.115;    0.131;  -13.970;  452.280
1150.653;    0.346;  -14.520;  607.340
1151.192;    0.819;  -12.810;  552.920
1151.730;    1.121;   -9.100;  652.560
1152.268;    0.406;  -12.220;  589.520
1152.806;   -0.008;  -14.140;  571.180
1153.344;   -0.353;  -12.350;  577.640
1153.882;    1.326;   -8.980;  600.060
1154.421;   -0.754;  -15.190;  470.620
1154.958;   -0.187;  -15.210;  595.240
1155.496;    1.680;  -12.850;  645.280
1156.034;    0.548;   -9.940;  721.880
1156.572;    1.557;  -13.570;  667.060
1157.110;   -0.898;  -14.590;  473.940
1157.647;    0.324;  -13.030;  676.960
1158.185;   -0.480;  -12.140;  564.320
1158.723;   -1.302;  -14.390;  509.200
1159.260;    0.385;  -14.090;  701.700
1159.798;    0.249;  -11.920;  658.160
1160.335;   -0.262;  -11.110;  631.820

