
Integration time [ms]:   3.882
Averaging Nr. [scans]: 1000
Smoothing Nr. [pixels]: 0
Data measured with spectrometer [name]: 7414430SP
Wave   ;Sample   ;Dark     ;Reference
[nm]   ;[counts] ;[counts] ;[counts] 

288.544;  125.636;   10.292;  793.890
289.143;  129.472;    4.564;  681.602
289.742;  130.644;    6.144;  828.814
290.341;  117.384;    4.396;  789.841
290.940;  108.807;    0.938;  730.702
291.538;  109.594;   -0.684;  881.108
292.137;  109.061;   -2.845;  792.581
292.736;  113.696;   -0.144;  975.101
293.335;  108.350;   -6.352;  735.086
293.934;  110.338;   -7.642;  781.677
294.532;  110.774;   -4.992; 1031.958
295.131;   96.433;   -5.478;  834.394
295.730;   95.857;   -6.549;  809.588
296.328;   93.747;   -9.558;  783.442
296.927;   95.124;   -8.118;  779.652
297.525;   96.649;   -6.908;  781.236
298.124;   85.941;   -9.195;  654.009
298.722;   91.370;   -8.198;  761.933
299.321;   89.397;   -8.817;  708.597
299.919;   86.076;   -7.716;  751.918
300.518;   82.844;  -10.745;  689.338
301.116;   85.247;   -9.647;  691.381
301.715;   84.817;  -10.828;  730.222
302.313;   83.927;   -6.087;  704.943
302.911;   79.814;   -6.824;  733.830
303.509;   85.240;   -8.807;  925.627
304.108;   83.004;   -8.198;  760.383
304.706;   81.747;   -6.218;  801.664
305.304;   76.656;   -7.185;  796.707
305.902;   82.925;   -8.568;  784.484
306.500;   78.678;   -7.737;  728.200
307.098;   76.631;   -6.026;  746.560
307.696;   75.077;   -7.176;  780.432
308.294;   76.216;   -8.656;  731.359
308.892;   77.953;   -6.838;  759.769
309.490;   73.321;   -2.596;  712.161
310.088;   71.397;   -4.485;  788.444
310.686;   76.689;   -3.907;  821.749
311.284;   72.724;   -2.806;  766.040
311.882;   69.387;   -2.845;  731.225
312.480;   67.217;   -3.274;  697.167
313.078;   69.103;   -3.645;  808.331
313.675;   69.989;   -4.997;  691.600
314.273;   65.040;   -0.894;  797.837
314.871;   63.569;   -2.854;  589.829
315.468;   62.653;   -3.644;  652.090
316.066;   65.961;   -3.947;  694.427
316.664;   58.060;   -1.824;  656.351
317.261;   63.612;    1.565;  910.128
317.859;   60.402;   -3.955;  768.735
318.456;   60.405;   -2.886;  830.096
319.054;   55.194;   -0.995;  787.828
319.651;   55.026;   -1.765;  759.928
320.249;   54.527;   -3.685;  810.188
320.846;   53.235;   -3.736;  714.286
321.443;   50.297;   -2.065;  832.135
322.041;   46.925;   -5.635;  812.315
322.638;   46.291;   -5.985;  701.456
323.235;   48.150;   -6.677;  665.683
323.833;   45.913;   -3.497;  740.354
324.430;   40.908;   -6.756;  615.900
325.027;   42.939;   -7.647;  876.855
325.624;   43.411;   -7.598;  644.532
326.221;   40.293;   -5.848;  689.717
326.818;   39.669;   -5.777;  818.332
327.415;   42.742;   -8.769;  748.828
328.012;   42.184;   -6.299;  690.585
328.609;   40.092;   -6.639;  731.389
329.206;   38.555;   -6.358;  778.621
329.803;   37.464;   -8.698;  737.841
330.400;   39.249;   -8.379;  704.260
330.997;   39.549;   -6.178;  817.147
331.594;   37.265;   -5.646;  788.185
332.191;   43.442;   -6.928;  728.722
332.787;   44.905;   -6.057;  844.463
333.384;   42.448;   -6.445;  763.093
333.981;   38.772;   -8.002;  815.687
334.578;   41.951;   -8.443;  708.378
335.174;   44.317;   -6.053;  731.469
335.771;   44.095;   -5.791;  836.456
336.367;   40.262;   -6.570;  710.631
336.964;   43.427;   -6.741;  793.266
337.561;   44.773;   -5.710;  731.112
338.157;   39.139;   -3.928;  911.916
338.754;   34.792;   -5.577;  796.589
339.350;   35.809;   -9.667;  722.493
339.946;   39.204;   -5.269;  773.135
340.543;   29.874;   -4.485;  846.136
341.139;   25.607;   -7.584;  720.836
341.735;   23.192;   -8.553;  772.593
342.332;   23.056;   -4.984;  691.472
342.928;   23.331;   -3.475;  795.394
343.524;   17.504;   -6.653;  761.684
344.120;   13.730;   -7.173;  738.562
344.716;   18.548;   -4.385;  723.717
345.313;   15.229;   -3.565;  795.342
345.909;   10.911;   -7.495;  627.336
346.505;   12.985;   -8.276;  740.247
347.101;   14.773;   -5.697;  827.864
347.697;   14.730;   -4.767;  785.398
348.293;    9.659;   -7.226;  627.244
348.889;   10.520;   -7.547;  745.914
349.485;    9.721;   -9.147;  688.205
350.081;   11.278;   -6.568;  772.592
350.676;    6.015;   -6.516;  691.606
351.272;   10.913;   -7.378;  809.530
351.868;   10.654;   -6.759;  780.497
352.464;    7.767;   -4.798;  723.932
353.059;    3.861;   -7.977;  646.017
353.655;    8.373;   -8.769;  777.063
354.251;    9.121;   -5.920;  759.845
354.846;    2.960;   -7.647;  740.646
355.442;    0.948;   -6.956;  753.071
356.038;    3.549;   -9.928;  751.708
356.633;    2.872;   -7.698;  728.594
357.229;    1.203;   -6.307;  724.757
357.824;   -0.309;   -7.647;  703.600
358.420;   -0.602;  -10.047;  679.726
359.015;    0.311;   -7.458;  695.357
359.610;    0.676;   -5.748;  763.920
360.206;   -5.869;   -9.346;  603.240
360.801;   -2.202;  -11.268;  646.503
361.396;   -0.183;   -8.789;  725.975
361.992;   -4.240;   -6.347;  668.220
362.587;   -7.978;   -6.476;  670.160
363.182;   -4.765;   -9.457;  689.631
363.777;   -3.387;   -7.147;  738.242
364.372;   -4.125;   -5.507;  737.314
364.967;   -8.185;   -6.386;  680.744
365.563;   -3.191;   -7.858;  815.567
366.158;   -6.104;   -8.517;  685.161
366.753;   -6.396;   -8.728;  649.263
367.348;   -7.043;   -7.677;  746.056
367.942;   -7.246;  -10.387;  697.298
368.537;   -7.925;   -7.187;  754.245
369.132;   -8.119;   -8.587;  703.428
369.727;  -12.036;   -8.606;  638.079
370.322;  -10.380;  -10.426;  580.186
370.917;  -10.169;   -5.776;  710.646
371.511;   -7.496;   -6.007;  861.834
372.106;  -11.433;   -6.686;  776.964
372.701;  -14.224;   -9.335;  585.988
373.296;   -8.113;   -6.777;  863.135
373.890;  -14.398;   -7.546;  647.840
374.485;  -15.725;   -8.755;  691.199
375.079;  -10.411;   -9.797;  738.685
375.674;   -9.594;   -6.327;  812.970
376.268;  -14.740;   -9.046;  691.759
376.863;  -20.736;   -7.993;  580.327
377.457;  -13.044;   -9.206;  662.490
378.052;  -15.137;   -5.345;  764.884
378.646;  -16.834;   -5.605;  741.167
379.240;  -16.870;   -6.825;  721.176
379.835;  -15.489;  -10.476;  636.978
380.429;  -17.721;   -8.676;  562.557
381.023;  -17.095;   -4.945;  779.205
381.617;  -19.438;   -8.094;  680.106
382.212;  -16.083;  -10.646;  685.303
382.806;  -15.006;   -8.136;  760.690
383.400;  -19.093;   -7.855;  672.281
383.994;  -20.233;   -8.125;  664.870
384.588;  -15.879;   -7.637;  697.701
385.182;  -14.298;   -7.458;  726.624
385.776;  -16.324;   -6.277;  706.875
386.370;  -19.975;   -7.485;  681.968
386.964;  -18.090;   -9.416;  684.155
387.558;  -16.540;   -8.518;  598.360
388.152;  -20.104;   -7.096;  681.959
388.745;  -18.617;   -7.656;  814.707
389.339;  -15.278;   -8.927;  747.642
389.933;  -14.539;   -9.538;  695.370
390.527;  -16.714;   -5.857;  859.029
391.120;  -22.201;   -9.455;  595.318
391.714;  -18.685;   -9.746;  711.633
392.308;  -16.184;   -7.857;  780.253
392.901;  -19.709;   -9.106;  642.460
393.495;  -21.410;  -10.365;  595.414
394.089;  -18.982;   -9.696;  760.452
394.682;  -19.332;   -7.016;  697.188
395.275;  -21.195;   -8.466;  719.927
395.869;  -21.768;   -8.985;  667.314
396.462;  -19.235;  -11.496;  616.609
397.056;  -15.729;   -7.838;  776.621
397.649;  -20.821;   -6.895;  731.575
398.242;  -17.764;   -5.017;  712.645
398.836;  -15.894;   -8.787;  766.408
399.429;  -17.482;   -8.967;  631.041
400.022;  -21.595;   -8.815;  665.902
400.615;  -18.598;   -6.276;  805.609
401.208;  -16.607;   -8.407;  691.451
401.802;  -19.048;   -7.296;  699.329
402.395;  -21.050;   -7.585;  683.502
402.988;  -21.129;   -8.015;  696.627
403.581;  -17.785;   -9.577;  646.878
404.174;  -15.052;   -7.588;  686.568
404.767;  -18.553;   -7.906;  638.583
405.360;  -20.884;   -7.875;  621.445
405.953;  -15.108;   -8.127;  759.034
406.545;  -14.151;   -7.198;  725.342
407.138;  -19.077;   -8.916;  618.350
407.731;  -17.401;   -9.767;  613.303
408.324;  -13.395;  -10.659;  660.554
408.917;  -13.285;   -8.068;  681.864
409.509;  -17.258;   -9.837;  740.396
410.102;  -18.760;   -8.146;  643.948
410.695;  -11.744;   -7.969;  665.758
411.287;  -13.105;   -8.579;  599.821
411.880;  -14.007;   -6.968;  585.421
412.472;  -17.462;   -9.487;  613.092
413.065;  -14.390;  -10.338;  629.408
413.657;  -11.357;   -9.169;  576.678
414.250;  -11.854;  -10.119;  646.681
414.842;  -13.757;   -9.938;  676.353
415.434;  -11.278;  -10.409;  570.463
416.027;   -7.038;   -9.591;  652.196
416.619;   -9.036;   -7.379;  713.400
417.211;  -10.066;   -9.159;  599.352
417.804;   -5.223;   -9.191;  628.499
418.396;   -9.458;   -8.159;  607.643
418.988;   -7.497;   -6.960;  659.238
419.580;  -11.458;  -11.389;  568.276
420.172;   -8.013;  -13.460;  536.196
420.764;   -3.634;  -10.701;  672.482
421.356;   -5.788;   -8.961;  636.898
421.948;   -6.454;   -9.770;  677.661
422.540;   -1.016;   -8.832;  680.027
423.132;   -1.159;   -8.153;  600.641
423.724;   -5.505;   -8.481;  561.267
424.316;   -3.417;   -9.261;  621.345
424.908;    0.993;   -9.643;  591.517
425.500;    1.759;   -8.663;  647.978
426.092;    1.383;   -8.503;  648.268
426.683;    0.131;  -10.522;  684.836
427.275;    3.801;  -11.734;  641.471
427.867;    5.321;  -10.264;  668.948
428.458;    6.178;   -7.644;  732.344
429.050;    3.551;   -7.853;  680.749
429.642;    6.720;   -8.904;  743.124
430.233;    7.305;  -10.795;  569.356
430.825;    8.170;   -7.665;  724.809
431.416;    4.892;   -8.843;  698.241
432.008;    9.356;   -9.885;  651.723
432.599;   10.490;   -9.966;  656.073
433.190;    6.519;   -9.164;  637.670
433.782;    5.661;   -8.584;  590.395
434.373;   15.038;   -8.296;  884.765
434.964;   12.684;   -9.896;  602.920
435.556;    9.960;   -8.255;  634.537
436.147;   12.981;   -8.075;  758.490
436.738;   12.641;   -9.716;  701.099
437.329;   18.616;   -7.318;  721.723
437.920;   11.141;   -6.694;  666.688
438.511;   10.405;   -9.644;  564.526
439.103;   18.234;   -9.427;  623.998
439.694;   20.368;  -10.748;  681.583
440.285;   21.169;   -7.997;  764.432
440.876;   18.336;  -10.046;  845.738
441.466;   18.572;  -13.467;  575.162
442.057;   24.274;   -9.329;  665.814
442.648;   21.896;   -7.707;  746.255
443.239;   19.761;   -9.017;  620.477
443.830;   26.150;  -10.279;  704.958
444.421;   27.381;  -12.630;  655.474
445.011;   23.932;   -8.697;  693.619
445.602;   23.498;   -7.787;  743.126
446.193;   25.950;  -13.329;  488.117
446.783;   30.541;   -9.171;  640.397
447.374;   25.578;   -7.457;  692.759
447.964;   26.796;   -9.277;  713.770
448.555;   35.167;   -9.041;  822.742
449.145;   31.415;   -8.969;  662.853
449.736;   31.860;   -6.809;  803.179
450.326;   31.367;   -7.229;  713.626
450.917;   37.715;  -11.391;  675.324
451.507;   36.401;   -9.501;  600.661
452.097;   36.977;   -8.460;  746.267
452.688;   37.773;  -10.080;  742.160
453.278;   37.285;  -12.861;  566.840
453.868;   42.995;   -8.372;  793.550
454.458;   40.712;   -8.131;  651.141
455.048;   40.431;   -8.520;  711.783
455.639;   42.431;  -13.632;  567.096
456.229;   46.550;  -10.143;  710.694
456.819;   47.607;   -9.163;  751.158
457.409;   48.429;   -8.652;  773.993
457.999;   51.463;   -9.933;  737.505
458.589;   51.299;  -10.363;  686.606
459.179;   50.430;  -10.633;  717.658
459.769;   48.447;  -12.442;  627.099
460.358;   54.183;   -9.844;  797.262
460.948;   53.216;   -9.924;  689.503
461.538;   54.511;  -10.484;  660.677
462.128;   53.275;  -10.703;  664.934
462.717;   60.342;  -11.486;  710.326
463.307;   62.758;  -10.767;  705.846
463.897;   58.804;   -8.814;  656.942
464.486;   57.438;   -8.182;  837.128
465.076;   63.118;   -9.985;  733.776
465.666;   66.778;  -10.447;  652.900
466.255;   64.366;   -7.754;  785.651
466.845;   62.651;  -10.884;  666.749
467.434;   67.147;  -12.525;  725.873
468.023;   67.136;  -11.456;  658.357
468.613;   64.098;   -9.173;  713.946
469.202;   69.045;   -9.306;  646.507
469.791;   73.448;   -8.917;  737.811
470.381;   75.165;   -9.657;  742.813
470.970;   74.153;   -9.947;  711.099
471.559;   74.535;   -9.256;  733.291
472.148;   77.791;  -13.397;  675.737
472.738;   80.736;   -9.928;  765.466
473.327;   80.097;  -10.897;  637.529
473.916;   77.991;   -8.526;  737.446
474.505;   84.111;  -11.078;  751.703
475.094;   87.028;   -9.559;  806.570
475.683;   85.898;   -8.838;  797.699
476.272;   86.576;  -10.198;  730.632
476.861;   89.106;  -11.489;  706.754
477.449;   97.230;  -10.721;  728.487
478.038;   89.880;   -9.818;  692.513
478.627;   91.585;   -9.887;  714.852
479.216;   98.268;  -10.030;  769.441
479.805;  101.827;   -9.401;  783.375
480.393;  101.019;   -5.739; 1008.945
480.982;   99.833;   -7.838;  874.501
481.571;  106.830;   -9.111;  858.333
482.159;  106.719;  -10.601;  705.386
482.748;  106.757;   -8.500;  821.385
483.336;  110.812;   -9.241;  858.209
483.925;  112.022;  -10.440;  774.373
484.513;  118.947;  -11.063;  758.962
485.102;  115.685;   -9.540;  810.965
485.690;  123.723;   -6.742; 1011.050
486.278;  127.074;   -8.442;  979.329
486.867;  126.532;  -10.472;  809.662
487.455;  128.175;   -8.811;  898.229
488.043;  129.348;  -10.721;  748.361
488.631;  138.840;  -10.393; 1005.079
489.220;  142.087;  -10.843;  908.626
489.808;  141.744;  -10.572;  741.415
490.396;  149.439;  -10.482;  914.645
490.984;  156.337;  -11.542;  830.161
491.572;  165.647;   -8.463;  940.315
492.160;  169.285;   -8.491;  919.081
492.748;  178.603;   -9.681;  884.341
493.336;  198.367;  -10.493; 1019.693
493.924;  222.578;   -9.354;  958.077
494.512;  251.135;   -9.132; 1066.638
495.100;  287.555;   -9.001; 1103.280
495.687;  337.818;  -11.924; 1206.373
496.275;  402.073;  -11.193; 1150.796
496.863;  494.142;   -9.241; 1281.171
497.451;  600.936;  -11.341; 1386.805
498.038;  697.806;  -11.364; 1556.729
498.626;  807.288;   -8.104; 1741.407
499.214;  995.339;   -8.842; 2016.609
499.801; 1193.133;  -10.112; 2220.633
500.389; 1381.404;  -11.953; 2312.494
500.976; 1632.350;  -10.023; 2744.849
501.564; 1924.592;   -8.662; 3148.565
502.151; 2283.010;  -10.531; 3515.999
502.738; 2657.879;  -13.853; 3971.274
503.326; 3201.176;  -10.794; 4403.796
503.913; 3750.993;   -8.663; 5161.749
504.500; 4086.338;  -10.172; 5986.420
505.088; 4415.829;  -13.472; 6381.201
505.675; 5152.848;  -10.924; 6925.547
506.262; 5895.164;   -8.551; 7619.060
506.849; 6681.884;  -10.523; 8733.969
507.436; 7398.775;  -10.834; 9790.121
508.023; 7686.273;   -9.093; 9985.472
508.610; 8135.270;  -10.073;10434.618
509.197; 8627.435;   -9.500;11198.435
509.784; 9894.481;  -13.242;12391.194
510.371;10621.754;  -10.964;13603.713
510.958;10420.931;   -9.772;14426.586
511.545;11421.208;   -7.842;15243.775
512.132;11806.185;  -12.184;15945.876
512.719;11959.332;   -9.733;16340.369
513.305;13782.426;   -9.172;18011.766
513.892;15478.067;   -9.581;19754.971
514.479;17407.473;  -10.253;20967.805
515.066;19538.836;   -8.183;22299.793
515.652;20739.947;   -9.253;22908.660
516.239;21647.313;   -9.412;23798.875
516.825;23718.908;  -11.153;25567.275
517.412;23856.201;  -10.263;28154.959
517.998;24591.076;   -8.802;28344.111
518.585;24312.545;  -10.401;27134.219
519.171;23827.941;  -12.744;27268.576
519.758;25574.164;  -11.793;28964.129
520.344;28046.133;   -8.912;30664.494
520.930;27848.951;  -10.901;32550.605
521.516;28557.184;  -12.034;35422.895
522.103;29358.414;  -10.473;38280.004
522.689;31155.734;   -8.311;37835.117
523.275;34768.234;  -10.691;37288.613
523.861;35981.344;  -11.193;37281.395
524.447;36472.254;  -11.484;37846.949
525.033;36050.492;   -7.702;38321.949
525.619;35731.602;  -11.241;38579.285
526.205;37404.906;  -12.152;40622.875
526.791;37106.531;  -11.423;42258.836
527.377;34568.371;   -7.981;42966.902
527.963;35093.277;   -9.450;42018.949
528.549;38973.992;  -11.351;42476.828
529.135;40532.859;  -10.202;41854.852
529.721;39271.000;   -8.672;41237.711
530.306;37888.438;   -9.111;41259.445
530.892;39463.602;  -11.252;41506.047
531.478;41408.492;  -10.432;43559.613
532.063;43681.180;  -10.721;47695.563
532.649;45678.273;   -7.450;50808.324
533.235;46354.652;  -11.811;51787.500
533.820;46673.293;   -9.383;52145.035
534.406;45991.090;   -9.400;51133.488
534.991;45086.070;   -8.861;49996.805
535.576;43386.773;  -10.612;48882.852
536.162;41221.418;   -7.322;46942.285
536.747;41826.605;   -9.360;45711.746
537.333;43910.914;  -10.450;48510.180
537.918;46085.977;  -12.610;50439.891
538.503;48116.957;  -12.132;50863.711
539.088;45954.086;  -10.831;50906.922
539.673;43251.789;  -11.220;52621.965
540.259;44460.902;  -11.481;52368.094
540.844;47649.164;  -11.462;50879.109
541.429;49479.793;   -7.869;52077.777
542.014;50209.004;  -11.859;52716.695
542.599;49239.113;  -11.061;52363.281
543.184;48708.680;  -12.300;53187.137
543.769;47856.660;   -9.369;54697.605
544.354;47851.828;  -12.020;53913.914
544.938;44730.531;  -10.350;49680.164
545.523;41899.121;  -10.841;47386.277
546.108;43971.918;   -8.579;49151.949
546.693;46423.688;   -8.818;51384.637
547.278;47550.457;  -11.331;51853.254
547.862;43989.262;  -10.292;51173.750
548.447;40048.559;   -8.349;51691.395
549.031;41175.055;  -10.838;52456.703
549.616;46689.199;  -11.681;52714.516
550.201;50051.598;  -11.140;52414.598
550.785;48400.117;   -8.649;52355.059
551.370;48396.141;  -11.889;54589.453
551.954;47977.234;  -11.239;58267.348
552.538;47577.488;   -8.850;59062.176
553.123;48482.641;  -10.829;58115.285
553.707;48928.172;   -8.887;56556.285
554.291;48186.574;  -10.430;56201.668
554.876;46296.766;   -9.799;55335.762
555.460;47515.984;  -10.018;54155.703
556.044;48720.867;   -7.307;53721.484
556.628;45260.020;  -12.229;53731.016
557.212;42166.238;   -9.820;54312.531
557.796;41664.254;   -9.109;53797.773
558.380;43229.219;   -9.707;56145.984
558.964;42428.910;  -10.980;57277.930
559.548;43108.113;  -12.010;56459.641
560.132;46522.922;   -7.928;54434.543
560.716;47912.563;  -10.247;54800.617
561.300;47949.539;  -11.250;57606.945
561.884;49725.641;  -10.568;58972.445
562.467;48315.602;   -9.727;57327.570
563.051;46902.309;  -11.847;54962.434
563.635;45508.531;  -10.747;52594.473
564.219;42161.813;  -13.108;50610.410
564.802;39265.297;  -11.417;49551.180
565.386;40452.043;  -10.457;48370.953
565.969;41923.051;   -8.959;48178.871
566.553;41103.504;  -10.328;49957.305
567.136;40171.344;  -10.257;50369.594
567.720;39953.629;  -10.186;49492.004
568.303;40128.375;  -10.027;50616.352
568.887;41131.094;  -10.397;50727.148
569.470;39460.043;   -8.185;51698.379
570.053;38543.191;  -11.596;52122.078
570.637;38322.742;  -11.378;52536.438
571.220;38182.848;   -9.138;51186.098
571.803;37389.762;   -7.675;51032.762
572.386;35996.703;   -8.976;49609.887
572.969;33674.563;  -12.477;48285.926
573.552;34666.953;   -9.767;47624.285
574.135;34934.086;   -8.175;45498.641
574.718;31545.885;  -11.096;41970.434
575.301;29600.123;  -11.966;41447.137
575.884;27654.363;  -12.836;40923.836
576.467;30799.557;   -9.116;45267.723
577.050;30842.049;  -10.536;48175.543
577.633;31703.020;  -11.027;47729.328
578.216;33935.648;   -9.946;47579.793
578.799;35202.754;   -9.645;47820.996
579.381;36535.387;   -9.446;48115.551
579.964;38035.738;  -12.217;47333.766
580.547;38892.250;  -10.586;46668.969
581.129;39213.328;   -8.374;44466.141
581.712;36963.902;  -10.434;44164.922
582.294;34327.391;  -10.896;46477.855
582.877;34591.418;   -8.906;48244.254
583.459;35682.793;   -9.994;47437.895
584.042;36400.699;  -10.084;46943.219
584.624;36381.699;  -13.534;46792.227
585.206;34525.164;  -12.716;46557.250
585.789;35207.703;  -11.614;45793.773
586.371;33421.355;  -10.203;43836.391
586.953;30702.879;  -10.314;42972.492
587.536;30890.582;   -9.776;42487.211
588.118;32036.586;   -9.821;42086.414
588.700;32845.492;  -10.073;43389.930
589.282;30621.807;  -12.395;43646.039
589.864;28902.004;  -11.514;43438.109
590.446;27423.338;  -10.803;43151.926
591.028;26023.582;  -11.043;42781.867
591.610;27811.781;  -13.244;42839.098
592.192;30039.918;  -11.095;42820.402
592.774;29652.938;  -10.823;40724.277
593.356;29325.541;  -11.052;39874.789
593.937;30875.119;  -11.664;39980.648
594.519;34614.828;  -10.454;42069.633
595.101;37474.238;  -10.322;42976.031
595.683;36556.699;  -10.042;44084.441
596.264;32785.094;  -14.334;43478.797
596.846;33923.246;  -10.863;43803.672
597.427;32995.500;   -9.901;42986.934
598.009;31615.477;  -10.911;42832.219
598.591;32327.189;  -10.483;42580.086
599.172;33783.156;   -9.663;43061.805
599.753;34600.691;  -10.631;41691.469
600.335;34770.176;   -9.371;40692.520
600.916;32827.277;  -13.992;39982.422
601.498;32622.762;   -8.352;40318.617
602.079;33026.180;   -8.411;40670.609
602.660;32442.953;  -10.841;41450.898
603.241;32067.510;  -12.963;41137.738
603.823;32506.758;  -11.523;38868.797
604.404;32093.297;  -11.881;38182.785
604.985;32988.727;  -11.721;38078.047
605.566;32812.816;   -9.293;38056.633
606.147;31669.900;  -10.940;37020.418
606.728;33202.699;  -11.840;37883.359
607.309;33950.848;  -11.781;38748.273
607.890;34151.543;  -11.262;38850.230
608.471;32808.746;  -10.111;37457.918
609.051;32811.531;   -7.709;36066.457
609.632;30134.072;  -12.409;35991.074
610.213;30229.656;  -10.811;37402.641
610.794;31416.873;  -11.630;38383.363
611.374;35071.125;   -8.030;40562.387
611.955;35227.336;  -10.809;38533.727
612.536;33920.984;  -10.531;36951.789
613.116;33823.277;  -12.820;37197.891
613.697;35440.355;  -11.419;38411.125
614.277;36263.844;   -9.768;38673.938
614.858;32833.863;  -10.251;37075.863
615.438;29229.732;  -11.981;35092.906
616.019;26956.113;   -8.978;33666.301
616.599;29261.463;  -12.219;34189.023
617.179;31684.117;  -14.170;36952.047
617.760;32697.354;   -9.211;39582.574
618.340;32815.184;   -9.018;38943.977
618.920;33074.527;   -9.249;37594.156
619.500;33125.469;  -12.728;37866.938
620.080;33654.988;  -12.939;37869.043
620.660;34739.195;  -11.586;36868.617
621.241;34054.262;  -11.538;36352.309
621.821;32630.850;  -11.398;35459.520
622.401;31179.748;  -10.179;35207.414
622.980;31052.344;  -11.587;35980.422
623.560;32537.066;  -12.888;37351.328
624.140;31134.588;  -13.149;34388.582
624.720;26964.428;   -9.928;32368.764
625.300;26524.293;  -10.869;32638.629
625.880;29098.580;   -8.617;34599.035
626.459;30438.750;  -12.138;36831.738
627.039;33245.695;  -12.267;38299.098
627.619;36647.277;   -7.476;38289.574
628.198;37785.344;  -11.347;37220.695
628.778;34890.715;  -11.678;37632.563
629.357;32475.678;  -12.438;38003.012
629.937;31962.246;   -9.576;38402.039
630.516;31606.941;  -11.096;37868.801
631.096;32516.016;  -11.828;35760.410
631.675;33952.238;  -11.565;35225.219
632.254;34591.461;  -11.845;35130.289
632.834;36028.109;  -11.545;35794.570
633.413;35330.246;  -10.887;35788.922
633.992;35196.309;  -10.175;34532.863
634.571;35785.461;   -9.704;33590.113
635.151;34016.895;  -10.815;34943.863
635.730;32529.813;  -11.617;35352.523
636.309;32473.354;  -10.836;35366.605
636.888;33252.547;   -9.755;36165.637
637.467;33206.953;  -11.684;37515.902
638.046;33341.438;  -11.987;39288.695
638.625;33280.145;  -10.455;38279.699
639.204;33202.371;  -11.234;37741.598
639.782;33944.746;  -12.023;38364.551
640.361;32171.572;  -11.506;36740.621
640.940;28785.848;  -12.316;34950.082
641.519;26763.479;  -11.616;34137.398
642.097;29469.684;   -9.266;35654.258
642.676;33211.063;  -12.936;35637.957
643.255;33669.617;   -9.966;36567.074
643.833;34025.152;   -8.916;37809.434
644.412;32068.418;  -10.936;37337.293
644.990;31564.297;  -12.176;37018.531
645.569;32551.719;  -12.246;36518.469
646.147;35695.242;  -12.107;36186.430
646.726;38561.844;  -12.937;36267.688
647.304;35323.246;  -12.547;36647.625
647.882;33937.383;  -12.597;39286.742
648.461;33115.383;   -9.427;39157.703
649.039;33342.266;   -8.937;35412.883
649.617;34229.359;  -11.067;34744.918
650.195;32731.293;  -10.657;35403.098
650.773;30076.551;  -10.097;35053.797
651.352;29563.295;  -11.887;33756.816
651.930;28627.127;  -13.557;31868.773
652.508;28586.441;  -11.767;33121.551
653.086;31386.799;  -10.777;33564.793
653.663;33909.047;  -12.067;34054.668
654.241;36557.605;  -14.918;35693.309
654.819;36281.555;  -11.788;36422.906
655.397;34172.539;  -11.268;38213.484
655.975;32618.543;  -11.738;39507.625
656.553;31065.871;  -11.018;39498.223
657.130;29608.805;  -12.848;40395.480
657.708;28262.143;  -10.098;39242.020
658.286;29390.742;  -11.678;38920.020
658.863;31873.832;  -11.498;40202.898
659.441;34810.430;  -11.008;39677.938
660.018;36786.703;  -11.048;40413.355
660.596;37368.414;  -12.058;39931.414
661.173;37713.832;  -14.158;39604.531
661.750;37154.867;  -12.298;39700.070
662.328;36621.660;  -10.699;39292.809
662.905;36085.895;  -12.119;38235.648
663.482;32093.953;  -11.829;36212.305
664.060;28357.607;  -11.009;35944.945
664.637;31568.084;  -10.369;35170.785
665.214;34196.289;  -10.459;34197.523
665.791;33590.777;  -12.599;34549.520
666.368;30988.877;  -12.919;35118.578
666.945;29140.887;  -10.699;36019.418
667.522;30349.154;  -11.359;36048.438
668.099;30939.992;  -13.529;36243.914
668.676;29960.021;  -10.229;35958.875
669.253;29586.979;   -9.279;37384.730
669.830;28912.902;  -11.370;36779.629
670.407;28420.271;  -10.950;35231.289
670.984;29281.488;  -12.850;35544.270
671.560;28426.334;   -8.440;35466.867
672.137;29577.340;  -13.520;34280.863
672.714;31368.684;  -13.620;34632.863
673.290;31968.160;  -10.450;35135.422
673.867;30775.654;  -10.960;36114.480
674.443;31699.051;  -13.300;36152.859
675.020;29948.100;  -12.370;35327.238
675.596;29280.414;  -11.250;35795.176
676.173;29629.877;  -11.080;35430.355
676.749;29185.637;  -13.220;33549.516
677.326;30200.514;  -13.000;32210.012
677.902;30149.605;  -12.701;32068.871
678.478;28842.828;  -12.801;32583.891
679.054;29112.857;   -8.601;32088.928
679.631;30323.572;  -12.631;30978.848
680.207;31514.133;   -9.451;33160.887
680.783;30583.330;  -11.701;35570.363
681.359;30672.146;  -12.701;36125.184
681.935;32542.314;  -13.271;35240.922
682.511;34719.148;  -10.791;34429.961
683.087;32756.799;  -10.791;34463.680
683.663;29496.201;   -8.121;34648.898
684.239;27447.838;  -13.261;34546.457
684.815;28426.307;  -10.581;35586.375
685.390;29969.352;   -9.961;35821.895
685.966;29151.928;  -11.182;35085.871
686.542;28372.994;  -13.512;34198.230
687.118;26614.629;  -11.472;32847.707
687.693;25629.523;  -10.152;32794.027
688.269;25751.770;  -14.442;33072.367
688.844;24703.988;  -11.852;33141.664
689.420;23719.648;  -13.942;33965.742
689.995;25012.963;   -9.702;34655.523
690.571;26753.861;  -11.312;33576.742
691.146;26990.984;  -14.332;32657.219
691.722;26725.191;  -11.192;32526.979
692.297;27526.959;  -10.962;33014.617
692.872;29035.602;  -11.082;34012.254
693.448;29799.258;  -14.732;34237.434
694.023;29026.400;  -12.363;34142.672
694.598;27270.379;  -12.393;34132.031
695.173;28164.848;  -11.023;34205.250
695.748;29533.217;  -12.743;32882.488
696.323;28846.244;  -11.103;32864.906
696.898;28324.912;   -8.123;33170.004
697.473;27988.508;  -12.603;32432.984
698.048;28113.094;  -12.553;31649.303
698.623;29433.549;  -12.573;30778.141
699.198;29097.172;  -12.743;31140.119
699.773;28273.758;  -12.843;31764.299
700.348;28688.131;  -16.683;31780.816
700.922;29855.014;  -11.403;32046.375
701.497;31501.895;  -11.253;32603.574
702.072;30870.902;  -10.044;34799.871
702.646;30352.424;  -13.054;35793.172
703.221;31232.994;  -11.414;35201.590
703.795;30059.213;  -10.644;34764.527
704.370;27701.725;  -13.484;34307.367
704.944;26944.453;  -12.144;33509.887
705.519;26692.484;  -12.024;31388.584
706.093;28310.168;  -11.234;31340.104
706.668;29426.861;   -9.874;32630.281
707.242;28743.285;  -12.404;32728.779
707.816;27067.652;  -10.644;32947.238
708.390;26484.191;  -11.174;33277.855
708.965;26602.482;  -10.324;33834.336
709.539;27358.277;  -12.014;33709.273
710.113;27476.904;  -12.295;33044.313
710.687;29116.145;  -10.965;31953.992
711.261;31147.039;  -13.685;30505.949
711.835;29607.736;  -15.335;30262.369
712.409;28353.457;  -13.785;31254.447
712.983;28288.871;  -10.525;32754.986
713.557;26373.441;  -13.175;34018.824
714.131;26311.061;  -13.245;34579.625
714.704;29492.234;  -13.175;33890.262
715.278;31888.912;  -11.545;33531.102
715.852;30604.783;  -10.975;33601.660
716.425;29183.631;  -10.075;33515.117
716.999;29871.613;  -12.185;33185.555
717.573;31998.338;   -9.685;33905.996
718.146;32387.143;  -10.516;35199.293
718.720;31061.266;  -12.106;35060.551
719.293;29424.326;  -12.386;34973.230
719.867;29498.514;  -12.456;36394.449
720.440;29656.414;  -10.686;36663.008
721.013;29811.563;  -12.596;35102.426
721.587;31236.949;  -13.956;33985.266
722.160;32926.090;   -9.806;33524.965
722.733;33353.773;  -11.676;32987.043
723.306;32877.469;  -14.276;33066.301
723.880;30944.512;  -12.126;33399.500
724.453;28581.021;  -10.156;33468.297
725.026;28312.674;  -12.956;33816.637
725.599;28329.553;  -11.676;32797.996
726.172;28749.738;  -12.337;33187.434
726.745;28942.141;  -11.277;35136.613
727.318;28842.066;  -11.927;35751.730
727.891;27929.186;  -13.607;35890.430
728.463;25705.893;  -11.327;34822.090
729.036;25750.514;  -11.917;32895.086
729.609;27386.133;  -12.697;31823.225
730.182;28074.730;  -11.787;31445.283
730.754;27777.398;  -12.957;32373.223
731.327;27627.188;  -11.017;33676.820
731.900;27448.504;  -12.797;33417.000
732.472;26781.773;  -10.677;31978.498
733.045;26410.422;  -12.797;30368.777
733.617;26491.369;  -13.908;30574.215
734.190;25196.779;  -12.258;31280.975
734.762;25426.844;  -13.438;31674.412
735.334;26822.932;  -11.758;31247.291
735.907;29429.529;  -11.158;29876.211
736.479;32416.787;  -11.258;29808.488
737.051;32817.547;  -10.918;30233.547
737.623;31900.207;  -11.038;31469.086
738.195;33384.531;  -12.188;31784.225
738.768;30693.900;  -11.378;32120.523
739.340;24653.701;  -12.598;32094.342
739.912;23237.338;  -11.568;31312.680
740.484;25279.385;   -9.348;31946.238
741.056;27976.992;  -12.628;32984.059
741.628;29606.057;  -13.349;33897.715
742.199;28437.947;  -11.309;33213.016
742.771;28783.625;  -12.699;31369.113
743.343;29568.434;  -11.919;31865.473
743.915;29252.262;  -11.679;32388.631
744.487;27584.148;  -12.249;31079.568
745.058;25488.275;  -11.119;30570.107
745.630;24594.354;   -9.439;29970.127
746.201;24044.699;  -11.949;29186.766
746.773;24095.375;  -12.639;28805.723
747.344;25287.430;  -11.039;29591.223
747.916;27476.070;  -12.549;31412.201
748.487;26271.398;  -12.659;32194.898
749.059;24604.758;  -13.059;32533.719
749.630;23874.443;  -12.080;32158.518
750.201;22515.094;  -13.100;30855.395
750.773;21860.895;  -15.310;28622.555
751.344;21635.375;  -12.240;28405.732
751.915;21923.342;  -11.960;28461.551
752.486;21016.676;  -13.200;27842.850
753.057;19621.355;  -15.230;27845.008
753.628;20856.730;  -13.130;27728.107
754.199;23280.986;  -12.720;27381.086
754.770;23273.020;  -10.680;25882.203
755.341;21585.436;  -11.010;25886.184
755.912;20953.184;  -12.990;26050.861
756.483;20426.611;  -11.110;26798.779
757.054;20203.145;  -12.190;27048.238
757.625;20164.855;  -13.981;26294.838
758.195;20369.447;  -11.041;26142.076
758.766;21513.514;  -11.861;26392.234
759.337;21822.156;  -11.461;26334.594
759.907;21086.211;  -15.001;27579.652
760.478;19971.635;   -9.681;28352.770
761.048;18921.838;  -12.421;27325.088
761.619;19538.648;  -11.761;26460.428
762.189;19965.646;  -12.391;26029.826
762.760;19560.750;  -10.201;26430.145
763.330;20406.119;  -10.811;26670.902
763.900;20977.486;  -10.261;26603.021
764.471;19802.873;  -13.061;25542.740
765.041;18199.527;  -11.051;24358.459
765.611;18179.523;  -11.032;23991.297
766.181;18408.168;  -10.532;24470.236
766.751;18902.189;  -13.502;24845.975
767.321;20282.141;  -11.392;24533.633
767.891;22147.369;  -11.522;24916.492
768.461;23245.238;  -13.672;24776.771
769.031;20599.148;  -14.652;24757.988
769.601;17763.813;  -10.182;24181.088
770.171;16443.787;  -11.752;23670.387
770.741;15409.775;  -12.272;22960.045
771.311;15339.728;  -13.112;22917.523
771.880;16465.250;  -14.122;23562.941
772.450;17244.684;  -11.782;24216.500
773.020;17378.852;  -12.642;24140.398
773.589;16549.709;  -13.043;24414.857
774.159;16087.236;  -11.783;23858.717
774.729;16915.764;  -13.473;22942.135
775.298;17490.855;  -14.523;22324.033
775.867;16881.047;  -12.013;21140.313
776.437;16150.206;  -12.113;20838.092
777.006;15966.376;  -13.543;20599.510
777.576;16673.355;  -12.523;20508.809
778.145;16827.900;  -12.173;20732.947
778.714;16110.449;  -12.153;21062.465
779.283;15293.877;  -11.833;20949.664
779.853;15276.982;  -13.483;20508.623
780.422;15236.757;  -12.933;20649.082
780.991;14833.099;  -13.173;21527.520
781.560;14786.414;  -10.224;22632.658
782.129;15265.617;  -12.684;23048.277
782.698;15171.435;  -11.284;23438.555
783.267;15048.599;  -11.684;23267.734
783.836;14830.502;  -10.974;22415.133
784.404;14327.841;  -13.534;20443.152
784.973;13413.231;  -16.734;19699.150
785.542;12260.600;  -12.594;19763.828
786.111;12034.311;  -11.644;20341.408
786.679;13180.650;  -11.384;20207.967
787.248;13547.620;  -12.014;19516.465
787.817;12314.102;  -12.804;18900.363
788.385;10987.640;  -11.994;17879.121
788.954;11303.914;  -12.564;17658.301
789.522;12301.323;  -12.225;17788.879
790.090;12349.036;  -13.775;18118.277
790.659;12201.826;  -12.485;18338.736
791.227;12938.454;  -12.295;18508.615
791.795;13606.601;  -13.415;17898.254
792.364;14001.799;  -12.995;17295.133
792.932;13627.823;   -8.365;16822.051
793.500;12478.847;  -11.925;17040.148
794.068;12615.950;  -13.245;17179.787
794.636;13331.437;  -13.815;16664.246
795.204;13285.591;  -13.375;16524.545
795.772;13064.670;  -12.125;17274.564
796.340;12286.063;  -13.855;17891.002
796.908;10737.911;  -13.456;17648.561
797.476; 9998.850;  -13.116;17064.080
798.044;10205.863;  -13.226;16672.777
798.612;10463.665;  -11.236;17023.996
799.180;10336.209;  -10.476;16561.615
799.747; 9931.358;  -11.746;15962.773
800.315; 9471.772;  -12.366;15296.992
800.883; 8832.420;  -14.616;14801.771
801.450; 8940.584;  -11.996;14534.430
802.018; 9792.028;  -11.206;14173.248
802.585;10249.960;  -12.466;14029.547
803.153; 9780.013;  -12.846;13836.846
803.720; 9172.641;  -12.136;13567.324
804.287; 9306.625;  -10.966;13360.622
804.855; 9410.369;   -9.797;13681.981
805.422; 8587.446;  -13.037;13536.560
805.989; 7912.202;  -12.697;13355.958
806.556; 8179.926;  -11.737;13747.896
807.124; 8918.182;  -11.997;13987.376
807.691; 8654.127;  -13.997;14038.674
808.258; 7993.959;  -10.927;14120.152
808.825; 8173.739;  -13.727;13860.111
809.392; 8191.779;  -11.847;13268.790
809.959; 8181.813;  -14.217;12680.389
810.526; 8153.290;   -8.277;12427.308
811.093; 8356.813;   -9.647;12030.105
811.659; 8416.104;  -10.987;11653.664
812.226; 7758.975;  -13.447;11637.183
812.793; 7278.763;  -14.418;11611.521
813.360; 7459.681;  -13.908;11885.181
813.926; 7914.694;  -12.918;12770.539
814.493; 8064.527;  -14.888;12677.638
815.060; 7647.717;  -12.758;11974.336
815.626; 7352.529;  -13.478;11594.715
816.193; 7337.448;  -13.898;11579.474
816.759; 7489.481;  -13.588;11666.972
817.325; 7458.683;  -12.018;11325.530
817.892; 7152.319;  -14.068;11105.369
818.458; 7261.764;  -13.458;10843.928
819.024; 7152.941;  -11.968;10714.406
819.591; 6912.860;  -11.028;10469.165
820.157; 7020.203;  -12.088;10235.523
820.723; 7150.754;  -12.599;10847.563
821.289; 6863.068;  -10.419;11040.980
821.855; 6658.589;  -10.939;10357.100
822.421; 6661.272;  -12.539; 9978.918
822.987; 6646.695;  -13.259; 9754.177
823.553; 6448.370;  -15.369;10065.755
824.119; 6332.501;  -10.779;10036.294
824.685; 6343.050;   -9.999;10029.192
825.251; 6153.664;  -11.819;10199.230
825.816; 6062.650;  -13.369; 9820.189
826.382; 5887.603;  -12.679; 9297.248
826.948; 5406.689;  -11.199; 9381.347
827.513; 5243.546;  -11.179; 9450.726
828.079; 5359.842;  -13.489; 9472.444
828.645; 5493.419;  -12.500; 9292.643
829.210; 5511.801;  -15.120; 9065.341
829.776; 5468.858;  -12.590; 9132.620
830.341; 5579.806;  -11.540; 9092.878
830.906; 5941.059;  -12.400; 9078.557
831.472; 5908.377;  -12.720; 8534.535
832.037; 5180.381;  -11.490; 8677.874
832.602; 4506.616;  -14.380; 8628.692
833.167; 4251.809;  -12.780; 8879.031
833.733; 4521.969;  -11.100; 9189.790
834.298; 4892.698;  -12.080; 9052.608
834.863; 4755.667;  -13.910; 8895.087
835.428; 4453.855;  -13.470; 8824.266
835.993; 4295.020;  -11.760; 8845.385
836.558; 4486.319;  -12.731; 8888.563
837.123; 4629.399;  -12.431; 8966.582
837.688; 4460.825;  -11.241; 8617.860
838.253; 4273.530;  -13.681; 8590.699
838.817; 4387.313;  -12.531; 8443.797
839.382; 4497.113;  -12.671; 8799.356
839.947; 4545.913;  -11.541; 8810.595
840.511; 4665.231;  -12.021; 8796.394
841.076; 4741.599;  -13.071; 8347.231
841.641; 4987.201;  -11.411; 8224.330
842.205; 5282.415;  -13.671; 8223.349
842.770; 5173.481;  -11.291; 8622.107
843.334; 4840.075;  -12.951; 8410.386
843.898; 4542.433;  -11.221; 8337.465
844.463; 4577.824;  -11.322; 8506.283
845.027; 4540.785;  -11.412; 8280.962
845.591; 4303.451;  -11.512; 8231.141
846.156; 4206.806;  -14.042; 7969.179
846.720; 4268.005;  -12.152; 7768.278
847.284; 4078.356;  -10.922; 7630.957
847.848; 3889.551;  -10.962; 7472.395
848.412; 3672.691;  -14.612; 7437.394
848.976; 3691.253;  -11.492; 7674.592
849.540; 3984.086;   -9.172; 7836.011
850.104; 4179.351;  -11.232; 7913.669
850.668; 4100.911;  -15.182; 7694.508
851.232; 3989.494;  -15.332; 7756.887
851.796; 3943.845;  -13.703; 7926.545
852.359; 4021.869;  -11.113; 7827.844
852.923; 4131.816;  -11.843; 7641.163
853.487; 4102.084;  -11.173; 7342.501
854.050; 3965.025;  -13.443; 7042.820
854.614; 3907.276;  -13.823; 7151.338
855.177; 3822.507;  -16.393; 7105.077
855.741; 3778.116;  -11.693; 6989.675
856.304; 3769.795;  -10.843; 6596.634
856.868; 3660.113;  -13.783; 6356.272
857.431; 3427.863;  -11.953; 6468.571
857.995; 3151.354;  -13.683; 6373.210
858.558; 3115.087;  -11.433; 6324.448
859.121; 3222.656;  -12.493; 6408.327
859.684; 3135.112;  -12.384; 6347.886
860.247; 2809.313;  -14.774; 6321.264
860.810; 2556.625;  -13.154; 6301.903
861.374; 2541.369;  -11.264; 6607.881
861.937; 2588.250;  -15.424; 6408.200
862.500; 2568.229;  -12.854; 6572.639
863.062; 2558.299;  -12.344; 6387.297
863.625; 2575.246;  -13.314; 6190.836
864.188; 2675.563;  -14.724; 5807.254
864.751; 2878.747;  -13.464; 5682.413
865.314; 3234.328;  -11.684; 5547.492
865.876; 3438.914;  -11.104; 5500.150
866.439; 3368.068;  -12.344; 5415.909
867.002; 3179.159;  -13.494; 5501.567
867.564; 2909.587;  -10.935; 5413.946
868.127; 2716.242;  -12.665; 5160.325
868.689; 2670.429;  -14.515; 5133.183
869.252; 2724.885;  -13.425; 5252.382
869.814; 2899.471;  -11.595; 5297.141
870.377; 2995.998;  -12.175; 5390.919
870.939; 2874.612;  -10.265; 5599.898
871.501; 2726.360;  -12.375; 5248.336
872.063; 2624.936;  -14.355; 4854.235
872.626; 2533.247;  -14.435; 4817.074
873.188; 2445.039;  -12.415; 4987.732
873.750; 2477.292;  -14.555; 4868.651
874.312; 2409.003;  -11.185; 4779.330
874.874; 2210.519;  -12.715; 4866.348
875.436; 2112.259;  -13.196; 4718.887
875.998; 2080.982;  -11.426; 4660.005
876.560; 1988.112;   -9.786; 4462.964
877.122; 1937.114;  -12.796; 4145.042
877.683; 1938.517;  -13.226; 4056.481
878.245; 1923.916;  -12.036; 3950.740
878.807; 1909.306;  -11.536; 4058.958
879.369; 1888.193;  -10.806; 3954.677
879.930; 1782.374;  -13.946; 3941.495
880.492; 1645.644;  -11.876; 4067.014
881.053; 1613.149;  -13.216; 3859.633
881.615; 1675.360;  -12.226; 3776.071
882.176; 1707.694;  -12.946; 3734.750
882.738; 1641.437;  -10.736; 3678.489
883.299; 1567.186;  -12.057; 3405.407
883.860; 1532.365;  -12.677; 3351.106
884.422; 1487.355;  -14.097; 3394.044
884.983; 1376.823;  -13.667; 3166.443
885.544; 1228.942;  -10.717; 3189.802
886.105; 1131.634;  -14.357; 3160.360
886.666; 1114.933;  -14.287; 3093.059
887.227; 1118.830;  -14.297; 2941.957
887.788; 1105.764;  -13.137; 2974.836
888.349; 1021.299;  -14.637; 2721.214
888.910;  942.934;  -12.247; 2696.493
889.471;  936.000;  -10.577; 2560.172
890.032;  929.643;  -12.937; 2558.190
890.593;  879.490;  -12.487; 2567.669
891.153;  814.950;  -11.898; 2460.307
891.714;  807.019;  -14.278; 2372.046
892.275;  812.398;  -13.308; 2309.505
892.835;  758.919;  -12.058; 2382.543
893.396;  678.898;  -15.268; 2295.502
893.956;  622.109;  -13.278; 2162.420
894.517;  584.412;  -11.968; 2125.439
895.077;  570.939;  -12.798; 2086.978
895.638;  549.988;  -11.908; 2126.316
896.198;  524.092;  -13.288; 1838.275
896.758;  501.620;  -12.198; 1892.813
897.319;  475.438;  -13.048; 1792.232
897.879;  436.395;  -13.718; 1762.751
898.439;  399.488;  -14.138; 1661.149
898.999;  385.186;  -13.659; 1781.468
899.559;  373.061;  -14.699; 1703.347
900.119;  349.654;  -14.339; 1537.525
900.679;  326.361;  -11.789; 1638.384
901.239;  302.644;  -13.629; 1527.902
901.799;  286.725;  -13.679; 1456.441
902.359;  273.980;  -13.679; 1357.140
902.919;  263.116;  -14.159; 1331.118
903.479;  251.735;  -13.419; 1317.257
904.038;  242.125;  -14.899; 1262.595
904.598;  230.279;  -14.339; 1152.034
905.158;  224.653;  -13.959; 1240.893
905.717;  220.010;  -12.749; 1233.691
906.277;  212.121;  -11.889; 1217.330
906.836;  204.754;  -12.870; 1222.408
907.396;  202.231;  -11.790; 1193.047
907.955;  198.670;  -13.750; 1182.526
908.515;  193.172;  -14.760; 1099.364
909.074;  185.040;  -12.540; 1092.863
909.633;  179.646;  -12.120; 1069.121
910.192;  176.706;  -12.550; 1196.460
910.752;  174.813;  -12.760; 1029.960
911.311;  171.791;  -14.750; 1009.780
911.870;  168.625;  -13.860;  971.460
912.429;  165.483;  -13.480; 1094.080
912.988;  161.866;  -12.370; 1081.060
913.547;  156.266;  -14.670;  940.380
914.106;  153.906;  -12.800;  999.420
914.665;  152.658;  -11.370;  984.020
915.224;  150.409;  -11.430; 1035.760
915.782;  150.471;  -12.260;  922.560
916.341;  151.515;  -12.540; 1049.840
916.900;  147.487;  -12.540;  925.260
917.458;  146.516;  -13.480;  884.220
918.017;  146.538;  -12.470;  942.600
918.576;  145.427;  -13.450;  904.440
919.134;  143.574;  -12.890;  837.980
919.693;  141.394;  -15.480;  893.060
920.251;  139.362;  -14.420;  876.500
920.809;  140.125;  -12.170;  839.580
921.368;  138.816;  -13.650;  885.360
921.926;  139.081;  -12.750;  842.940
922.484;  139.849;  -14.150;  903.360
923.042;  141.285;  -15.100;  880.340
923.601;  144.646;  -10.990;  998.680
924.159;  143.067;  -12.470;  935.560
924.717;  143.146;  -15.640;  841.080
925.275;  144.027;  -12.380;  903.240
925.833;  144.391;  -12.710;  779.320
926.391;  144.809;  -11.200;  938.380
926.949;  146.214;  -16.000;  857.680
927.506;  147.823;  -12.260;  903.500
928.064;  147.573;  -11.300;  877.580
928.622;  148.663;  -13.750;  880.100
929.180;  148.144;  -15.290;  814.180
929.737;  146.971;  -14.500;  808.540
930.295;  148.333;  -10.630;  928.480
930.853;  151.346;  -14.590;  849.100
931.410;  155.524;  -14.450;  821.120
931.968;  156.422;  -14.390;  940.660
932.525;  157.351;  -13.050;  909.380
933.082;  156.713;  -15.620;  811.440
933.640;  159.252;  -15.650;  925.900
934.197;  162.359;  -13.610;  886.360
934.754;  166.078;  -13.320;  897.780
935.312;  168.617;  -13.370;  863.340
935.869;  172.797;  -12.780; 1012.980
936.426;  171.858;  -14.480;  872.800
936.983;  172.723;  -13.180;  889.020
937.540;  172.877;  -15.710;  838.280
938.097;  174.484;  -14.980;  940.120
938.654;  177.733;  -13.060;  898.860
939.211;  177.425;  -12.760;  952.480
939.768;  177.758;  -16.230;  915.420
940.324;  179.356;  -10.940;  904.200
940.881;  178.159;  -12.570;  878.500
941.438;  176.243;  -13.650; 1021.200
941.995;  176.164;  -13.300;  992.560
942.551;  178.408;  -15.800;  875.620
943.108;  178.008;  -14.180;  937.920
943.664;  177.495;  -13.890;  869.340
944.221;  180.339;  -12.640; 1088.140
944.777;  178.133;  -14.700;  869.680
945.334;  176.545;  -13.010;  884.840
945.890;  177.826;  -13.480;  946.480
946.446;  177.626;  -14.920;  947.020
947.003;  176.331;  -13.860;  964.940
947.559;  177.023;  -12.000; 1063.040
948.115;  176.880;  -10.510; 1026.540
948.671;  175.898;  -12.760;  967.300
949.227;  172.034;  -15.390;  859.560
949.783;  168.212;  -15.570;  858.900
950.339;  167.890;  -12.800;  991.000
950.895;  165.762;  -13.780; 1023.840
951.451;  164.818;  -13.810;  925.280
952.007;  168.506;  -12.390;  998.540
952.563;  168.225;  -11.980;  937.780
953.118;  165.368;  -14.070;  904.940
953.674;  167.689;  -14.140;  935.780
954.230;  173.564;  -12.680;  949.640
954.785;  174.555;  -12.770;  936.640
955.341;  170.697;  -11.450;  998.160
955.897;  162.857;  -15.350;  834.660
956.452;  158.985;  -14.200;  953.840
957.008;  153.601;  -10.820; 1083.640
957.563;  151.632;  -13.200; 1009.540
958.118;  151.377;  -14.460;  877.700
958.674;  153.059;  -13.840;  946.780
959.229;  152.816;  -10.670; 1013.980
959.784;  153.479;  -17.040;  832.400
960.339;  156.928;  -12.970; 1001.280
960.894;  161.467;  -12.700;  963.760
961.449;  164.105;  -13.790;  859.960
962.004;  170.838;  -11.760; 1212.840
962.559;  168.682;  -14.840;  860.140
963.114;  162.386;  -14.530;  742.480
963.669;  159.764;  -12.780;  915.500
964.224;  155.242;  -14.330;  874.340
964.779;  148.751;  -14.380;  828.420
965.334;  146.026;  -12.460; 1017.860
965.888;  141.903;  -13.490;  875.360
966.443;  142.085;  -14.140;  972.380
966.998;  139.661;  -16.240;  819.460
967.552;  139.442;  -12.730;  908.380
968.107;  136.731;  -14.510;  868.300
968.661;  138.300;  -11.850;  922.440
969.216;  136.344;  -14.370;  856.280
969.770;  132.335;  -13.010;  917.200
970.324;  126.156;  -12.460;  923.140
970.879;  119.588;  -11.580;  947.180
971.433;  110.674;  -13.130;  952.720
971.987;  100.902;  -12.360;  895.340
972.541;   94.887;  -14.330;  917.100
973.095;   93.099;  -13.310; 1009.460
973.649;   93.360;  -15.830;  809.480
974.203;   96.542;  -15.830;  829.040
974.757;  100.633;  -13.480;  855.220
975.311;  103.317;  -13.720;  872.600
975.865;  105.328;  -15.780;  881.820
976.419;  106.732;  -14.290;  857.400
976.973;  106.249;  -13.210;  849.620
977.526;  104.338;  -12.300;  949.920
978.080;  100.661;  -14.840;  796.780
978.634;  101.444;  -13.100;  921.320
979.187;   98.009;  -12.300;  905.400
979.741;   98.937;  -12.020; 1018.380
980.294;   95.894;  -14.590;  789.160
980.848;   95.245;  -14.390;  717.220
981.401;   95.634;  -14.280;  816.540
981.955;   94.614;  -11.920;  844.300
982.508;   92.728;  -15.790;  746.340
983.061;   92.956;  -12.070;  915.260
983.615;   89.791;  -13.260;  798.800
984.168;   86.824;  -15.540;  770.080
984.721;   88.081;  -13.230;  880.760
985.274;   84.829;  -11.820;  867.500
985.827;   82.870;  -13.510;  834.220
986.380;   81.261;  -14.840;  721.340
986.933;   83.716;  -13.970;  864.800
987.486;   82.501;  -12.450;  861.920
988.039;   80.280;  -11.170;  863.100
988.591;   77.595;  -13.070;  893.260
989.144;   74.166;  -15.530;  737.260
989.697;   73.336;  -14.300;  758.740
990.250;   72.335;  -13.310;  858.100
990.802;   69.307;  -14.490;  755.860
991.355;   71.365;  -12.980;  974.880
991.907;   69.371;  -13.715;  864.320
992.460;   67.378;  -14.450;  753.760
993.012;   65.838;  -12.590;  749.540
993.565;   63.831;  -15.180;  711.360
994.117;   65.540;  -11.630;  950.780
994.669;   62.693;  -13.760;  701.320
995.221;   62.050;  -12.710;  791.920
995.774;   61.595;  -14.620;  787.580
996.326;   60.522;  -13.150;  740.220
996.878;   59.679;  -12.880;  838.420
997.430;   57.278;  -14.580;  699.860
997.982;   57.530;  -14.030;  750.140
998.534;   58.266;  -12.190;  739.060
999.086;   56.325;  -12.990;  738.220
999.638;   54.609;  -13.180;  661.380
1000.190;   53.363;  -14.970;  699.320
1000.741;   52.245;  -12.200;  742.700
1001.293;   50.905;  -13.400;  686.020
1001.845;   48.882;  -14.490;  676.640
1002.396;   50.118;  -15.280;  743.400
1002.948;   48.961;  -12.380;  737.400
1003.500;   48.797;  -13.260;  723.780
1004.051;   49.865;  -13.730;  907.580
1004.603;   50.279;  -12.300;  791.820
1005.154;   45.843;  -15.330;  608.980
1005.705;   45.277;  -12.800;  723.960
1006.257;   45.208;  -13.900;  707.220
1006.808;   44.281;  -14.430;  685.460
1007.359;   43.899;  -12.010;  763.240
1007.910;   42.089;  -12.690;  646.640
1008.461;   41.905;  -13.610;  732.940
1009.013;   40.749;  -14.990;  588.340
1009.564;   42.267;  -11.860;  793.520
1010.115;   39.764;  -12.640;  597.040
1010.665;   39.029;  -14.570;  602.160
1011.216;   40.327;  -15.190;  667.920
1011.767;   39.305;  -13.470;  697.920
1012.318;   39.813;  -13.760;  736.980
1012.869;   38.344;  -15.950;  679.000
1013.419;   38.168;  -15.880;  603.120
1013.970;   38.583;  -14.540;  666.640
1014.521;   37.257;  -13.220;  620.620
1015.071;   37.122;  -15.020;  670.380
1015.622;   36.489;  -17.510;  635.460
1016.172;   36.065;  -14.130;  596.820
1016.723;   36.494;  -14.220;  614.380
1017.273;   35.426;  -15.370;  604.160
1017.823;   36.526;  -15.290;  650.340
1018.374;   35.587;  -13.420;  611.760
1018.924;   35.708;  -11.740;  716.880
1019.474;   36.226;  -12.250;  718.880
1020.024;   34.553;  -15.850;  657.580
1020.574;   35.894;  -13.280;  726.160
1021.124;   35.590;  -13.560;  673.580
1021.674;   33.068;  -13.790;  559.120
1022.224;   34.751;  -14.610;  708.940
1022.774;   33.996;  -13.100;  668.820
1023.324;   35.102;  -11.470;  753.520
1023.874;   35.285;  -11.990;  875.760
1024.423;   32.996;  -14.550;  613.700
1024.973;   33.011;  -14.440;  610.760
1025.523;   32.803;  -13.250;  620.960
1026.072;   31.716;  -15.200;  606.420
1026.622;   31.625;  -14.590;  675.740
1027.172;   33.550;  -11.080;  715.660
1027.721;   30.898;  -14.010;  601.220
1028.270;   31.872;  -13.690;  663.400
1028.820;   31.334;  -15.380;  638.080
1029.369;   30.977;  -14.980;  612.700
1029.918;   31.239;  -13.100;  649.840
1030.468;   30.065;  -13.680;  564.780
1031.017;   31.010;  -13.770;  634.800
1031.566;   30.534;  -14.100;  608.900
1032.115;   31.106;  -11.770;  694.500
1032.664;   29.338;  -14.940;  596.480
1033.213;   30.884;  -13.370;  735.420
1033.762;   28.951;  -13.660;  635.620
1034.311;   29.629;  -13.650;  677.220
1034.860;   28.778;  -13.820;  691.000
1035.408;   29.498;  -12.860;  722.720
1035.957;   29.884;  -13.060;  719.540
1036.506;   26.516;  -14.510;  530.800
1037.055;   29.925;  -13.470;  844.320
1037.603;   28.380;  -14.800;  664.000
1038.152;   26.704;  -14.190;  534.760
1038.700;   28.032;  -11.810;  585.740
1039.249;   26.413;  -12.850;  681.220
1039.797;   27.296;  -14.610;  633.360
1040.345;   27.295;  -15.220;  705.420
1040.894;   26.890;  -13.480;  625.300
1041.442;   26.307;  -13.310;  632.200
1041.990;   25.361;  -14.510;  559.160
1042.538;   25.047;  -15.700;  536.180
1043.087;   25.729;  -13.910;  570.860
1043.635;   26.103;  -13.620;  670.500
1044.183;   25.055;  -14.230;  586.400
1044.731;   25.538;  -13.730;  576.000
1045.279;   25.278;  -13.970;  674.920
1045.827;   27.405;  -10.750;  892.400
1046.374;   23.841;  -15.230;  515.420
1046.922;   24.326;  -15.390;  590.580
1047.470;   25.379;  -12.320;  691.300
1048.018;   24.443;  -13.230;  647.960
1048.565;   25.634;  -13.390;  708.600
1049.113;   23.791;  -15.030;  557.000
1049.660;   23.850;  -12.540;  629.660
1050.208;   23.910;  -15.040;  675.640
1050.755;   23.907;  -14.680;  606.580
1051.303;   24.015;  -13.610;  686.820
1051.850;   23.518;  -14.340;  635.120
1052.397;   21.021;  -16.330;  473.960
1052.945;   22.685;  -15.710;  617.760
1053.492;   23.595;  -12.320;  741.840
1054.039;   23.710;  -13.730;  720.180
1054.586;   21.553;  -16.140;  557.240
1055.133;   22.980;  -14.020;  693.140
1055.680;   23.720;  -13.430;  646.620
1056.227;   21.296;  -14.570;  542.780
1056.774;   23.187;  -14.400;  794.980
1057.321;   21.307;  -14.230;  523.260
1057.868;   21.672;  -14.220;  651.320
1058.415;   21.381;  -14.060;  651.980
1058.961;   21.538;  -14.640;  678.940
1059.508;   21.876;  -13.970;  643.820
1060.055;   20.620;  -15.100;  581.780
1060.601;   21.674;  -12.180;  624.300
1061.148;   20.118;  -15.010;  616.820
1061.694;   19.769;  -14.750;  592.580
1062.241;   20.664;  -14.130;  596.320
1062.787;   20.852;  -14.770;  663.140
1063.334;   21.971;  -13.130;  808.560
1063.880;   21.030;  -14.420;  668.360
1064.426;   20.526;  -13.130;  706.820
1064.972;   19.612;  -13.960;  601.340
1065.518;   18.329;  -13.680;  566.640
1066.065;   19.691;  -15.720;  624.460
1066.611;   18.536;  -13.970;  598.800
1067.157;   19.255;  -13.920;  641.860
1067.703;   18.560;  -14.760;  668.480
1068.249;   18.419;  -14.490;  605.220
1068.794;   18.817;  -14.740;  626.880
1069.340;   18.009;  -13.220;  578.960
1069.886;   18.662;  -14.930;  590.700
1070.432;   17.716;  -14.700;  541.720
1070.977;   18.299;  -14.470;  601.080
1071.523;   17.792;  -14.330;  573.060
1072.068;   17.549;  -14.960;  582.000
1072.614;   17.420;  -16.220;  527.760
1073.160;   18.440;  -11.280;  687.040
1073.705;   17.159;  -15.990;  572.520
1074.250;   17.118;  -16.550;  559.900
1074.796;   18.120;  -14.600;  655.160
1075.341;   17.704;  -13.440;  664.100
1075.886;   16.882;  -14.450;  594.240
1076.431;   16.440;  -13.160;  649.880
1076.976;   16.787;  -14.710;  639.220
1077.521;   16.479;  -14.000;  583.080
1078.067;   16.399;  -14.470;  579.400
1078.612;   16.306;  -14.530;  661.620
1079.156;   15.848;  -15.660;  601.540
1079.701;   16.465;  -16.120;  693.260
1080.246;   16.869;  -12.960;  696.300
1080.791;   15.822;  -13.700;  625.020
1081.336;   16.221;  -15.540;  659.320
1081.880;   15.869;  -14.640;  649.680
1082.425;   15.153;  -14.220;  573.480
1082.970;   16.960;  -11.890;  717.040
1083.514;   15.274;  -13.820;  597.000
1084.059;   14.693;  -14.280;  586.720
1084.603;   14.661;  -12.890;  565.840
1085.147;   14.874;  -13.590;  645.220
1085.692;   16.124;  -14.050;  716.800
1086.236;   13.014;  -14.990;  503.140
1086.780;   16.040;  -12.640;  751.440
1087.325;   14.721;  -15.550;  654.620
1087.869;   14.606;  -14.980;  610.700
1088.413;   15.618;  -13.440;  705.040
1088.957;   12.707;  -12.170;  543.400
1089.501;   14.989;  -12.730;  766.640
1090.045;   14.455;  -14.650;  726.480
1090.589;   11.865;  -14.500;  569.920
1091.133;   13.909;  -12.320;  673.340
1091.676;   13.096;  -16.130;  591.940
1092.220;   12.535;  -13.930;  600.920
1092.764;   14.450;  -12.820;  706.960
1093.307;   13.242;  -11.700;  673.780
1093.851;   12.322;  -15.600;  556.540
1094.395;   12.887;  -13.920;  683.140
1094.938;   12.325;  -16.090;  632.520
1095.482;   13.107;  -13.820;  559.800
1096.025;   13.150;  -12.720;  710.880
1096.568;   14.365;  -12.100;  779.280
1097.112;   10.218;  -15.450;  508.180
1097.655;   12.471;  -14.310;  603.000
1098.198;   10.493;  -14.740;  600.180
1098.741;   11.118;  -15.550;  612.860
1099.285;   11.863;  -12.600;  657.300
1099.828;   10.168;  -15.050;  439.400
1100.371;   11.086;  -14.800;  608.160
1100.914;   11.562;  -16.480;  682.660
1101.457;   11.839;  -12.990;  679.900
1101.999;   10.099;  -14.110;  584.680
1102.542;   11.672;  -11.450;  641.440
1103.085;   10.520;  -13.350;  658.500
1103.628;   11.707;  -13.200;  762.060
1104.170;    9.518;  -12.310;  588.280
1104.713;   10.775;  -14.320;  646.700
1105.256;   10.246;  -16.110;  557.440
1105.798;    9.499;  -15.910;  499.980
1106.341;   11.867;  -12.200;  728.900
1106.883;    9.153;  -14.910;  521.340
1107.425;   10.541;  -14.960;  668.180
1107.968;    9.577;  -13.440;  612.380
1108.510;   10.412;  -14.010;  684.960
1109.052;    8.477;  -15.430;  612.620
1109.594;    8.703;  -15.290;  554.440
1110.136;   10.318;  -13.360;  643.220
1110.679;    8.746;  -13.820;  633.080
1111.221;    9.464;  -13.690;  604.460
1111.763;    8.335;  -14.890;  559.220
1112.304;    8.740;  -14.550;  547.140
1112.846;    9.299;  -12.760;  666.240
1113.388;   11.929;  -10.780;  942.180
1113.930;    8.825;  -12.690;  694.200
1114.472;    8.618;  -15.730;  606.540
1115.013;    7.637;  -14.620;  551.280
1115.555;    7.436;  -14.950;  587.100
1116.097;    7.494;  -16.460;  579.480
1116.638;    8.519;  -13.730;  684.600
1117.180;    8.957;  -13.810;  667.740
1117.721;    6.889;  -13.280;  568.580
1118.262;    8.198;  -15.080;  677.960
1118.804;    9.021;  -14.040;  637.340
1119.345;    7.632;  -15.430;  578.400
1119.886;    8.330;  -15.240;  704.040
1120.427;    7.183;  -15.820;  589.020
1120.969;    7.466;  -14.550;  597.920
1121.510;    6.400;  -14.030;  563.060
1122.051;    7.686;  -11.990;  723.580
1122.592;    6.883;  -16.490;  655.420
1123.133;    5.671;  -15.580;  547.940
1123.673;    7.235;  -12.850;  706.480
1124.214;    6.162;  -13.630;  612.460
1124.755;    7.417;  -14.830;  639.460
1125.296;    6.708;  -13.110;  627.320
1125.836;    7.495;  -11.320;  691.500
1126.377;    6.151;  -14.330;  599.660
1126.918;    6.876;  -12.800;  614.980
1127.458;    6.183;  -13.580;  622.220
1127.999;    7.236;  -10.330;  656.980
1128.539;    6.614;  -13.390;  694.240
1129.079;    5.461;  -16.420;  632.720
1129.620;    5.187;  -15.700;  558.100
1130.160;    5.247;  -14.790;  539.480
1130.700;    5.762;  -12.910;  640.840
1131.240;    5.975;  -15.610;  643.700
1131.781;    5.164;  -12.920;  619.680
1132.321;    4.962;  -15.300;  599.120
1132.861;    4.292;  -14.760;  564.200
1133.401;    4.268;  -15.470;  593.940
1133.941;    5.377;  -13.710;  626.280
1134.481;    5.169;  -11.820;  597.580
1135.020;    3.499;  -14.810;  609.160
1135.560;    5.051;  -13.660;  674.940
1136.100;    3.447;  -13.940;  501.160
1136.640;    3.636;  -15.410;  510.480
1137.179;    3.815;  -16.920;  537.960
1137.719;    4.511;  -16.430;  605.400
1138.258;    4.178;  -16.300;  587.360
1138.798;    4.708;  -13.710;  663.780
1139.337;    2.944;  -13.840;  482.840
1139.877;    4.383;  -16.140;  642.360
1140.416;    6.636;  -11.410;  878.060
1140.955;    2.646;  -12.820;  535.380
1141.494;    3.651;  -12.310;  669.280
1142.034;    3.483;  -16.280;  583.520
1142.573;    5.155;  -13.090;  646.280
1143.112;    3.920;  -13.770;  553.480
1143.651;    2.649;  -15.830;  536.480
1144.190;    4.176;  -15.010;  691.640
1144.729;    2.895;  -13.650;  607.420
1145.267;    3.502;  -13.670;  584.900
1145.806;    3.995;  -13.630;  637.040
1146.345;    2.655;  -14.160;  635.020
1146.884;    2.787;  -11.180;  622.500
1147.422;    2.398;  -15.890;  533.060
1147.961;    3.796;  -12.760;  708.460
1148.500;    3.177;  -15.220;  669.720
1149.038;    3.818;  -13.720;  632.500
1149.577;    2.932;  -13.250;  698.640
1150.115;    0.358;  -16.790;  452.280
1150.653;    2.591;  -15.810;  607.340
1151.192;    2.875;  -14.730;  552.920
1151.730;    2.343;  -13.660;  652.560
1152.268;    1.766;  -15.120;  589.520
1152.806;    1.954;  -15.580;  571.180
1153.344;    1.204;  -16.210;  577.640
1153.882;    2.937;  -12.810;  600.060
1154.421;    0.077;  -14.150;  470.620
1154.958;    1.539;  -15.360;  595.240
1155.496;    2.898;  -14.710;  645.280
1156.034;    2.679;  -13.640;  721.880
1156.572;    2.215;  -13.740;  667.060
1157.110;    0.425;  -16.960;  473.940
1157.647;    2.327;  -11.940;  676.960
1158.185;    0.950;  -14.090;  564.320
1158.723;    0.109;  -13.610;  509.200
1159.260;    1.313;  -14.760;  701.700
1159.798;    2.061;  -13.700;  658.160
1160.335;    1.518;  -13.820;  631.820

