
Integration time [ms]:   3.276
Averaging Nr. [scans]: 1000
Smoothing Nr. [pixels]: 0
Data measured with spectrometer [name]: 7414430SP
Wave   ;Sample   ;Dark     ;Reference
[nm]   ;[counts] ;[counts] ;[counts] 

288.544;  151.518;    7.793;  793.890
289.143;  155.033;    7.462;  681.602
289.742;  155.168;    8.602;  828.814
290.341;  140.849;    1.321;  789.841
290.940;  129.743;   -0.709;  730.702
291.538;  131.631;    0.881;  881.108
292.137;  131.703;    0.122;  792.581
292.736;  135.853;   -1.929;  975.101
293.335;  132.996;   -8.229;  735.086
293.934;  132.413;   -5.279;  781.677
294.532;  130.728;   -1.369; 1031.958
295.131;  116.813;   -7.641;  834.394
295.730;  117.589;   -8.420;  809.588
296.328;  115.797;   -5.611;  783.442
296.927;  117.392;   -5.781;  779.652
297.525;  117.622;   -6.361;  781.236
298.124;  108.066;  -11.382;  654.009
298.722;  111.688;   -7.641;  761.933
299.321;  109.989;   -6.811;  708.597
299.919;  107.831;   -6.991;  751.918
300.518;  104.831;  -10.362;  689.338
301.116;  107.671;   -9.581;  691.381
301.715;  106.411;   -4.891;  730.222
302.313;  105.018;   -8.801;  704.943
302.911;  101.310;   -8.522;  733.830
303.509;  105.814;   -6.171;  925.627
304.108;  103.827;   -7.311;  760.383
304.706;  103.086;   -8.321;  801.664
305.304;   97.365;  -10.222;  796.707
305.902;  102.695;   -6.021;  784.484
306.500;   98.216;   -4.971;  728.200
307.098;   96.259;   -7.061;  746.560
307.696;   95.865;   -8.801;  780.432
308.294;   94.650;   -6.411;  731.359
308.892;   97.356;   -2.901;  759.769
309.490;   93.763;   -5.041;  712.161
310.088;   91.817;   -5.002;  788.444
310.686;   95.781;   -2.041;  821.749
311.284;   92.000;   -2.351;  766.040
311.882;   89.312;   -4.422;  731.225
312.480;   86.692;   -4.192;  697.167
313.078;   88.270;   -1.172;  808.331
313.675;   87.915;   -2.601;  691.600
314.273;   83.286;   -1.312;  797.837
314.871;   83.056;   -3.942;  589.829
315.468;   80.043;   -2.802;  652.090
316.066;   83.975;   -0.701;  694.427
316.664;   76.441;   -4.362;  656.351
317.261;   80.032;   -2.872;  910.128
317.859;   75.983;   -2.022;  768.735
318.456;   76.805;   -0.531;  830.096
319.054;   72.799;   -3.912;  787.828
319.651;   71.760;   -4.752;  759.928
320.249;   70.410;   -2.602;  810.188
320.846;   68.292;   -0.821;  714.286
321.443;   66.136;   -4.642;  832.135
322.041;   62.051;   -5.002;  812.315
322.638;   59.902;   -3.982;  701.456
323.235;   61.554;   -3.411;  665.683
323.833;   59.141;   -7.361;  740.354
324.430;   53.938;   -8.611;  615.900
325.027;   54.944;   -4.061;  876.855
325.624;   54.929;   -4.031;  644.532
326.221;   51.431;   -7.481;  689.717
326.818;   51.394;   -5.281;  818.332
327.415;   54.142;   -7.460;  748.828
328.012;   53.672;   -5.510;  690.585
328.609;   52.446;   -7.880;  731.389
329.206;   50.132;   -8.331;  778.621
329.803;   50.771;   -5.121;  737.841
330.400;   52.950;   -4.510;  704.260
330.997;   54.093;   -6.441;  817.147
331.594;   52.619;   -8.831;  788.185
332.191;   59.012;   -7.621;  728.722
332.787;   61.390;   -4.591;  844.463
333.384;   59.265;   -7.412;  763.093
333.981;   59.138;   -8.293;  815.687
334.578;   61.818;   -7.052;  708.378
335.174;   64.861;   -3.102;  731.469
335.771;   63.897;   -5.943;  836.456
336.367;   61.744;   -7.393;  710.631
336.964;   64.197;   -4.063;  793.266
337.561;   62.496;   -3.813;  731.112
338.157;   58.667;   -4.654;  911.916
338.754;   55.886;   -7.934;  796.589
339.350;   54.779;   -4.414;  722.493
339.946;   55.923;   -4.664;  773.135
340.543;   47.222;   -6.375;  846.136
341.139;   41.755;   -9.815;  720.836
341.735;   39.751;   -4.526;  772.593
342.332;   38.702;   -4.895;  691.472
342.928;   39.556;   -4.295;  795.394
343.524;   32.459;   -5.476;  761.684
344.120;   29.169;   -5.856;  738.562
344.716;   32.436;   -2.155;  723.717
345.313;   30.298;   -6.275;  795.342
345.909;   24.979;   -8.815;  627.336
346.505;   27.017;   -5.305;  740.247
347.101;   27.716;   -2.674;  827.864
347.697;   26.894;   -4.344;  785.398
348.293;   21.888;   -9.975;  627.244
348.889;   23.477;   -5.774;  745.914
349.485;   22.246;   -5.004;  688.205
350.081;   22.917;   -4.704;  772.592
350.676;   18.451;   -6.635;  691.606
351.272;   22.541;   -4.504;  809.530
351.868;   21.896;   -3.914;  780.497
352.464;   19.346;   -9.044;  723.932
353.059;   15.974;   -8.314;  646.017
353.655;   18.608;   -7.024;  777.063
354.251;   20.032;   -5.343;  759.845
354.846;   15.275;   -8.604;  740.646
355.442;   12.560;   -6.945;  753.071
356.038;   14.545;   -7.564;  751.708
356.633;   14.384;   -5.814;  728.594
357.229;   12.263;   -7.364;  724.757
357.824;   10.434;   -8.024;  703.600
358.420;    9.953;   -9.384;  679.726
359.015;   10.385;   -5.104;  695.357
359.610;   11.134;   -6.854;  763.920
360.206;    5.620;  -10.185;  603.240
360.801;    7.613;   -7.054;  646.503
361.396;   10.629;   -5.034;  725.975
361.992;    5.531;   -8.284;  668.220
362.587;    3.677;   -8.625;  670.160
363.182;    5.604;   -7.674;  689.631
363.777;    5.484;   -5.164;  738.242
364.372;    5.420;   -8.604;  737.314
364.967;    1.428;   -9.055;  680.744
365.563;    6.434;   -6.114;  815.567
366.158;    2.877;   -5.814;  685.161
366.753;    2.954;   -7.854;  649.263
367.348;    1.834;   -7.804;  746.056
367.942;    1.344;   -7.954;  697.298
368.537;    0.661;   -4.984;  754.245
369.132;    1.273;   -8.564;  703.428
369.727;   -2.991;   -8.855;  638.079
370.322;   -1.453;   -6.245;  580.186
370.917;   -2.438;   -6.425;  710.646
371.511;    0.584;   -6.294;  861.834
372.106;   -3.147;   -7.685;  776.964
372.701;   -6.241;   -7.335;  585.988
373.296;   -0.242;   -4.564;  863.135
373.890;   -4.694;  -10.235;  647.840
374.485;   -7.649;   -7.885;  691.199
375.079;   -3.385;   -7.324;  738.685
375.674;   -1.950;   -3.494;  812.970
376.268;   -7.026;   -8.525;  691.759
376.863;  -12.268;  -10.086;  580.327
377.457;   -5.956;   -7.025;  662.490
378.052;   -7.316;   -3.585;  764.884
378.646;   -8.434;   -7.595;  741.167
379.240;   -8.701;   -8.335;  721.176
379.835;   -8.584;   -5.785;  636.978
380.429;   -9.958;   -4.335;  562.557
381.023;  -10.127;   -6.805;  779.205
381.617;  -12.897;   -9.195;  680.106
382.212;   -9.132;   -6.905;  685.303
382.806;   -8.406;   -3.745;  760.690
383.400;  -12.404;   -7.745;  672.281
383.994;  -13.175;   -9.765;  664.870
384.588;   -9.793;   -6.564;  697.701
385.182;   -8.708;   -5.344;  726.624
385.776;  -10.422;   -8.514;  706.875
386.370;  -13.455;   -9.555;  681.968
386.964;  -11.595;   -8.715;  684.155
387.558;  -10.211;   -6.174;  598.360
388.152;  -14.070;   -8.725;  681.959
388.745;  -11.911;   -7.965;  814.707
389.339;  -10.453;   -5.924;  747.642
389.933;   -9.757;   -5.524;  695.370
390.527;  -10.179;   -7.114;  859.029
391.120;  -16.655;  -10.725;  595.318
391.714;  -13.608;   -8.035;  711.633
392.308;  -10.362;   -3.574;  780.253
392.901;  -14.193;   -7.245;  642.460
393.495;  -15.903;   -9.285;  595.414
394.089;  -13.568;   -5.895;  760.452
394.682;  -13.951;   -4.295;  697.188
395.275;  -14.921;   -9.875;  719.927
395.869;  -16.054;   -8.485;  667.314
396.462;  -14.628;   -7.455;  616.609
397.056;  -10.971;   -5.424;  776.621
397.649;  -14.883;   -6.605;  731.575
398.242;  -13.361;   -8.224;  712.645
398.836;  -12.480;   -7.474;  766.408
399.429;  -13.259;   -7.094;  631.041
400.022;  -16.821;   -9.475;  665.902
400.615;  -14.242;   -7.145;  805.609
401.208;  -12.293;   -7.174;  691.451
401.802;  -14.108;   -5.515;  699.329
402.395;  -16.458;   -9.875;  683.502
402.988;  -16.351;   -8.845;  696.627
403.581;  -13.778;   -8.874;  646.878
404.174;  -10.893;   -5.324;  686.568
404.767;  -14.659;   -9.575;  638.583
405.360;  -16.566;  -10.965;  621.445
405.953;  -11.338;   -8.764;  759.034
406.545;  -10.779;   -7.514;  725.342
407.138;  -15.029;  -10.025;  618.350
407.731;  -13.908;  -10.034;  613.303
408.324;  -10.110;   -9.374;  660.554
408.917;  -10.825;   -6.534;  681.864
409.509;  -12.273;   -8.004;  740.396
410.102;  -14.273;   -9.875;  643.948
410.695;   -8.989;   -8.604;  665.758
411.287;   -9.707;   -6.794;  599.821
411.880;  -11.294;   -9.334;  585.421
412.472;  -14.039;  -10.254;  613.092
413.065;  -11.574;   -6.714;  629.408
413.657;   -9.334;   -7.234;  576.678
414.250;   -8.886;  -10.544;  646.681
414.842;  -10.619;   -9.744;  676.353
415.434;   -8.817;   -6.994;  570.463
416.027;   -4.434;   -5.893;  652.196
416.619;   -6.148;   -7.264;  713.400
417.211;   -7.052;  -10.374;  599.352
417.804;   -3.437;   -7.993;  628.499
418.396;   -7.527;   -7.234;  607.643
418.988;   -5.906;   -9.443;  659.238
419.580;   -8.534;  -10.724;  568.276
420.172;   -5.796;  -10.323;  536.196
420.764;   -2.104;   -8.793;  672.482
421.356;   -3.957;  -11.143;  636.898
421.948;   -3.340;   -8.293;  677.661
422.540;    0.999;   -7.893;  680.027
423.132;   -0.086;   -7.082;  600.641
423.724;   -3.319;   -8.653;  561.267
424.316;   -1.409;  -10.213;  621.345
424.908;    2.247;   -9.762;  591.517
425.500;    3.758;   -5.572;  647.978
426.092;    3.414;   -8.422;  648.268
426.683;    2.594;   -9.283;  684.836
427.275;    4.934;   -7.852;  641.471
427.867;    6.913;   -5.272;  668.948
428.458;    6.791;   -7.682;  732.344
429.050;    6.078;  -10.612;  680.749
429.642;    7.570;   -9.882;  743.124
430.233;    8.946;   -6.962;  569.356
430.825;    9.650;   -6.842;  724.809
431.416;    7.299;   -9.672;  698.241
432.008;   11.608;   -6.552;  651.723
432.599;   12.171;   -6.891;  656.073
433.190;    8.777;  -10.912;  637.670
433.782;    7.572;  -11.172;  590.395
434.373;   14.661;   -6.061;  884.765
434.964;   13.913;   -8.251;  602.920
435.556;   11.566;   -9.722;  634.537
436.147;   14.700;   -9.082;  758.490
436.738;   14.567;   -8.041;  701.099
437.329;   20.318;   -7.341;  721.723
437.920;   12.132;   -8.162;  666.688
438.511;   12.284;  -11.802;  564.526
439.103;   18.966;  -10.191;  623.998
439.694;   20.578;   -7.601;  681.583
440.285;   21.656;   -8.541;  764.432
440.876;   19.641;   -9.751;  845.738
441.466;   18.549;   -9.401;  575.162
442.057;   24.629;   -7.760;  665.814
442.648;   22.792;   -9.971;  746.255
443.239;   21.336;  -11.001;  620.477
443.830;   25.738;   -7.990;  704.958
444.421;   28.551;   -7.910;  655.474
445.011;   24.713;   -8.131;  693.619
445.602;   24.073;   -7.111;  743.126
446.193;   26.643;  -10.920;  488.117
446.783;   30.871;   -6.500;  640.397
447.374;   25.411;   -8.671;  692.759
447.964;   26.880;  -10.781;  713.770
448.555;   35.801;   -9.650;  822.742
449.145;   32.099;   -8.660;  662.853
449.736;   32.417;   -8.990;  803.179
450.326;   32.428;   -9.500;  713.626
450.917;   37.765;   -8.680;  675.324
451.507;   36.929;   -7.520;  600.661
452.097;   37.262;   -8.590;  746.267
452.688;   38.184;  -11.340;  742.160
453.278;   38.522;  -10.100;  566.840
453.868;   41.868;   -6.019;  793.550
454.458;   40.508;   -9.440;  651.141
455.048;   40.392;  -10.560;  711.783
455.639;   42.245;  -11.799;  567.096
456.229;   46.004;   -6.899;  710.694
456.819;   47.707;   -7.389;  751.158
457.409;   47.750;  -11.119;  773.993
457.999;   51.286;   -9.289;  737.505
458.589;   51.080;   -6.139;  686.606
459.179;   50.082;   -8.729;  717.658
459.769;   49.153;   -9.789;  627.099
460.358;   53.449;  -10.259;  797.262
460.948;   53.135;   -7.299;  689.503
461.538;   54.786;  -10.289;  660.677
462.128;   52.758;  -11.269;  664.934
462.717;   59.536;   -9.368;  710.326
463.307;   63.090;   -7.908;  705.846
463.897;   57.953;   -9.599;  656.942
464.486;   57.584;   -9.769;  837.128
465.076;   62.190;   -8.048;  733.776
465.666;   65.269;   -9.358;  652.900
466.255;   63.070;   -7.919;  785.651
466.845;   61.958;  -11.689;  666.749
467.434;   65.820;   -7.818;  725.873
468.023;   66.990;   -7.678;  658.357
468.613;   64.179;  -10.939;  713.946
469.202;   68.330;  -10.118;  646.507
469.791;   72.540;   -9.108;  737.811
470.381;   74.366;   -6.058;  742.813
470.970;   74.326;  -10.428;  711.099
471.559;   74.355;  -10.268;  733.291
472.148;   77.428;   -8.448;  675.737
472.738;   80.271;   -6.917;  765.466
473.327;   79.182;  -11.978;  637.529
473.916;   79.239;  -11.888;  737.446
474.505;   83.013;   -9.437;  751.703
475.094;   85.894;   -6.747;  806.570
475.683;   85.945;   -9.367;  797.699
476.272;   86.506;  -12.637;  730.632
476.861;   89.296;  -10.027;  706.754
477.449;   95.919;   -8.716;  728.487
478.038;   90.154;   -9.577;  692.513
478.627;   91.204;   -9.718;  714.852
479.216;   97.351;   -8.947;  769.441
479.805;  100.397;   -6.256;  783.375
480.393;  100.655;   -7.937; 1008.945
480.982;   99.441;   -7.717;  874.501
481.571;  106.085;   -9.266;  858.333
482.159;  105.821;   -7.636;  705.386
482.748;  106.372;   -9.667;  821.385
483.336;  111.504;  -10.376;  858.209
483.925;  110.931;   -7.147;  774.373
484.513;  118.267;   -7.996;  758.962
485.102;  114.149;  -10.027;  810.965
485.690;  123.476;  -10.446; 1011.050
486.278;  125.518;   -8.446;  979.329
486.867;  126.561;   -6.356;  809.662
487.455;  127.613;   -9.136;  898.229
488.043;  129.220;  -10.646;  748.361
488.631;  137.143;   -7.456; 1005.079
489.220;  141.454;   -6.636;  908.626
489.808;  141.304;  -11.036;  741.415
490.396;  149.704;  -10.246;  914.645
490.984;  156.290;   -8.556;  830.161
491.572;  165.034;   -5.886;  940.315
492.160;  170.863;   -9.486;  919.081
492.748;  183.280;  -10.976;  884.341
493.336;  206.527;   -8.776; 1019.693
493.924;  232.550;   -5.465;  958.077
494.512;  261.213;   -9.986; 1066.638
495.100;  297.543;  -10.636; 1103.280
495.687;  350.921;  -10.885; 1206.373
496.275;  409.614;   -8.126; 1150.796
496.863;  474.967;  -10.586; 1281.171
497.451;  570.810;  -11.926; 1386.805
498.038;  704.468;  -10.885; 1556.729
498.626;  810.877;   -6.315; 1741.407
499.214;  954.536;   -7.326; 2016.609
499.801; 1138.712;  -11.906; 2220.633
500.389; 1372.424;  -10.466; 2312.494
500.976; 1678.695;   -5.236; 2744.849
501.564; 2087.502;   -8.936; 3148.565
502.151; 2441.932;  -13.176; 3515.999
502.738; 2877.446;  -10.646; 3971.274
503.326; 3251.551;   -9.525; 4403.796
503.913; 3626.520;  -10.856; 5161.749
504.500; 3939.482;  -11.586; 5986.420
505.088; 4386.438;  -10.336; 6381.201
505.675; 4907.928;   -6.355; 6925.547
506.262; 5521.875;   -9.046; 7619.060
506.849; 6215.293;  -10.416; 8733.969
507.436; 6696.859;  -10.305; 9790.121
508.023; 7262.870;   -5.496; 9985.472
508.610; 7497.271;   -7.856;10434.618
509.197; 8106.318;  -10.097;11198.435
509.784; 9408.297;  -10.886;12391.194
510.371;10425.417;   -9.315;13603.713
510.958;11173.842;   -9.936;14426.586
511.545;11884.734;   -9.326;15243.775
512.132;12734.500;  -10.075;15945.876
512.719;13278.383;   -7.796;16340.369
513.305;14193.003;  -10.606;18011.766
513.892;15026.304;  -11.486;19754.971
514.479;16365.215;   -9.126;20967.805
515.066;17793.881;   -6.026;22299.793
515.652;18952.975;   -8.466;22908.660
516.239;20048.852;  -10.886;23798.875
516.825;21032.182;  -11.496;25567.275
517.412;22008.748;   -5.796;28154.959
517.998;22871.369;  -10.506;28344.111
518.585;22946.029;  -10.076;27134.219
519.171;23218.967;   -8.315;27268.576
519.758;24485.059;   -8.596;28964.129
520.344;26362.963;   -8.466;30664.494
520.930;26487.137;  -11.006;32550.605
521.516;27743.219;  -10.495;35422.895
522.103;30167.896;   -5.526;38280.004
522.689;30872.578;   -8.746;37835.117
523.275;30565.174;  -11.376;37288.613
523.861;31517.131;  -11.156;37281.395
524.447;32580.852;   -8.135;37846.949
525.033;31883.902;   -7.896;38321.949
525.619;31891.803;  -12.476;38579.285
526.205;32793.020;   -9.516;40622.875
526.791;33946.195;   -6.926;42258.836
527.377;31249.701;   -8.346;42966.902
527.963;31801.877;   -8.717;42018.949
528.549;33566.973;  -11.016;42476.828
529.135;35241.691;   -8.536;41854.852
529.721;36165.543;   -9.666;41237.711
530.306;36142.043;  -10.066;41259.445
530.892;36312.152;  -11.356;41506.047
531.478;37586.273;   -6.596;43559.613
532.063;40084.035;   -8.836;47695.563
532.649;40556.625;  -10.047;50808.324
533.235;41337.789;   -9.746;51787.500
533.820;42270.043;   -6.566;52145.035
534.406;43137.840;  -10.817;51133.488
534.991;42627.637;   -9.416;49996.805
535.576;41103.605;   -9.036;48882.852
536.162;41278.410;   -6.156;46942.285
536.747;41872.480;  -11.607;45711.746
537.333;44021.625;  -11.787;48510.180
537.918;45761.148;  -12.437;50439.891
538.503;42319.598;   -7.196;50863.711
539.088;36564.051;  -10.556;50906.922
539.673;35564.973;   -8.767;52621.965
540.259;38297.078;  -10.026;52368.094
540.844;40214.809;   -7.416;50879.109
541.429;44062.422;   -9.467;52077.777
542.014;48657.789;   -9.527;52716.695
542.599;48869.387;   -9.946;52363.281
543.184;45678.086;   -7.927;53187.137
543.769;46389.477;   -9.297;54697.605
544.354;46239.773;  -10.127;53913.914
544.938;45297.637;   -9.267;49680.164
545.523;47283.930;   -6.506;47386.277
546.108;49550.930;   -9.787;49151.949
546.693;51834.898;  -11.587;51384.637
547.278;51897.879;  -10.986;51853.254
547.862;48730.641;   -8.206;51173.750
548.447;43941.332;  -10.067;51691.395
549.031;43177.414;   -9.637;52456.703
549.616;47808.219;   -9.926;52714.516
550.201;46963.359;   -6.347;52414.598
550.785;47754.301;   -7.917;52355.059
551.370;47202.430;  -10.867;54589.453
551.954;47204.621;   -9.047;58267.348
552.538;48511.664;   -7.827;59062.176
553.123;46802.207;  -10.287;58115.285
553.707;44408.250;  -12.178;56556.285
554.291;45166.945;   -8.717;56201.668
554.876;47144.281;   -7.457;55335.762
555.460;47684.223;  -10.387;54155.703
556.044;49323.742;   -9.618;53721.484
556.628;47514.410;  -11.567;53731.016
557.212;46084.754;   -8.097;54312.531
557.796;43983.992;  -11.077;53797.773
558.380;44188.137;  -11.108;56145.984
558.964;45418.383;   -9.057;57277.930
559.548;46557.574;   -6.977;56459.641
560.132;44282.891;  -11.457;54434.543
560.716;42902.656;  -11.378;54800.617
561.300;43750.770;   -9.577;57606.945
561.884;44863.512;   -7.127;58972.445
562.467;43361.078;   -7.118;57327.570
563.051;42785.238;  -13.358;54962.434
563.635;43711.805;  -10.178;52594.473
564.219;44202.422;   -7.837;50610.410
564.802;44865.426;  -11.398;49551.180
565.386;44813.305;  -12.788;48370.953
565.969;44445.863;   -9.077;48178.871
566.553;43120.773;   -6.207;49957.305
567.136;43454.086;   -8.568;50369.594
567.720;39928.973;  -11.868;49492.004
568.303;38302.434;   -8.268;50616.352
568.887;38316.586;   -8.698;50727.148
569.470;38552.523;   -6.808;51698.379
570.053;37674.305;  -13.188;52122.078
570.637;35886.469;  -12.037;52536.438
571.220;35330.652;   -8.577;51186.098
571.803;35643.988;   -8.498;51032.762
572.386;37464.859;  -10.498;49609.887
572.969;40120.133;   -9.388;48285.926
573.552;39027.836;   -8.338;47624.285
574.135;37942.238;   -8.518;45498.641
574.718;35446.883;  -13.628;41970.434
575.301;34197.816;  -10.893;41447.137
575.884;32948.746;   -8.158;40923.836
576.467;34044.656;  -10.328;45267.723
577.050;36012.836;  -13.058;48175.543
577.633;37781.660;   -9.458;47729.328
578.216;36977.613;   -8.928;47579.793
578.799;35872.695;   -9.358;47820.996
579.381;34390.957;  -11.388;48115.551
579.964;32478.443;  -11.718;47333.766
580.547;33913.340;   -8.588;46668.969
581.129;34881.762;   -8.859;44466.141
581.712;35715.055;  -10.729;44164.922
582.294;36474.523;  -11.118;46477.855
582.877;36547.484;   -5.218;48244.254
583.459;34552.590;   -8.679;47437.895
584.042;32631.479;  -10.709;46943.219
584.624;32781.500;  -11.669;46792.227
585.206;32480.568;   -8.218;46557.250
585.789;32603.289;  -10.569;45793.773
586.371;35372.156;  -11.859;43836.391
586.953;36458.695;  -10.719;42972.492
587.536;37322.691;   -7.198;42487.211
588.118;37511.102;   -8.720;42086.414
588.700;33590.430;  -10.439;43389.930
589.282;32540.084;   -9.198;43646.039
589.864;33521.355;   -9.199;43438.109
590.446;34891.867;  -11.319;43151.926
591.028;34808.441;  -11.159;42781.867
591.610;33690.070;  -11.779;42839.098
592.192;30634.568;   -7.668;42820.402
592.774;28928.346;  -11.949;40724.277
593.356;27940.783;  -12.129;39874.789
593.937;27492.313;  -10.669;39980.648
594.519;29544.895;   -6.509;42069.633
595.101;31769.256;  -10.849;42976.031
595.683;32033.295;  -11.679;44084.441
596.264;32949.043;   -9.049;43478.797
596.846;32131.701;   -8.849;43803.672
597.427;31605.783;   -9.570;42986.934
598.009;33276.656;  -12.620;42832.219
598.591;33678.094;  -10.039;42580.086
599.172;32956.086;  -10.369;43061.805
599.753;33006.262;   -9.140;41691.469
600.335;34668.488;  -11.430;40692.520
600.916;33225.160;   -9.939;39982.422
601.498;30787.406;   -8.479;40318.617
602.079;29437.943;  -10.920;40670.609
602.660;29203.133;  -11.480;41450.898
603.241;30397.559;  -11.699;41137.738
603.823;29267.734;   -9.579;38868.797
604.404;28836.297;  -10.620;38182.785
604.985;30344.848;  -10.450;38078.047
605.566;29959.287;   -9.129;38056.633
606.147;29909.516;   -7.510;37020.418
606.728;31933.506;  -10.660;37883.359
607.309;30866.641;  -11.740;38748.273
607.890;30137.982;   -9.759;38850.230
608.471;29831.406;   -8.250;37457.918
609.051;29299.027;   -9.240;36066.457
609.632;28278.375;  -12.120;35991.074
610.213;28928.973;   -9.110;37402.641
610.794;29722.955;   -8.030;38383.363
611.374;29178.607;   -8.110;40562.387
611.955;29697.818;  -13.560;38533.727
612.536;31239.854;  -11.400;36951.789
613.116;30658.332;   -8.070;37197.891
613.697;30867.125;  -10.830;38411.125
614.277;29178.010;  -11.641;38673.938
614.858;30183.607;  -13.310;37075.863
615.438;29867.074;   -7.460;35092.906
616.019;27222.090;   -7.601;33666.301
616.599;27576.160;  -12.020;34189.023
617.179;29561.863;  -11.780;36952.047
617.760;30308.008;   -8.570;39582.574
618.340;31278.811;  -11.471;38943.977
618.920;32829.520;  -11.170;37594.156
619.500;32711.531;  -11.071;37866.938
620.080;31785.643;   -7.750;37869.043
620.660;32656.711;  -12.711;36868.617
621.241;33727.125;  -10.211;36352.309
621.821;33859.938;  -10.961;35459.520
622.401;33360.684;   -7.720;35207.414
622.980;32429.480;   -8.981;35980.422
623.560;30831.701;   -9.331;37351.328
624.140;29872.107;   -9.850;34388.582
624.720;25177.939;   -7.451;32368.764
625.300;21605.590;   -9.070;32638.629
625.880;24838.645;  -12.601;34599.035
626.459;28642.824;  -11.751;36831.738
627.039;31678.881;   -9.281;38299.098
627.619;31764.018;   -8.801;38289.574
628.198;30010.375;  -12.071;37220.695
628.778;29005.881;   -9.461;37632.563
629.357;29662.801;   -8.491;38003.012
629.937;29736.377;   -9.721;38402.039
630.516;29353.906;   -9.951;37868.801
631.096;29354.713;  -11.731;35760.410
631.675;31901.947;   -8.572;35225.219
632.254;37147.777;  -11.282;35130.289
632.834;36527.422;  -13.322;35794.570
633.413;34695.289;  -10.301;35788.922
633.992;31904.615;   -8.582;34532.863
634.571;32949.680;   -8.352;33590.113
635.151;35739.738;  -11.912;34943.863
635.730;34291.977;  -10.511;35352.523
636.309;30792.699;   -7.731;35366.605
636.888;27998.711;   -9.952;36165.637
637.467;28441.455;  -11.672;37515.902
638.046;30389.691;   -8.901;39288.695
638.625;33683.750;   -7.912;38279.699
639.204;33522.367;  -10.022;37741.598
639.782;31687.465;  -12.252;38364.551
640.361;28013.609;  -10.041;36740.621
640.940;25197.143;  -11.161;34950.082
641.519;25671.844;   -9.701;34137.398
642.097;28151.662;  -11.271;35654.258
642.676;30923.016;   -8.651;35637.957
643.255;32192.578;   -8.711;36567.074
643.833;31459.607;   -9.581;37809.434
644.412;31847.885;  -13.711;37337.293
644.990;31059.695;  -11.811;37018.531
645.569;30763.855;   -9.411;36518.469
646.147;29916.105;  -10.291;36186.430
646.726;29443.941;  -12.401;36267.688
647.304;30542.002;  -10.411;36647.625
647.882;32386.432;   -9.651;39286.742
648.461;34015.621;   -9.631;39157.703
649.039;32473.012;  -11.881;35412.883
649.617;31715.275;   -9.661;34744.918
650.195;31360.355;   -9.301;35403.098
650.773;30311.932;  -10.511;35053.797
651.352;27770.504;  -11.521;33756.816
651.930;25457.660;  -12.211;31868.773
652.508;23925.785;   -9.171;33121.551
653.086;27884.986;   -9.371;33564.793
653.663;31023.449;  -13.161;34054.668
654.241;29611.994;  -13.031;35693.309
654.819;30936.506;   -9.371;36422.906
655.397;30754.490;  -10.511;38213.484
655.975;30543.066;  -10.371;39507.625
656.553;30687.592;  -10.051;39498.223
657.130;28954.910;  -10.061;40395.480
657.708;28299.600;   -9.561;39242.020
658.286;28320.193;  -11.511;38920.020
658.863;29510.766;  -10.261;40202.898
659.441;32426.338;   -7.531;39677.938
660.018;31924.029;   -9.501;40413.355
660.596;30717.572;  -13.301;39931.414
661.173;32487.305;  -11.211;39604.531
661.750;32731.549;   -9.951;39700.070
662.328;31864.646;   -9.390;39292.809
662.905;31103.686;  -11.330;38235.648
663.482;26668.324;   -9.050;36212.305
664.060;24598.412;   -8.240;35944.945
664.637;27385.182;  -10.050;35170.785
665.214;29358.777;  -11.760;34197.523
665.791;31449.127;  -10.530;34549.520
666.368;30093.527;   -9.690;35118.578
666.945;30356.209;   -9.320;36019.418
667.522;31900.072;  -11.860;36048.438
668.099;32081.779;  -10.770;36243.914
668.676;31222.326;   -6.260;35958.875
669.253;29468.826;   -7.000;37384.730
669.830;29785.705;  -10.190;36779.629
670.407;29637.715;   -9.550;35231.289
670.984;29780.930;   -9.260;35544.270
671.560;30289.479;   -9.280;35466.867
672.137;29064.578;  -11.810;34280.863
672.714;29805.180;  -11.490;34632.863
673.290;30391.078;   -7.740;35135.422
673.867;30465.244;  -10.660;36114.480
674.443;30917.301;  -12.230;36152.859
675.020;29227.744;  -10.450;35327.238
675.596;30089.701;   -9.260;35795.176
676.173;30568.051;  -10.780;35430.355
676.749;30128.605;  -13.690;33549.516
677.326;30241.291;  -11.980;32210.012
677.902;30426.510;   -8.630;32068.871
678.478;29675.699;  -10.730;32583.891
679.054;29142.209;  -10.520;32088.928
679.631;29947.930;  -11.920;30978.848
680.207;31092.742;   -7.490;33160.887
680.783;32304.119;   -9.860;35570.363
681.359;31426.029;  -13.380;36125.184
681.935;30661.979;  -12.480;35240.922
682.511;29882.197;   -7.900;34429.961
683.087;29910.721;   -7.710;34463.680
683.663;29568.203;  -11.480;34648.898
684.239;28766.270;  -14.090;34546.457
684.815;28358.127;   -7.560;35586.375
685.390;28623.230;   -9.910;35821.895
685.966;29119.670;  -11.159;35085.871
686.542;31824.887;  -11.169;34198.230
687.118;34040.793;   -5.959;32847.707
687.693;34291.680;  -10.329;32794.027
688.269;33532.848;  -12.059;33072.367
688.844;31318.580;  -10.909;33141.664
689.420;29262.902;   -8.019;33965.742
689.995;27114.629;   -8.399;34655.523
690.571;25838.691;  -10.949;33576.742
691.146;26264.818;   -9.619;32657.219
691.722;25745.486;   -8.999;32526.979
692.297;25394.934;  -11.589;33014.617
692.872;27269.064;  -11.739;34012.254
693.448;26983.277;  -11.059;34237.434
694.023;26183.771;  -10.139;34142.672
694.598;28321.178;   -9.029;34132.031
695.173;28782.000;  -13.319;34205.250
695.748;28206.938;  -10.169;32882.488
696.323;27998.637;   -8.339;32864.906
696.898;27861.770;   -8.169;33170.004
697.473;27859.029;  -12.309;32432.984
698.048;27664.451;  -10.989;31649.303
698.623;27852.223;   -9.329;30778.141
699.198;29605.199;   -9.849;31140.119
699.773;30661.037;  -12.329;31764.299
700.348;29184.549;  -10.389;31780.816
700.922;29178.752;   -9.269;32046.375
701.497;29777.949;   -9.329;32603.574
702.072;29938.627;  -10.789;34799.871
702.646;28956.457;  -10.839;35793.172
703.221;26731.861;   -9.099;35201.590
703.795;28773.229;  -10.939;34764.527
704.370;29337.520;  -12.859;34307.367
704.944;29613.277;  -11.559;33509.887
705.519;30733.486;   -7.939;31388.584
706.093;31860.049;  -10.499;31340.104
706.668;32074.461;  -11.289;32630.281
707.242;30658.875;  -11.509;32728.779
707.816;29034.723;   -9.639;32947.238
708.390;27574.189;  -11.429;33277.855
708.965;28531.238;  -11.869;33834.336
709.539;29101.229;  -11.689;33709.273
710.113;29493.012;  -10.478;33044.313
710.687;28966.186;  -10.228;31953.992
711.261;26805.158;  -13.698;30505.949
711.835;26362.662;  -13.378;30262.369
712.409;27069.725;   -9.698;31254.447
712.983;28798.023;  -11.898;32754.986
713.557;29840.021;  -15.138;34018.824
714.131;29697.158;  -14.098;34579.625
714.704;29006.490;   -9.958;33890.262
715.278;26536.709;  -10.028;33531.102
715.852;25736.109;  -11.148;33601.660
716.425;26502.971;   -9.068;33515.117
716.999;27137.537;  -10.038;33185.555
717.573;28286.352;   -9.798;33905.996
718.146;29593.209;  -12.378;35199.293
718.720;29233.508;  -11.918;35060.551
719.293;28549.467;   -8.088;34973.230
719.867;31413.191;  -10.888;36394.449
720.440;31390.152;  -11.938;36663.008
721.013;29919.414;  -12.818;35102.426
721.587;28627.340;  -10.298;33985.266
722.160;26937.854;  -10.048;33524.965
722.733;25817.477;  -12.108;32987.043
723.306;26350.744;  -10.818;33066.301
723.880;28281.867;   -8.908;33399.500
724.453;30137.957;   -9.878;33468.297
725.026;29353.764;  -11.188;33816.637
725.599;26794.207;  -11.678;32797.996
726.172;27014.074;   -9.618;33187.434
726.745;28340.990;   -8.258;35136.613
727.318;30039.555;  -12.978;35751.730
727.891;30829.094;  -12.148;35890.430
728.463;30611.699;   -8.968;34822.090
729.036;29482.965;  -10.188;32895.086
729.609;29725.951;  -11.788;31823.225
730.182;26480.393;  -11.788;31445.283
730.754;24074.590;  -10.268;32373.223
731.327;24217.572;   -9.998;33676.820
731.900;24247.848;  -12.228;33417.000
732.472;25393.381;  -13.848;31978.498
733.045;27582.572;   -8.698;30368.777
733.617;27556.855;  -10.607;30574.215
734.190;27188.854;  -11.507;31280.975
734.762;24407.000;  -13.647;31674.412
735.334;22642.766;   -9.767;31247.291
735.907;23081.604;   -9.897;29876.211
736.479;22964.496;  -11.637;29808.488
737.051;22633.363;   -9.567;30233.547
737.623;24008.037;   -8.187;31469.086
738.195;24973.121;  -11.187;31784.225
738.768;26642.895;  -12.337;32120.523
739.340;26751.363;  -12.227;32094.342
739.912;25628.779;  -11.057;31312.680
740.484;24475.291;  -10.207;31946.238
741.056;23241.908;  -10.047;32984.059
741.628;24850.123;  -13.627;33897.715
742.199;27289.830;   -7.177;33213.016
742.771;25669.291;  -10.797;31369.113
743.343;23163.885;  -11.997;31865.473
743.915;21987.273;  -12.867;32388.631
744.487;22115.193;   -7.617;31079.568
745.058;22334.408;   -9.557;30570.107
745.630;23056.266;   -9.877;29970.127
746.201;24141.475;  -14.177;29186.766
746.773;24522.828;   -9.237;28805.723
747.344;24429.621;   -9.847;29591.223
747.916;22954.439;  -11.657;31412.201
748.487;22787.201;  -10.587;32194.898
749.059;24000.492;   -8.707;32533.719
749.630;25059.107;  -10.537;32158.518
750.201;24101.742;  -11.687;30855.395
750.773;22257.287;  -11.647;28622.555
751.344;22079.176;   -7.147;28405.732
751.915;22996.525;   -9.757;28461.551
752.486;22506.047;  -12.427;27842.850
753.057;20337.064;  -12.227;27845.008
753.628;19240.074;  -10.417;27728.107
754.199;20418.674;  -11.767;27381.086
754.770;21606.658;  -11.187;25882.203
755.341;21626.547;  -10.507;25886.184
755.912;21917.799;   -9.387;26050.861
756.483;21288.693;  -10.647;26798.779
757.054;19340.012;  -11.837;27048.238
757.625;17966.898;  -12.716;26294.838
758.195;17770.451;   -9.666;26142.076
758.766;17494.086;   -8.656;26392.234
759.337;18332.219;  -12.856;26334.594
759.907;20111.945;  -13.366;27579.652
760.478;21011.955;   -8.576;28352.770
761.048;20412.707;  -10.526;27325.088
761.619;19573.563;  -11.116;26460.428
762.189;19516.744;  -12.136;26029.826
762.760;20567.166;   -9.456;26430.145
763.330;21869.695;   -7.136;26670.902
763.900;21364.441;  -11.786;26603.021
764.471;18586.137;  -11.546;25542.740
765.041;17192.471;   -8.096;24358.459
765.611;17308.648;   -8.876;23991.297
766.181;17795.730;  -12.196;24470.236
766.751;18677.619;  -11.636;24845.975
767.321;18608.906;  -10.156;24533.633
767.891;16597.902;  -11.766;24916.492
768.461;15898.682;  -14.936;24776.771
769.031;16337.370;  -12.356;24757.988
769.601;18067.111;   -7.526;24181.088
770.171;18103.961;  -10.766;23670.387
770.741;17094.086;  -13.176;22960.045
771.311;17255.486;  -10.616;22917.523
771.880;17774.045;   -9.576;23562.941
772.450;17335.922;  -10.336;24216.500
773.020;17140.150;  -13.516;24140.398
773.589;16654.068;  -13.466;24414.857
774.159;16144.344;   -8.686;23858.717
774.729;15718.865;   -9.476;22942.135
775.298;15318.657;  -13.666;22324.033
775.867;14950.020;  -11.716;21140.313
776.437;14984.712;   -9.906;20838.092
777.006;14624.140;  -12.166;20599.510
777.576;14531.300;  -12.356;20508.809
778.145;14732.706;  -11.646;20732.947
778.714;14717.825;   -8.226;21062.465
779.283;13956.392;   -9.556;20949.664
779.853;13457.450;  -14.116;20508.623
780.422;13855.949;  -11.506;20649.082
780.991;13387.875;   -9.556;21527.520
781.560;12305.841;   -9.095;22632.658
782.129;12081.224;  -12.135;23048.277
782.698;12057.541;  -10.865;23438.555
783.267;11742.922;   -9.335;23267.734
783.836;11744.329;  -11.045;22415.133
784.404;12736.604;  -13.865;20443.152
784.973;13203.105;  -13.095;19699.150
785.542;13066.817;  -11.575;19763.828
786.111;12970.683;   -9.705;20341.408
786.679;12610.558;  -12.105;20207.967
787.248;12353.471;  -12.455;19516.465
787.817;12100.530;  -11.535;18900.363
788.385;11659.355;   -9.765;17879.121
788.954;11045.976;  -14.005;17658.301
789.522;10582.014;  -11.955;17788.879
790.090;11150.301;  -10.135;18118.277
790.659;11607.896;  -10.975;18338.736
791.227;11006.636;  -13.375;18508.615
791.795;11419.631;  -12.375;17898.254
792.364;11810.313;  -10.725;17295.133
792.932;12134.133;   -9.715;16822.051
793.500;12380.637;  -12.675;17040.148
794.068;12667.661;  -13.495;17179.787
794.636;12824.389;  -10.885;16664.246
795.204;12227.627;  -11.045;16524.545
795.772;12207.314;  -13.175;17274.564
796.340;11698.981;  -12.445;17891.002
796.908;11530.499;   -9.735;17648.561
797.476;11571.518;   -9.815;17064.080
798.044;11180.377;  -13.985;16672.777
798.612;10332.309;  -13.115;17023.996
799.180; 9951.173;  -10.185;16561.615
799.747; 9815.401;   -9.055;15962.773
800.315; 9467.457;  -12.385;15296.992
800.883; 9164.904;  -15.035;14801.771
801.450; 9212.087;  -10.365;14534.430
802.018; 9254.469;   -9.855;14173.248
802.585; 9267.343;  -11.905;14029.547
803.153; 9302.158;  -11.585;13836.846
803.720; 9245.338;   -9.095;13567.324
804.287; 8946.005;   -9.135;13360.622
804.855; 8504.217;  -11.604;13681.981
805.422; 8343.122;  -11.794;13536.560
805.989; 8305.521;  -10.734;13355.958
806.556; 8435.219;  -10.444;13747.896
807.124; 8754.188;  -12.764;13987.376
807.691; 8687.094;  -12.964;14038.674
808.258; 8479.735;  -11.134;14120.152
808.825; 8152.696;   -9.854;13860.111
809.392; 8228.809;  -10.504;13268.790
809.959; 7761.149;  -13.054;12680.389
810.526; 7331.775;   -8.294;12427.308
811.093; 7397.273;   -8.394;12030.105
811.659; 8053.195;  -12.304;11653.664
812.226; 8516.569;  -13.944;11637.183
812.793; 8153.017;  -10.484;11611.521
813.360; 7484.694;  -10.144;11885.181
813.926; 7069.132;  -11.684;12770.539
814.493; 6782.609;  -13.644;12677.638
815.060; 6400.878;   -9.724;11974.336
815.626; 6427.855;   -9.854;11594.715
816.193; 6841.303;  -13.254;11579.474
816.759; 6903.922;  -13.204;11666.972
817.325; 7019.379;   -9.434;11325.530
817.892; 7367.492;  -10.134;11105.369
818.458; 7768.208;  -13.474;10843.928
819.024; 7468.571;  -11.854;10714.406
819.591; 7169.137;  -10.244;10469.165
820.157; 6920.604;  -10.704;10235.523
820.723; 6354.769;  -12.324;10847.563
821.289; 6024.552;   -9.444;11040.980
821.855; 5957.813;   -8.374;10357.100
822.421; 5991.986;  -10.234; 9978.918
822.987; 5948.301;  -13.294; 9754.177
823.553; 5601.262;  -10.884;10065.755
824.119; 5412.711;   -8.884;10036.294
824.685; 5530.965;   -6.784;10029.192
825.251; 5651.408;  -12.004;10199.230
825.816; 5602.328;  -11.474; 9820.189
826.382; 5350.767;   -9.174; 9297.248
826.948; 5532.836;   -9.214; 9381.347
827.513; 5963.756;  -10.774; 9450.726
828.079; 5811.983;  -11.924; 9472.444
828.645; 5220.991;  -10.543; 9292.643
829.210; 5082.663;  -10.533; 9065.341
829.776; 5036.824;  -10.753; 9132.620
830.341; 4889.009;  -10.173; 9092.878
830.906; 5053.311;  -10.743; 9078.557
831.472; 5452.934;  -11.113; 8534.535
832.037; 5268.221;  -10.603; 8677.874
832.602; 4713.140;  -13.323; 8628.692
833.167; 4382.791;  -10.823; 8879.031
833.733; 4317.936;  -10.113; 9189.790
834.298; 4439.835;  -13.583; 9052.608
834.863; 4478.458;  -12.703; 8895.087
835.428; 4433.493;  -10.523; 8824.266
835.993; 4331.517;   -6.963; 8845.385
836.558; 4189.122;  -10.763; 8888.563
837.123; 4292.877;   -9.903; 8966.582
837.688; 4498.341;   -9.913; 8617.860
838.253; 4711.294;  -10.283; 8590.699
838.817; 4936.328;  -12.963; 8443.797
839.382; 4889.314;  -14.243; 8799.356
839.947; 4572.573;  -10.733; 8810.595
840.511; 4251.252;   -9.383; 8796.394
841.076; 3874.761;  -12.563; 8347.231
841.641; 3919.542;  -12.953; 8224.330
842.205; 4006.900;   -7.043; 8223.349
842.770; 4077.693;   -8.163; 8622.107
843.334; 4290.033;  -12.503; 8410.386
843.898; 4298.641;  -11.693; 8337.465
844.463; 4340.442;  -10.203; 8506.283
845.027; 4102.053;   -9.533; 8280.962
845.591; 3878.341;  -13.443; 8231.141
846.156; 3891.009;  -13.143; 7969.179
846.720; 3783.989;   -9.433; 7768.278
847.284; 3652.424;  -11.033; 7630.957
847.848; 3479.012;  -10.403; 7472.395
848.412; 3395.354;  -11.553; 7437.394
848.976; 3444.042;   -8.393; 7674.592
849.540; 3378.207;   -8.713; 7836.011
850.104; 3445.854;  -12.463; 7913.669
850.668; 3793.842;  -12.973; 7694.508
851.232; 3931.275;  -10.793; 7756.887
851.796; 3755.981;  -10.662; 7926.545
852.359; 3436.636;  -13.082; 7827.844
852.923; 3279.022;  -12.192; 7641.163
853.487; 3121.805;  -11.912; 7342.501
854.050; 3055.481;  -10.892; 7042.820
854.614; 3187.076;  -13.992; 7151.338
855.177; 3292.830;  -11.732; 7105.077
855.741; 3343.351;   -8.962; 6989.675
856.304; 3237.586;   -9.442; 6596.634
856.868; 3170.986;  -14.192; 6356.272
857.431; 3283.437;  -12.702; 6468.571
857.995; 3394.725;   -9.942; 6373.210
858.558; 3407.551;   -9.112; 6324.448
859.121; 3145.840;  -12.932; 6408.327
859.684; 3020.217;  -13.442; 6347.886
860.247; 3151.343;  -10.632; 6321.264
860.810; 3151.286;  -11.272; 6301.903
861.374; 2912.927;   -9.832; 6607.881
861.937; 2646.062;  -11.762; 6408.200
862.500; 2611.646;   -9.722; 6572.639
863.062; 2770.294;  -10.512; 6387.297
863.625; 2963.484;  -11.232; 6190.836
864.188; 3149.219;  -14.112; 5807.254
864.751; 3212.283;  -11.302; 5682.413
865.314; 3103.991;  -10.112; 5547.492
865.876; 2903.843;  -12.182; 5500.150
866.439; 2895.602;  -10.722; 5415.909
867.002; 2858.433;   -9.252; 5501.567
867.564; 2649.400;   -9.572; 5413.946
868.127; 2434.242;  -13.142; 5160.325
868.689; 2334.978;  -12.902; 5133.183
869.252; 2264.800;   -9.732; 5252.382
869.814; 2178.776;   -9.432; 5297.141
870.377; 2195.838;  -11.552; 5390.919
870.939; 2278.784;   -9.052; 5599.898
871.501; 2347.430;  -10.982; 5248.336
872.063; 2359.415;  -12.292; 4854.235
872.626; 2315.908;  -14.912; 4817.074
873.188; 2324.984;  -13.112; 4987.732
873.750; 2292.962;  -13.442; 4868.651
874.312; 2204.063;   -9.402; 4779.330
874.874; 2119.110;  -11.062; 4866.348
875.436; 2040.620;  -13.931; 4718.887
875.998; 2037.853;   -9.561; 4660.005
876.560; 2060.947;  -11.321; 4462.964
877.122; 2010.400;  -12.221; 4145.042
877.683; 1913.301;  -12.191; 4056.481
878.245; 1841.958;  -12.101; 3950.740
878.807; 1921.741;   -8.971; 4058.958
879.369; 2040.510;  -12.071; 3954.677
879.930; 2058.166;  -14.621; 3941.495
880.492; 2046.243;  -10.311; 4067.014
881.053; 1919.661;  -10.901; 3859.633
881.615; 1525.133;  -14.411; 3776.071
882.176; 1117.324;  -13.761; 3734.750
882.738;  867.622;   -9.181; 3678.489
883.299;  797.252;  -11.791; 3405.407
883.860;  843.960;  -13.121; 3351.106
884.422;  923.400;  -11.211; 3394.044
884.983;  961.137;  -10.091; 3166.443
885.544;  944.531;   -8.461; 3189.802
886.105;  925.080;  -12.361; 3160.360
886.666;  903.593;  -14.141; 3093.059
887.227;  875.300;  -11.361; 2941.957
887.788;  834.058;  -11.401; 2974.836
888.349;  788.960;  -13.791; 2721.214
888.910;  797.694;  -13.191; 2696.493
889.471;  813.599;   -9.881; 2560.172
890.032;  806.705;   -9.881; 2558.190
890.593;  788.580;  -10.371; 2567.669
891.153;  765.322;  -13.301; 2460.307
891.714;  722.529;  -11.431; 2372.046
892.275;  693.192;  -11.291; 2309.505
892.835;  661.959;  -11.471; 2382.543
893.396;  610.024;  -11.541; 2295.502
893.956;  554.684;  -11.181; 2162.420
894.517;  518.296;  -11.741; 2125.439
895.077;  512.589;  -11.671; 2086.978
895.638;  513.962;  -11.311; 2126.316
896.198;  488.616;   -9.831; 1838.275
896.758;  447.436;   -8.421; 1892.813
897.319;  414.473;  -12.351; 1792.232
897.879;  398.213;  -13.511; 1762.751
898.439;  372.993;  -12.001; 1661.149
898.999;  347.835;  -10.180; 1781.468
899.559;  339.614;  -12.030; 1703.347
900.119;  337.627;  -15.710; 1537.525
900.679;  334.919;   -8.900; 1638.384
901.239;  321.778;   -8.340; 1527.902
901.799;  311.453;  -13.910; 1456.441
902.359;  305.207;  -13.460; 1357.140
902.919;  299.203;  -11.490; 1331.118
903.479;  285.444;  -12.110; 1317.257
904.038;  263.375;  -11.720; 1262.595
904.598;  247.377;  -13.610; 1152.034
905.158;  242.149;  -11.040; 1240.893
905.717;  236.515;  -10.900; 1233.691
906.277;  225.066;  -15.080; 1217.330
906.836;  216.267;  -13.380; 1222.408
907.396;  209.073;  -10.780; 1193.047
907.955;  201.323;   -8.500; 1182.526
908.515;  195.965;  -12.760; 1099.364
909.074;  189.649;  -11.900; 1092.863
909.633;  183.606;   -8.950; 1069.121
910.192;  178.719;   -8.770; 1196.460
910.752;  173.139;  -12.390; 1029.960
911.311;  166.778;  -13.680; 1009.780
911.870;  161.384;  -12.370;  971.460
912.429;  160.038;  -10.900; 1094.080
912.988;  159.676;  -11.690; 1081.060
913.547;  156.346;  -13.240;  940.380
914.106;  153.059;  -11.990;  999.420
914.665;  150.904;   -9.990;  984.020
915.224;  150.261;  -12.880; 1035.760
915.782;  150.373;  -12.350;  922.560
916.341;  150.745;   -9.110; 1049.840
916.900;  146.884;   -9.270;  925.260
917.458;  144.293;  -13.240;  884.220
918.017;  143.472;  -13.550;  942.600
918.576;  144.210;  -12.320;  904.440
919.134;  141.516;  -11.490;  837.980
919.693;  139.822;  -13.670;  893.060
920.251;  138.835;  -15.470;  876.500
920.809;  137.637;  -11.290;  839.580
921.368;  137.224;  -10.210;  885.360
921.926;  135.875;  -12.140;  842.940
922.484;  134.598;  -13.080;  903.360
923.042;  133.687;  -11.720;  880.340
923.601;  136.525;   -7.480;  998.680
924.159;  135.270;  -11.570;  935.560
924.717;  132.250;  -13.840;  841.080
925.275;  132.739;  -10.640;  903.240
925.833;  131.925;  -11.540;  779.320
926.391;  132.272;  -12.960;  938.380
926.949;  131.043;  -14.130;  857.680
927.506;  131.566;  -11.750;  903.500
928.064;  131.661;  -10.250;  877.580
928.622;  130.786;  -13.030;  880.100
929.180;  130.004;  -13.400;  814.180
929.737;  131.403;  -10.700;  808.540
930.295;  135.426;  -10.070;  928.480
930.853;  136.063;  -11.960;  849.100
931.410;  137.314;  -13.120;  821.120
931.968;  136.227;  -10.770;  940.660
932.525;  136.348;  -10.680;  909.380
933.082;  136.216;  -13.130;  811.440
933.640;  137.573;  -13.210;  925.900
934.197;  135.647;  -11.060;  886.360
934.754;  136.874;   -9.580;  897.780
935.312;  138.828;  -14.000;  863.340
935.869;  143.793;  -10.710; 1012.980
936.426;  142.907;   -9.860;  872.800
936.983;  144.808;   -9.710;  889.020
937.540;  144.761;  -13.990;  838.280
938.097;  143.722;  -14.040;  940.120
938.654;  143.749;  -10.310;  898.860
939.211;  147.163;  -10.560;  952.480
939.768;  149.500;  -13.900;  915.420
940.324;  152.786;  -14.760;  904.200
940.881;  153.248;  -10.370;  878.500
941.438;  154.113;   -8.260; 1021.200
941.995;  150.507;  -12.540;  992.560
942.551;  147.307;  -14.670;  875.620
943.108;  148.162;  -10.450;  937.920
943.664;  150.408;  -10.750;  869.340
944.221;  153.462;  -11.550; 1088.140
944.777;  151.314;  -14.770;  869.680
945.334;  152.697;  -12.820;  884.840
945.890;  154.141;  -10.130;  946.480
946.446;  154.764;  -13.470;  947.020
947.003;  156.703;  -12.120;  964.940
947.559;  158.984;   -9.980; 1063.040
948.115;  157.373;   -9.080; 1026.540
948.671;  155.222;  -10.830;  967.300
949.227;  152.321;  -12.440;  859.560
949.783;  149.931;  -12.910;  858.900
950.339;  151.528;  -10.270;  991.000
950.895;  151.672;  -13.630; 1023.840
951.451;  151.461;  -15.100;  925.280
952.007;  151.961;  -11.330;  998.540
952.563;  153.260;  -10.580;  937.780
953.118;  152.448;  -13.440;  904.940
953.674;  151.416;  -12.710;  935.780
954.230;  151.524;  -10.350;  949.640
954.785;  148.920;   -9.190;  936.640
955.341;  146.518;  -11.200;  998.160
955.897;  143.936;  -16.560;  834.660
956.452;  145.686;  -12.570;  953.840
957.008;  144.721;   -7.970; 1083.640
957.563;  142.364;  -11.940; 1009.540
958.118;  138.304;  -13.450;  877.700
958.674;  138.105;  -12.030;  946.780
959.229;  139.811;   -9.410; 1013.980
959.784;  136.716;  -12.000;  832.400
960.339;  136.108;  -14.780; 1001.280
960.894;  132.394;   -9.860;  963.760
961.449;  128.974;   -9.970;  859.960
962.004;  129.243;  -10.900; 1212.840
962.559;  123.777;  -13.150;  860.140
963.114;  121.506;  -13.740;  742.480
963.669;  122.069;   -9.820;  915.500
964.224;  120.464;  -13.890;  874.340
964.779;  120.253;  -12.600;  828.420
965.334;  121.352;  -10.950; 1017.860
965.888;  120.146;  -11.170;  875.360
966.443;  122.901;  -12.540;  972.380
966.998;  121.529;  -15.780;  819.460
967.552;  120.701;   -9.760;  908.380
968.107;  116.819;   -9.060;  868.300
968.661;  117.491;  -11.950;  922.440
969.216;  118.166;  -12.800;  856.280
969.770;  118.567;  -11.210;  917.200
970.324;  117.231;  -11.610;  923.140
970.879;  114.799;  -11.370;  947.180
971.433;  110.604;  -12.540;  952.720
971.987;  106.485;  -11.320;  895.340
972.541;  103.036;  -10.720;  917.100
973.095;  103.200;   -9.680; 1009.460
973.649;  101.847;  -11.440;  809.480
974.203;  101.342;  -11.210;  829.040
974.757;  101.266;  -10.240;  855.220
975.311;  100.879;  -13.720;  872.600
975.865;  100.779;  -13.770;  881.820
976.419;   99.004;  -11.690;  857.400
976.973;   98.848;   -9.510;  849.620
977.526;  100.058;  -12.620;  949.920
978.080;  100.635;  -12.010;  796.780
978.634;  101.503;  -10.170;  921.320
979.187;   99.062;   -9.020;  905.400
979.741;   96.736;   -9.820; 1018.380
980.294;   91.541;  -14.870;  789.160
980.848;   90.103;  -12.380;  717.220
981.401;   91.262;  -10.350;  816.540
981.955;   93.245;  -13.720;  844.300
982.508;   92.479;  -11.490;  746.340
983.061;   93.002;  -10.000;  915.260
983.615;   88.416;  -11.480;  798.800
984.168;   85.889;  -13.220;  770.080
984.721;   85.276;  -13.960;  880.760
985.274;   84.429;  -10.870;  867.500
985.827;   83.665;   -9.790;  834.220
986.380;   80.667;  -13.120;  721.340
986.933;   80.553;  -12.450;  864.800
987.486;   78.191;  -10.210;  861.920
988.039;   77.588;   -8.430;  863.100
988.591;   75.449;  -10.520;  893.260
989.144;   72.700;  -14.860;  737.260
989.697;   71.778;  -13.080;  758.740
990.250;   72.664;  -10.150;  858.100
990.802;   71.498;  -13.430;  755.860
991.355;   73.011;  -12.750;  974.880
991.907;   70.335;  -12.040;  864.320
992.460;   67.659;  -11.330;  753.760
993.012;   67.278;  -13.610;  749.540
993.565;   66.845;  -13.460;  711.360
994.117;   67.561;   -9.360;  950.780
994.669;   64.065;  -11.300;  701.320
995.221;   62.053;  -13.540;  791.920
995.774;   60.514;  -13.430;  787.580
996.326;   58.947;  -12.520;  740.220
996.878;   58.815;  -10.950;  838.420
997.430;   56.008;  -14.300;  699.860
997.982;   55.759;  -13.760;  750.140
998.534;   55.574;  -11.530;  739.060
999.086;   53.799;  -10.310;  738.220
999.638;   52.505;  -12.530;  661.380
1000.190;   51.822;  -11.840;  699.320
1000.741;   51.847;  -10.260;  742.700
1001.293;   52.226;   -8.860;  686.020
1001.845;   49.511;  -13.700;  676.640
1002.396;   49.918;  -12.100;  743.400
1002.948;   49.323;  -12.760;  737.400
1003.500;   47.978;  -10.380;  723.780
1004.051;   48.889;  -11.900;  907.580
1004.603;   46.420;  -12.250;  791.820
1005.154;   43.670;  -13.210;  608.980
1005.705;   42.142;  -10.950;  723.960
1006.257;   41.155;  -13.880;  707.220
1006.808;   41.350;  -12.840;  685.460
1007.359;   40.751;  -10.570;  763.240
1007.910;   39.336;   -9.620;  646.640
1008.461;   39.269;  -13.630;  732.940
1009.013;   38.103;  -17.200;  588.340
1009.564;   39.435;  -10.200;  793.520
1010.115;   37.337;  -12.570;  597.040
1010.665;   37.066;  -15.150;  602.160
1011.216;   37.574;  -14.480;  667.920
1011.767;   36.501;  -11.340;  697.920
1012.318;   36.861;   -9.780;  736.980
1012.869;   35.813;  -12.380;  679.000
1013.419;   35.126;  -15.560;  603.120
1013.970;   36.110;  -11.010;  666.640
1014.521;   34.820;  -11.610;  620.620
1015.071;   35.018;  -13.450;  670.380
1015.622;   34.992;  -13.870;  635.460
1016.172;   34.270;  -11.610;  596.820
1016.723;   34.000;  -12.120;  614.380
1017.273;   33.447;  -13.620;  604.160
1017.823;   33.518;  -14.140;  650.340
1018.374;   33.388;  -12.800;  611.760
1018.924;   32.791;  -12.340;  716.880
1019.474;   33.184;  -11.410;  718.880
1020.024;   32.312;  -14.770;  657.580
1020.574;   32.210;   -9.780;  726.160
1021.124;   32.689;   -8.560;  673.580
1021.674;   31.052;  -15.190;  559.120
1022.224;   32.975;  -13.530;  708.940
1022.774;   32.360;  -13.280;  668.820
1023.324;   32.064;  -10.690;  753.520
1023.874;   33.311;  -10.240;  875.760
1024.423;   30.804;  -12.540;  613.700
1024.973;   30.482;  -10.010;  610.760
1025.523;   29.536;  -10.550;  620.960
1026.072;   29.082;  -13.560;  606.420
1026.622;   30.008;  -15.120;  675.740
1027.172;   30.723;  -11.260;  715.660
1027.721;   29.105;  -11.410;  601.220
1028.270;   29.155;  -13.530;  663.400
1028.820;   29.519;  -13.680;  638.080
1029.369;   29.078;  -13.520;  612.700
1029.918;   28.945;  -10.980;  649.840
1030.468;   28.275;  -13.530;  564.780
1031.017;   29.235;  -13.170;  634.800
1031.566;   27.615;  -12.200;  608.900
1032.115;   28.547;   -9.960;  694.500
1032.664;   26.962;  -13.210;  596.480
1033.213;   28.140;  -12.500;  735.420
1033.762;   27.425;  -11.910;  635.620
1034.311;   26.892;   -9.640;  677.220
1034.860;   27.364;  -13.310;  691.000
1035.408;   27.023;  -11.830;  722.720
1035.957;   28.513;  -12.000;  719.540
1036.506;   25.439;  -11.690;  530.800
1037.055;   28.129;  -10.990;  844.320
1037.603;   26.250;  -15.120;  664.000
1038.152;   24.945;  -12.450;  534.760
1038.700;   25.927;  -10.560;  585.740
1039.249;   25.124;  -11.080;  681.220
1039.797;   25.940;  -12.540;  633.360
1040.345;   24.930;  -11.920;  705.420
1040.894;   24.443;  -11.410;  625.300
1041.442;   24.346;  -14.320;  632.200
1041.990;   23.663;  -16.240;  559.160
1042.538;   23.169;  -11.680;  536.180
1043.087;   23.772;  -10.760;  570.860
1043.635;   24.637;  -11.850;  670.500
1044.183;   23.521;  -15.480;  586.400
1044.731;   23.690;  -11.770;  576.000
1045.279;   23.066;  -13.090;  674.920
1045.827;   25.993;  -12.440;  892.400
1046.374;   22.723;  -13.840;  515.420
1046.922;   22.415;  -13.220;  590.580
1047.470;   23.595;  -10.230;  691.300
1048.018;   22.908;  -14.590;  647.960
1048.565;   23.776;  -12.050;  708.600
1049.113;   21.541;  -11.650;  557.000
1049.660;   21.580;  -10.510;  629.660
1050.208;   22.415;  -13.310;  675.640
1050.755;   21.313;  -15.900;  606.580
1051.303;   21.957;  -11.430;  686.820
1051.850;   21.236;   -8.480;  635.120
1052.397;   19.976;  -15.010;  473.960
1052.945;   20.986;  -13.960;  617.760
1053.492;   22.295;  -13.150;  741.840
1054.039;   22.024;   -9.630;  720.180
1054.586;   20.101;  -13.680;  557.240
1055.133;   21.599;  -14.570;  693.140
1055.680;   21.319;  -13.820;  646.620
1056.227;   20.569;  -11.730;  542.780
1056.774;   20.855;  -12.480;  794.980
1057.321;   19.250;  -13.930;  523.260
1057.868;   19.751;  -11.690;  651.320
1058.415;   20.310;   -9.520;  651.980
1058.961;   20.314;  -13.160;  678.940
1059.508;   19.765;  -12.920;  643.820
1060.055;   19.406;  -11.920;  581.780
1060.601;   19.468;  -11.500;  624.300
1061.148;   19.435;  -14.330;  616.820
1061.694;   18.615;  -16.870;  592.580
1062.241;   18.844;  -10.330;  596.320
1062.787;   19.679;  -10.620;  663.140
1063.334;   20.680;  -10.110;  808.560
1063.880;   19.186;  -13.400;  668.360
1064.426;   19.384;  -10.680;  706.820
1064.972;   18.616;   -9.920;  601.340
1065.518;   16.670;  -10.980;  566.640
1066.065;   18.231;  -14.890;  624.460
1066.611;   17.426;  -12.870;  598.800
1067.157;   18.889;  -12.950;  641.860
1067.703;   17.858;  -13.540;  668.480
1068.249;   17.951;  -13.540;  605.220
1068.794;   17.113;  -12.600;  626.880
1069.340;   16.964;  -10.620;  578.960
1069.886;   16.861;  -12.830;  590.700
1070.432;   16.522;  -14.870;  541.720
1070.977;   16.027;  -11.980;  601.080
1071.523;   17.035;   -8.200;  573.060
1072.068;   16.411;  -12.330;  582.000
1072.614;   16.133;  -16.370;  527.760
1073.160;   16.749;  -11.100;  687.040
1073.705;   15.596;  -10.480;  572.520
1074.250;   15.761;  -14.520;  559.900
1074.796;   17.127;  -11.460;  655.160
1075.341;   16.142;  -11.950;  664.100
1075.886;   16.397;  -11.460;  594.240
1076.431;   15.110;  -13.770;  649.880
1076.976;   15.117;  -12.680;  639.220
1077.521;   15.215;  -13.170;  583.080
1078.067;   14.826;  -10.860;  579.400
1078.612;   14.943;  -13.920;  661.620
1079.156;   15.086;  -13.880;  601.540
1079.701;   14.778;  -13.120;  693.260
1080.246;   15.908;   -9.940;  696.300
1080.791;   15.227;  -14.740;  625.020
1081.336;   15.293;  -13.750;  659.320
1081.880;   14.881;  -13.400;  649.680
1082.425;   13.700;  -12.220;  573.480
1082.970;   15.580;  -11.610;  717.040
1083.514;   14.267;  -13.580;  597.000
1084.059;   13.046;  -12.810;  586.720
1084.603;   13.183;  -12.320;  565.840
1085.147;   13.295;  -13.190;  645.220
1085.692;   14.682;  -12.480;  716.800
1086.236;   12.691;  -13.020;  503.140
1086.780;   14.967;   -9.190;  751.440
1087.325;   13.543;  -12.480;  654.620
1087.869;   13.797;  -12.450;  610.700
1088.413;   13.528;  -12.240;  705.040
1088.957;   11.436;   -9.020;  543.400
1089.501;   13.817;  -10.320;  766.640
1090.045;   13.893;  -12.720;  726.480
1090.589;   11.115;  -13.690;  569.920
1091.133;   12.172;  -10.020;  673.340
1091.676;   12.391;  -12.330;  591.940
1092.220;   11.986;  -14.970;  600.920
1092.764;   12.594;  -12.430;  706.960
1093.307;   12.836;   -9.800;  673.780
1093.851;   10.976;  -14.970;  556.540
1094.395;   12.378;  -15.310;  683.140
1094.938;   11.402;  -10.370;  632.520
1095.482;   10.299;  -11.050;  559.800
1096.025;   12.103;  -11.840;  710.880
1096.568;   12.480;  -12.840;  779.280
1097.112;    9.569;  -14.700;  508.180
1097.655;   11.577;   -8.720;  603.000
1098.198;   10.131;  -13.610;  600.180
1098.741;   10.581;  -13.350;  612.860
1099.285;   11.834;  -11.230;  657.300
1099.828;    9.239;  -11.840;  439.400
1100.371;    9.848;  -10.840;  608.160
1100.914;   10.788;  -14.190;  682.660
1101.457;   10.521;  -11.240;  679.900
1101.999;    9.370;  -11.270;  584.680
1102.542;    9.612;  -11.480;  641.440
1103.085;   10.106;  -11.750;  658.500
1103.628;   10.803;  -11.400;  762.060
1104.170;    9.286;  -10.490;  588.280
1104.713;    9.551;  -10.600;  646.700
1105.256;    9.544;  -14.360;  557.440
1105.798;    8.963;  -13.210;  499.980
1106.341;   10.527;  -10.270;  728.900
1106.883;    8.619;  -12.200;  521.340
1107.425;    9.230;  -13.110;  668.180
1107.968;    8.646;  -12.840;  612.380
1108.510;    9.319;   -6.480;  684.960
1109.052;    7.459;  -13.940;  612.620
1109.594;    8.239;  -13.690;  554.440
1110.136;    8.648;  -11.880;  643.220
1110.679;    7.311;   -9.500;  633.080
1111.221;    8.326;  -14.160;  604.460
1111.763;    7.971;  -13.980;  559.220
1112.304;    7.620;  -13.880;  547.140
1112.846;    7.757;  -12.210;  666.240
1113.388;   10.391;  -11.390;  942.180
1113.930;    8.115;  -14.540;  694.200
1114.472;    7.047;  -12.640;  606.540
1115.013;    6.190;  -11.620;  551.280
1115.555;    5.932;  -13.640;  587.100
1116.097;    6.599;  -15.380;  579.480
1116.638;    7.088;  -12.640;  684.600
1117.180;    7.764;   -9.850;  667.740
1117.721;    6.730;  -13.690;  568.580
1118.262;    7.187;  -12.680;  677.960
1118.804;    7.602;  -12.530;  637.340
1119.345;    6.358;  -11.690;  578.400
1119.886;    7.200;  -13.380;  704.040
1120.427;    6.271;  -14.070;  589.020
1120.969;    5.604;  -13.500;  597.920
1121.510;    5.054;  -11.480;  563.060
1122.051;    6.236;  -12.830;  723.580
1122.592;    5.675;  -14.290;  655.420
1123.133;    4.316;  -12.400;  547.940
1123.673;    7.142;  -10.130;  706.480
1124.214;    5.478;  -12.930;  612.460
1124.755;    6.784;  -14.380;  639.460
1125.296;    5.301;  -14.000;  627.320
1125.836;    6.622;  -10.070;  691.500
1126.377;    5.409;  -12.640;  599.660
1126.918;    6.166;  -12.960;  614.980
1127.458;    5.066;  -13.350;  622.220
1127.999;    5.767;  -10.750;  656.980
1128.539;    5.557;  -12.350;  694.240
1129.079;    4.791;  -14.860;  632.720
1129.620;    4.264;  -13.840;  558.100
1130.160;    4.026;  -12.330;  539.480
1130.700;    4.361;  -14.530;  640.840
1131.240;    5.617;  -12.530;  643.700
1131.781;    4.302;  -14.450;  619.680
1132.321;    4.120;   -9.790;  599.120
1132.861;    3.613;  -14.860;  564.200
1133.401;    4.145;  -14.290;  593.940
1133.941;    4.336;  -11.750;  626.280
1134.481;    3.554;   -9.920;  597.580
1135.020;    3.323;  -12.290;  609.160
1135.560;    3.961;  -11.650;  674.940
1136.100;    3.222;  -16.270;  501.160
1136.640;    3.105;  -10.890;  510.480
1137.179;    3.254;  -14.180;  537.960
1137.719;    3.439;  -16.250;  605.400
1138.258;    3.138;  -14.230;  587.360
1138.798;    3.160;   -9.090;  663.780
1139.337;    1.665;  -15.130;  482.840
1139.877;    3.755;  -13.680;  642.360
1140.416;    5.288;  -11.320;  878.060
1140.955;    2.578;  -10.860;  535.380
1141.494;    3.204;  -12.920;  669.280
1142.034;    2.468;  -13.930;  583.520
1142.573;    3.649;  -11.440;  646.280
1143.112;    2.270;  -12.000;  553.480
1143.651;    2.201;  -13.670;  536.480
1144.190;    3.296;  -12.730;  691.640
1144.729;    2.795;  -14.560;  607.420
1145.267;    2.074;  -11.830;  584.900
1145.806;    3.641;  -12.230;  637.040
1146.345;    2.190;  -14.130;  635.020
1146.884;    2.013;  -11.590;  622.500
1147.422;    1.278;  -12.550;  533.060
1147.961;    3.755;  -11.180;  708.460
1148.500;    2.471;  -11.510;  669.720
1149.038;    2.696;  -11.640;  632.500
1149.577;    2.220;  -10.130;  698.640
1150.115;    0.048;  -13.970;  452.280
1150.653;    1.637;  -14.520;  607.340
1151.192;    1.341;  -12.810;  552.920
1151.730;    1.464;   -9.100;  652.560
1152.268;    0.873;  -12.220;  589.520
1152.806;    1.018;  -14.140;  571.180
1153.344;    0.400;  -12.350;  577.640
1153.882;    1.105;   -8.980;  600.060
1154.421;   -1.070;  -15.190;  470.620
1154.958;    0.349;  -15.210;  595.240
1155.496;    2.258;  -12.850;  645.280
1156.034;    0.922;   -9.940;  721.880
1156.572;    1.570;  -13.570;  667.060
1157.110;   -0.060;  -14.590;  473.940
1157.647;    1.000;  -13.030;  676.960
1158.185;    0.544;  -12.140;  564.320
1158.723;   -0.740;  -14.390;  509.200
1159.260;    0.674;  -14.090;  701.700
1159.798;    1.216;  -11.920;  658.160
1160.335;    0.063;  -11.110;  631.820

