
Integration time [ms]:   3.276
Averaging Nr. [scans]: 1000
Smoothing Nr. [pixels]: 0
Data measured with spectrometer [name]: 7414430SP
Wave   ;Sample   ;Dark     ;Reference
[nm]   ;[counts] ;[counts] ;[counts] 

288.544;  160.695;    7.793;  793.890
289.143;  162.362;    7.462;  681.602
289.742;  161.838;    8.602;  828.814
290.341;  149.414;    1.321;  789.841
290.940;  141.348;   -0.709;  730.702
291.538;  142.581;    0.881;  881.108
292.137;  140.082;    0.122;  792.581
292.736;  143.928;   -1.929;  975.101
293.335;  141.023;   -8.229;  735.086
293.934;  142.142;   -5.279;  781.677
294.532;  141.376;   -1.369; 1031.958
295.131;  126.690;   -7.641;  834.394
295.730;  128.470;   -8.420;  809.588
296.328;  124.881;   -5.611;  783.442
296.927;  123.580;   -5.781;  779.652
297.525;  125.499;   -6.361;  781.236
298.124;  118.124;  -11.382;  654.009
298.722;  123.130;   -7.641;  761.933
299.321;  117.798;   -6.811;  708.597
299.919;  114.143;   -6.991;  751.918
300.518;  111.864;  -10.362;  689.338
301.116;  114.899;   -9.581;  691.381
301.715;  114.182;   -4.891;  730.222
302.313;  112.169;   -8.801;  704.943
302.911;  108.332;   -8.522;  733.830
303.509;  113.809;   -6.171;  925.627
304.108;  110.703;   -7.311;  760.383
304.706;  109.868;   -8.321;  801.664
305.304;  104.890;  -10.222;  796.707
305.902;  109.758;   -6.021;  784.484
306.500;  104.595;   -4.971;  728.200
307.098;  103.788;   -7.061;  746.560
307.696;  103.402;   -8.801;  780.432
308.294;  102.949;   -6.411;  731.359
308.892;  103.411;   -2.901;  759.769
309.490;  100.138;   -5.041;  712.161
310.088;   99.172;   -5.002;  788.444
310.686;  103.806;   -2.041;  821.749
311.284;   96.935;   -2.351;  766.040
311.882;   95.239;   -4.422;  731.225
312.480;   93.322;   -4.192;  697.167
313.078;   94.480;   -1.172;  808.331
313.675;   94.348;   -2.601;  691.600
314.273;   88.760;   -1.312;  797.837
314.871;   89.558;   -3.942;  589.829
315.468;   87.357;   -2.802;  652.090
316.066;   88.779;   -0.701;  694.427
316.664;   81.997;   -4.362;  656.351
317.261;   87.573;   -2.872;  910.128
317.859;   82.997;   -2.022;  768.735
318.456;   82.017;   -0.531;  830.096
319.054;   77.674;   -3.912;  787.828
319.651;   77.869;   -4.752;  759.928
320.249;   76.554;   -2.602;  810.188
320.846;   72.905;   -0.821;  714.286
321.443;   71.255;   -4.642;  832.135
322.041;   69.162;   -5.002;  812.315
322.638;   65.680;   -3.982;  701.456
323.235;   66.385;   -3.411;  665.683
323.833;   62.822;   -7.361;  740.354
324.430;   59.671;   -8.611;  615.900
325.027;   60.093;   -4.061;  876.855
325.624;   59.779;   -4.031;  644.532
326.221;   55.991;   -7.481;  689.717
326.818;   57.287;   -5.281;  818.332
327.415;   59.916;   -7.460;  748.828
328.012;   57.926;   -5.510;  690.585
328.609;   55.793;   -7.880;  731.389
329.206;   55.740;   -8.331;  778.621
329.803;   55.294;   -5.121;  737.841
330.400;   56.852;   -4.510;  704.260
330.997;   57.669;   -6.441;  817.147
331.594;   57.605;   -8.831;  788.185
332.191;   62.947;   -7.621;  728.722
332.787;   65.151;   -4.591;  844.463
333.384;   65.762;   -7.412;  763.093
333.981;   65.856;   -8.293;  815.687
334.578;   68.356;   -7.052;  708.378
335.174;   69.613;   -3.102;  731.469
335.771;   68.485;   -5.943;  836.456
336.367;   67.184;   -7.393;  710.631
336.964;   72.444;   -4.063;  793.266
337.561;   68.844;   -3.813;  731.112
338.157;   64.054;   -4.654;  911.916
338.754;   63.891;   -7.934;  796.589
339.350;   61.502;   -4.414;  722.493
339.946;   62.528;   -4.664;  773.135
340.543;   54.658;   -6.375;  846.136
341.139;   49.657;   -9.815;  720.836
341.735;   46.175;   -4.526;  772.593
342.332;   44.055;   -4.895;  691.472
342.928;   44.250;   -4.295;  795.394
343.524;   38.946;   -5.476;  761.684
344.120;   34.860;   -5.856;  738.562
344.716;   37.327;   -2.155;  723.717
345.313;   34.611;   -6.275;  795.342
345.909;   31.263;   -8.815;  627.336
346.505;   31.247;   -5.305;  740.247
347.101;   31.368;   -2.674;  827.864
347.697;   30.833;   -4.344;  785.398
348.293;   27.180;   -9.975;  627.244
348.889;   27.806;   -5.774;  745.914
349.485;   26.734;   -5.004;  688.205
350.081;   26.878;   -4.704;  772.592
350.676;   22.569;   -6.635;  691.606
351.272;   26.929;   -4.504;  809.530
351.868;   25.755;   -3.914;  780.497
352.464;   23.102;   -9.044;  723.932
353.059;   20.424;   -8.314;  646.017
353.655;   23.314;   -7.024;  777.063
354.251;   24.349;   -5.343;  759.845
354.846;   17.352;   -8.604;  740.646
355.442;   16.844;   -6.945;  753.071
356.038;   18.228;   -7.564;  751.708
356.633;   18.142;   -5.814;  728.594
357.229;   15.069;   -7.364;  724.757
357.824;   15.316;   -8.024;  703.600
358.420;   13.539;   -9.384;  679.726
359.015;   13.761;   -5.104;  695.357
359.610;   14.066;   -6.854;  763.920
360.206;    9.007;  -10.185;  603.240
360.801;   11.745;   -7.054;  646.503
361.396;   12.752;   -5.034;  725.975
361.992;    8.577;   -8.284;  668.220
362.587;    6.960;   -8.625;  670.160
363.182;    8.378;   -7.674;  689.631
363.777;    8.521;   -5.164;  738.242
364.372;    8.532;   -8.604;  737.314
364.967;    5.744;   -9.055;  680.744
365.563;    9.416;   -6.114;  815.567
366.158;    5.297;   -5.814;  685.161
366.753;    5.936;   -7.854;  649.263
367.348;    5.696;   -7.804;  746.056
367.942;    5.537;   -7.954;  697.298
368.537;    3.054;   -4.984;  754.245
369.132;    3.568;   -8.564;  703.428
369.727;   -0.022;   -8.855;  638.079
370.322;    1.050;   -6.245;  580.186
370.917;    0.862;   -6.425;  710.646
371.511;    3.549;   -6.294;  861.834
372.106;    0.594;   -7.685;  776.964
372.701;   -2.216;   -7.335;  585.988
373.296;    2.170;   -4.564;  863.135
373.890;   -3.156;  -10.235;  647.840
374.485;   -3.739;   -7.885;  691.199
375.079;   -0.085;   -7.324;  738.685
375.674;    0.330;   -3.494;  812.970
376.268;   -4.332;   -8.525;  691.759
376.863;   -8.682;  -10.086;  580.327
377.457;   -2.476;   -7.025;  662.490
378.052;   -5.753;   -3.585;  764.884
378.646;   -6.565;   -7.595;  741.167
379.240;   -5.252;   -8.335;  721.176
379.835;   -5.594;   -5.785;  636.978
380.429;   -8.225;   -4.335;  562.557
381.023;   -8.521;   -6.805;  779.205
381.617;   -9.969;   -9.195;  680.106
382.212;   -6.559;   -6.905;  685.303
382.806;   -7.032;   -3.745;  760.690
383.400;  -10.579;   -7.745;  672.281
383.994;  -10.417;   -9.765;  664.870
384.588;   -6.750;   -6.564;  697.701
385.182;   -6.765;   -5.344;  726.624
385.776;   -8.539;   -8.514;  706.875
386.370;  -10.933;   -9.555;  681.968
386.964;   -9.341;   -8.715;  684.155
387.558;   -8.802;   -6.174;  598.360
388.152;  -12.559;   -8.725;  681.959
388.745;   -8.832;   -7.965;  814.707
389.339;   -7.871;   -5.924;  747.642
389.933;   -8.263;   -5.524;  695.370
390.527;   -9.227;   -7.114;  859.029
391.120;  -14.395;  -10.725;  595.318
391.714;  -11.491;   -8.035;  711.633
392.308;   -9.177;   -3.574;  780.253
392.901;  -12.852;   -7.245;  642.460
393.495;  -13.417;   -9.285;  595.414
394.089;  -11.356;   -5.895;  760.452
394.682;  -12.943;   -4.295;  697.188
395.275;  -13.855;   -9.875;  719.927
395.869;  -13.685;   -8.485;  667.314
396.462;  -12.543;   -7.455;  616.609
397.056;   -9.855;   -5.424;  776.621
397.649;  -15.059;   -6.605;  731.575
398.242;  -10.896;   -8.224;  712.645
398.836;  -10.288;   -7.474;  766.408
399.429;  -11.746;   -7.094;  631.041
400.022;  -16.035;   -9.475;  665.902
400.615;  -11.596;   -7.145;  805.609
401.208;  -10.556;   -7.174;  691.451
401.802;  -12.865;   -5.515;  699.329
402.395;  -14.971;   -9.875;  683.502
402.988;  -13.899;   -8.845;  696.627
403.581;  -11.153;   -8.874;  646.878
404.174;  -10.080;   -5.324;  686.568
404.767;  -13.052;   -9.575;  638.583
405.360;  -14.801;  -10.965;  621.445
405.953;   -9.070;   -8.764;  759.034
406.545;  -10.020;   -7.514;  725.342
407.138;  -13.378;  -10.025;  618.350
407.731;  -12.506;  -10.034;  613.303
408.324;   -7.517;   -9.374;  660.554
408.917;   -9.534;   -6.534;  681.864
409.509;  -12.458;   -8.004;  740.396
410.102;  -12.232;   -9.875;  643.948
410.695;   -6.666;   -8.604;  665.758
411.287;   -8.539;   -6.794;  599.821
411.880;   -9.798;   -9.334;  585.421
412.472;  -11.732;  -10.254;  613.092
413.065;   -8.261;   -6.714;  629.408
413.657;   -8.196;   -7.234;  576.678
414.250;   -8.151;  -10.544;  646.681
414.842;   -8.888;   -9.744;  676.353
415.434;   -5.484;   -6.994;  570.463
416.027;   -3.000;   -5.893;  652.196
416.619;   -5.556;   -7.264;  713.400
417.211;   -3.916;  -10.374;  599.352
417.804;   -0.748;   -7.993;  628.499
418.396;   -6.392;   -7.234;  607.643
418.988;   -4.169;   -9.443;  659.238
419.580;   -5.980;  -10.724;  568.276
420.172;   -4.879;  -10.323;  536.196
420.764;   -0.750;   -8.793;  672.482
421.356;   -2.347;  -11.143;  636.898
421.948;   -2.210;   -8.293;  677.661
422.540;    3.272;   -7.893;  680.027
423.132;    1.867;   -7.082;  600.641
423.724;   -1.946;   -8.653;  561.267
424.316;    1.276;  -10.213;  621.345
424.908;    5.271;   -9.762;  591.517
425.500;    4.937;   -5.572;  647.978
426.092;    4.313;   -8.422;  648.268
426.683;    4.663;   -9.283;  684.836
427.275;    8.006;   -7.852;  641.471
427.867;    8.019;   -5.272;  668.948
428.458;    7.898;   -7.682;  732.344
429.050;    7.898;  -10.612;  680.749
429.642;    9.733;   -9.882;  743.124
430.233;   10.109;   -6.962;  569.356
430.825;   10.758;   -6.842;  724.809
431.416;    9.987;   -9.672;  698.241
432.008;   13.359;   -6.552;  651.723
432.599;   12.832;   -6.891;  656.073
433.190;    9.428;  -10.912;  637.670
433.782;   10.485;  -11.172;  590.395
434.373;   17.690;   -6.061;  884.765
434.964;   15.309;   -8.251;  602.920
435.556;   11.977;   -9.722;  634.537
436.147;   16.340;   -9.082;  758.490
436.738;   17.126;   -8.041;  701.099
437.329;   21.086;   -7.341;  721.723
437.920;   13.506;   -8.162;  666.688
438.511;   15.366;  -11.802;  564.526
439.103;   22.590;  -10.191;  623.998
439.694;   22.602;   -7.601;  681.583
440.285;   22.764;   -8.541;  764.432
440.876;   22.083;   -9.751;  845.738
441.466;   21.791;   -9.401;  575.162
442.057;   26.487;   -7.760;  665.814
442.648;   24.073;   -9.971;  746.255
443.239;   23.284;  -11.001;  620.477
443.830;   29.463;   -7.990;  704.958
444.421;   29.831;   -7.910;  655.474
445.011;   25.258;   -8.131;  693.619
445.602;   26.909;   -7.111;  743.126
446.193;   29.540;  -10.920;  488.117
446.783;   31.976;   -6.500;  640.397
447.374;   27.549;   -8.671;  692.759
447.964;   29.036;  -10.781;  713.770
448.555;   38.361;   -9.650;  822.742
449.145;   33.483;   -8.660;  662.853
449.736;   33.471;   -8.990;  803.179
450.326;   35.992;   -9.500;  713.626
450.917;   40.536;   -8.680;  675.324
451.507;   38.261;   -7.520;  600.661
452.097;   38.571;   -8.590;  746.267
452.688;   40.825;  -11.340;  742.160
453.278;   41.151;  -10.100;  566.840
453.868;   44.389;   -6.019;  793.550
454.458;   41.542;   -9.440;  651.141
455.048;   43.203;  -10.560;  711.783
455.639;   45.478;  -11.799;  567.096
456.229;   47.368;   -6.899;  710.694
456.819;   49.212;   -7.389;  751.158
457.409;   51.196;  -11.119;  773.993
457.999;   53.963;   -9.289;  737.505
458.589;   53.106;   -6.139;  686.606
459.179;   52.629;   -8.729;  717.658
459.769;   51.471;   -9.789;  627.099
460.358;   56.300;  -10.259;  797.262
460.948;   55.693;   -7.299;  689.503
461.538;   57.153;  -10.289;  660.677
462.128;   55.875;  -11.269;  664.934
462.717;   63.602;   -9.368;  710.326
463.307;   64.818;   -7.908;  705.846
463.897;   60.643;   -9.599;  656.942
464.486;   60.480;   -9.769;  837.128
465.076;   66.094;   -8.048;  733.776
465.666;   68.278;   -9.358;  652.900
466.255;   65.399;   -7.919;  785.651
466.845;   65.068;  -11.689;  666.749
467.434;   69.660;   -7.818;  725.873
468.023;   69.479;   -7.678;  658.357
468.613;   67.153;  -10.939;  713.946
469.202;   71.863;  -10.118;  646.507
469.791;   76.387;   -9.108;  737.811
470.381;   77.167;   -6.058;  742.813
470.970;   76.699;  -10.428;  711.099
471.559;   77.537;  -10.268;  733.291
472.148;   81.342;   -8.448;  675.737
472.738;   82.357;   -6.917;  765.466
473.327;   81.482;  -11.978;  637.529
473.916;   82.606;  -11.888;  737.446
474.505;   87.402;   -9.437;  751.703
475.094;   89.287;   -6.747;  806.570
475.683;   87.455;   -9.367;  797.699
476.272;   90.548;  -12.637;  730.632
476.861;   93.114;  -10.027;  706.754
477.449;   98.404;   -8.716;  728.487
478.038;   92.858;   -9.577;  692.513
478.627;   94.921;   -9.718;  714.852
479.216;  102.362;   -8.947;  769.441
479.805;  104.280;   -6.256;  783.375
480.393;  103.246;   -7.937; 1008.945
480.982;  103.345;   -7.717;  874.501
481.571;  110.458;   -9.266;  858.333
482.159;  109.722;   -7.636;  705.386
482.748;  109.204;   -9.667;  821.385
483.336;  114.832;  -10.376;  858.209
483.925;  115.762;   -7.147;  774.373
484.513;  121.696;   -7.996;  758.962
485.102;  118.908;  -10.027;  810.965
485.690;  129.100;  -10.446; 1011.050
486.278;  130.689;   -8.446;  979.329
486.867;  130.658;   -6.356;  809.662
487.455;  132.027;   -9.136;  898.229
488.043;  134.829;  -10.646;  748.361
488.631;  144.998;   -7.456; 1005.079
489.220;  147.831;   -6.636;  908.626
489.808;  147.827;  -11.036;  741.415
490.396;  156.991;  -10.246;  914.645
490.984;  164.721;   -8.556;  830.161
491.572;  175.136;   -5.886;  940.315
492.160;  183.439;   -9.486;  919.081
492.748;  197.237;  -10.976;  884.341
493.336;  221.724;   -8.776; 1019.693
493.924;  251.163;   -5.465;  958.077
494.512;  284.870;   -9.986; 1066.638
495.100;  337.050;  -10.636; 1103.280
495.687;  403.262;  -10.885; 1206.373
496.275;  460.239;   -8.126; 1150.796
496.863;  529.386;  -10.586; 1281.171
497.451;  647.618;  -11.926; 1386.805
498.038;  765.223;  -10.885; 1556.729
498.626;  867.305;   -6.315; 1741.407
499.214; 1022.920;   -7.326; 2016.609
499.801; 1253.695;  -11.906; 2220.633
500.389; 1519.626;  -10.466; 2312.494
500.976; 1782.608;   -5.236; 2744.849
501.564; 2218.340;   -8.936; 3148.565
502.151; 2693.924;  -13.176; 3515.999
502.738; 3227.787;  -10.646; 3971.274
503.326; 3620.022;   -9.525; 4403.796
503.913; 3938.611;  -10.856; 5161.749
504.500; 4468.663;  -11.586; 5986.420
505.088; 4754.338;  -10.336; 6381.201
505.675; 5228.912;   -6.355; 6925.547
506.262; 5724.335;   -9.046; 7619.060
506.849; 6269.539;  -10.416; 8733.969
507.436; 6785.983;  -10.305; 9790.121
508.023; 7244.691;   -5.496; 9985.472
508.610; 8056.533;   -7.856;10434.618
509.197; 9392.721;  -10.097;11198.435
509.784;10923.486;  -10.886;12391.194
510.371;12354.634;   -9.315;13603.713
510.958;13253.025;   -9.936;14426.586
511.545;13827.197;   -9.326;15243.775
512.132;14340.332;  -10.075;15945.876
512.719;14532.734;   -7.796;16340.369
513.305;15454.752;  -10.606;18011.766
513.892;16768.170;  -11.486;19754.971
514.479;18533.629;   -9.126;20967.805
515.066;20175.758;   -6.026;22299.793
515.652;20401.088;   -8.466;22908.660
516.239;21429.811;  -10.886;23798.875
516.825;23597.582;  -11.496;25567.275
517.412;25556.303;   -5.796;28154.959
517.998;27415.229;  -10.506;28344.111
518.585;27047.500;  -10.076;27134.219
519.171;25690.646;   -8.315;27268.576
519.758;26634.793;   -8.596;28964.129
520.344;27845.229;   -8.466;30664.494
520.930;30316.207;  -11.006;32550.605
521.516;30723.930;  -10.495;35422.895
522.103;29073.145;   -5.526;38280.004
522.689;29524.164;   -8.746;37835.117
523.275;30633.508;  -11.376;37288.613
523.861;31606.303;  -11.156;37281.395
524.447;32860.016;   -8.135;37846.949
525.033;31072.936;   -7.896;38321.949
525.619;30499.135;  -12.476;38579.285
526.205;33653.121;   -9.516;40622.875
526.791;36593.465;   -6.926;42258.836
527.377;39331.855;   -8.346;42966.902
527.963;41323.563;   -8.717;42018.949
528.549;40250.734;  -11.016;42476.828
529.135;40542.848;   -8.536;41854.852
529.721;40211.785;   -9.666;41237.711
530.306;38501.480;  -10.066;41259.445
530.892;38242.824;  -11.356;41506.047
531.478;37677.301;   -6.596;43559.613
532.063;38165.422;   -8.836;47695.563
532.649;41933.297;  -10.047;50808.324
533.235;43145.512;   -9.746;51787.500
533.820;42218.594;   -6.566;52145.035
534.406;40854.977;  -10.817;51133.488
534.991;43511.352;   -9.416;49996.805
535.576;44674.582;   -9.036;48882.852
536.162;44685.684;   -6.156;46942.285
536.747;45943.359;  -11.607;45711.746
537.333;46407.410;  -11.787;48510.180
537.918;46391.918;  -12.437;50439.891
538.503;47317.152;   -7.196;50863.711
539.088;44153.422;  -10.556;50906.922
539.673;42050.246;   -8.767;52621.965
540.259;42341.070;  -10.026;52368.094
540.844;42429.332;   -7.416;50879.109
541.429;38754.914;   -9.467;52077.777
542.014;35997.879;   -9.527;52716.695
542.599;38064.738;   -9.946;52363.281
543.184;44222.941;   -7.927;53187.137
543.769;47350.293;   -9.297;54697.605
544.354;46732.520;  -10.127;53913.914
544.938;45844.703;   -9.267;49680.164
545.523;48334.121;   -6.506;47386.277
546.108;52270.586;   -9.787;49151.949
546.693;51299.926;  -11.587;51384.637
547.278;50728.578;  -10.986;51853.254
547.862;47531.410;   -8.206;51173.750
548.447;44792.508;  -10.067;51691.395
549.031;45674.535;   -9.637;52456.703
549.616;46785.098;   -9.926;52714.516
550.201;45569.176;   -6.347;52414.598
550.785;45074.355;   -7.917;52355.059
551.370;46124.633;  -10.867;54589.453
551.954;46799.242;   -9.047;58267.348
552.538;47896.461;   -7.827;59062.176
553.123;47829.688;  -10.287;58115.285
553.707;43646.492;  -12.178;56556.285
554.291;44326.301;   -8.717;56201.668
554.876;47496.625;   -7.457;55335.762
555.460;48619.605;  -10.387;54155.703
556.044;49490.813;   -9.618;53721.484
556.628;48633.500;  -11.567;53731.016
557.212;46747.813;   -8.097;54312.531
557.796;47936.914;  -11.077;53797.773
558.380;45726.961;  -11.108;56145.984
558.964;44494.148;   -9.057;57277.930
559.548;44355.043;   -6.977;56459.641
560.132;43419.465;  -11.457;54434.543
560.716;42553.484;  -11.378;54800.617
561.300;43367.086;   -9.577;57606.945
561.884;45026.414;   -7.127;58972.445
562.467;46092.453;   -7.118;57327.570
563.051;45597.152;  -13.358;54962.434
563.635;43450.711;  -10.178;52594.473
564.219;42789.691;   -7.837;50610.410
564.802;42375.668;  -11.398;49551.180
565.386;43667.703;  -12.788;48370.953
565.969;44251.402;   -9.077;48178.871
566.553;44438.516;   -6.207;49957.305
567.136;41655.184;   -8.568;50369.594
567.720;40644.031;  -11.868;49492.004
568.303;40376.855;   -8.268;50616.352
568.887;39163.387;   -8.698;50727.148
569.470;39666.328;   -6.808;51698.379
570.053;38538.695;  -13.188;52122.078
570.637;37116.297;  -12.037;52536.438
571.220;36371.578;   -8.577;51186.098
571.803;36761.699;   -8.498;51032.762
572.386;39375.371;  -10.498;49609.887
572.969;40977.137;   -9.388;48285.926
573.552;37285.043;   -8.338;47624.285
574.135;35015.555;   -8.518;45498.641
574.718;31908.902;  -13.628;41970.434
575.301;31536.514;  -10.893;41447.137
575.884;31164.125;   -8.158;40923.836
576.467;36290.977;  -10.328;45267.723
577.050;35047.055;  -13.058;48175.543
577.633;34012.383;   -9.458;47729.328
578.216;35296.832;   -8.928;47579.793
578.799;35939.359;   -9.358;47820.996
579.381;35532.418;  -11.388;48115.551
579.964;32710.008;  -11.718;47333.766
580.547;32557.324;   -8.588;46668.969
581.129;34228.973;   -8.859;44466.141
581.712;34688.660;  -10.729;44164.922
582.294;35815.285;  -11.118;46477.855
582.877;33639.707;   -5.218;48244.254
583.459;33485.324;   -8.679;47437.895
584.042;35226.121;  -10.709;46943.219
584.624;37435.242;  -11.669;46792.227
585.206;36743.012;   -8.218;46557.250
585.789;35426.902;  -10.569;45793.773
586.371;35535.391;  -11.859;43836.391
586.953;34220.512;  -10.719;42972.492
587.536;35786.848;   -7.198;42487.211
588.118;37153.551;   -8.720;42086.414
588.700;36632.645;  -10.439;43389.930
589.282;36902.109;   -9.198;43646.039
589.864;35652.832;   -9.199;43438.109
590.446;33144.434;  -11.319;43151.926
591.028;32841.691;  -11.159;42781.867
591.610;32717.164;  -11.779;42839.098
592.192;29834.854;   -7.668;42820.402
592.774;30661.541;  -11.949;40724.277
593.356;31668.949;  -12.129;39874.789
593.937;29461.979;  -10.669;39980.648
594.519;30660.410;   -6.509;42069.633
595.101;32640.490;  -10.849;42976.031
595.683;31499.936;  -11.679;44084.441
596.264;31329.705;   -9.049;43478.797
596.846;33168.336;   -8.849;43803.672
597.427;33293.082;   -9.570;42986.934
598.009;34459.301;  -12.620;42832.219
598.591;33659.445;  -10.039;42580.086
599.172;32559.953;  -10.369;43061.805
599.753;30909.957;   -9.140;41691.469
600.335;30805.811;  -11.430;40692.520
600.916;31364.838;   -9.939;39982.422
601.498;30203.490;   -8.479;40318.617
602.079;28878.480;  -10.920;40670.609
602.660;30526.156;  -11.480;41450.898
603.241;31957.066;  -11.699;41137.738
603.823;32560.123;   -9.579;38868.797
604.404;32421.934;  -10.620;38182.785
604.985;31055.811;  -10.450;38078.047
605.566;30573.521;   -9.129;38056.633
606.147;30563.285;   -7.510;37020.418
606.728;31804.789;  -10.660;37883.359
607.309;33017.543;  -11.740;38748.273
607.890;32706.000;   -9.759;38850.230
608.471;30874.756;   -8.250;37457.918
609.051;30760.449;   -9.240;36066.457
609.632;29040.350;  -12.120;35991.074
610.213;28134.127;   -9.110;37402.641
610.794;30090.246;   -8.030;38383.363
611.374;32378.490;   -8.110;40562.387
611.955;32104.910;  -13.560;38533.727
612.536;29561.402;  -11.400;36951.789
613.116;28419.057;   -8.070;37197.891
613.697;30521.326;  -10.830;38411.125
614.277;32056.145;  -11.641;38673.938
614.858;31527.354;  -13.310;37075.863
615.438;29706.205;   -7.460;35092.906
616.019;27824.230;   -7.601;33666.301
616.599;28765.705;  -12.020;34189.023
617.179;30541.543;  -11.780;36952.047
617.760;33158.828;   -8.570;39582.574
618.340;33199.359;  -11.471;38943.977
618.920;31752.195;  -11.170;37594.156
619.500;33608.297;  -11.071;37866.938
620.080;33936.770;   -7.750;37869.043
620.660;32214.934;  -12.711;36868.617
621.241;30700.447;  -10.211;36352.309
621.821;29693.795;  -10.961;35459.520
622.401;28780.385;   -7.720;35207.414
622.980;30045.775;   -8.981;35980.422
623.560;30641.756;   -9.331;37351.328
624.140;29442.619;   -9.850;34388.582
624.720;26768.578;   -7.451;32368.764
625.300;24963.828;   -9.070;32638.629
625.880;28431.051;  -12.601;34599.035
626.459;30283.709;  -11.751;36831.738
627.039;30584.428;   -9.281;38299.098
627.619;32416.955;   -8.801;38289.574
628.198;32158.813;  -12.071;37220.695
628.778;31045.824;   -9.461;37632.563
629.357;32010.633;   -8.491;38003.012
629.937;32353.652;   -9.721;38402.039
630.516;32422.535;   -9.951;37868.801
631.096;32605.826;  -11.731;35760.410
631.675;33771.527;   -8.572;35225.219
632.254;33272.148;  -11.282;35130.289
632.834;32933.273;  -13.322;35794.570
633.413;32827.504;  -10.301;35788.922
633.992;32027.240;   -8.582;34532.863
634.571;33691.035;   -8.352;33590.113
635.151;33778.461;  -11.912;34943.863
635.730;32517.859;  -10.511;35352.523
636.309;34892.961;   -7.731;35366.605
636.888;33119.836;   -9.952;36165.637
637.467;30943.879;  -11.672;37515.902
638.046;30799.160;   -8.901;39288.695
638.625;31642.355;   -7.912;38279.699
639.204;32241.943;  -10.022;37741.598
639.782;30272.217;  -12.252;38364.551
640.361;28492.709;  -10.041;36740.621
640.940;27695.613;  -11.161;34950.082
641.519;28811.736;   -9.701;34137.398
642.097;30501.400;  -11.271;35654.258
642.676;31947.965;   -8.651;35637.957
643.255;33128.895;   -8.711;36567.074
643.833;30797.285;   -9.581;37809.434
644.412;28478.709;  -13.711;37337.293
644.990;30195.174;  -11.811;37018.531
645.569;32929.176;   -9.411;36518.469
646.147;32583.971;  -10.291;36186.430
646.726;31531.760;  -12.401;36267.688
647.304;31572.977;  -10.411;36647.625
647.882;30677.400;   -9.651;39286.742
648.461;31953.434;   -9.631;39157.703
649.039;35240.656;  -11.881;35412.883
649.617;35565.727;   -9.661;34744.918
650.195;33406.016;   -9.301;35403.098
650.773;32172.086;  -10.511;35053.797
651.352;31568.658;  -11.521;33756.816
651.930;29180.635;  -12.211;31868.773
652.508;25843.367;   -9.171;33121.551
653.086;26849.863;   -9.371;33564.793
653.663;32705.740;  -13.161;34054.668
654.241;36694.527;  -13.031;35693.309
654.819;37590.352;   -9.371;36422.906
655.397;37480.461;  -10.511;38213.484
655.975;33688.523;  -10.371;39507.625
656.553;30372.990;  -10.051;39498.223
657.130;28817.871;  -10.061;40395.480
657.708;26900.494;   -9.561;39242.020
658.286;24409.768;  -11.511;38920.020
658.863;26403.787;  -10.261;40202.898
659.441;30166.514;   -7.531;39677.938
660.018;32105.160;   -9.501;40413.355
660.596;31390.838;  -13.301;39931.414
661.173;30979.334;  -11.211;39604.531
661.750;32546.273;   -9.951;39700.070
662.328;31547.023;   -9.390;39292.809
662.905;30720.377;  -11.330;38235.648
663.482;28576.342;   -9.050;36212.305
664.060;25947.973;   -8.240;35944.945
664.637;26559.469;  -10.050;35170.785
665.214;29819.457;  -11.760;34197.523
665.791;30336.885;  -10.530;34549.520
666.368;29317.771;   -9.690;35118.578
666.945;30564.160;   -9.320;36019.418
667.522;30969.588;  -11.860;36048.438
668.099;32393.578;  -10.770;36243.914
668.676;32467.664;   -6.260;35958.875
669.253;35018.824;   -7.000;37384.730
669.830;36426.141;  -10.190;36779.629
670.407;33227.406;   -9.550;35231.289
670.984;33512.445;   -9.260;35544.270
671.560;30862.090;   -9.280;35466.867
672.137;26747.328;  -11.810;34280.863
672.714;28317.832;  -11.490;34632.863
673.290;32047.443;   -7.740;35135.422
673.867;31905.164;  -10.660;36114.480
674.443;32122.393;  -12.230;36152.859
675.020;31852.791;  -10.450;35327.238
675.596;30152.281;   -9.260;35795.176
676.173;28798.273;  -10.780;35430.355
676.749;28402.971;  -13.690;33549.516
677.326;28538.201;  -11.980;32210.012
677.902;27870.172;   -8.630;32068.871
678.478;29711.363;  -10.730;32583.891
679.054;30603.732;  -10.520;32088.928
679.631;29914.584;  -11.920;30978.848
680.207;30084.990;   -7.490;33160.887
680.783;31898.379;   -9.860;35570.363
681.359;33302.539;  -13.380;36125.184
681.935;33966.059;  -12.480;35240.922
682.511;33191.539;   -7.900;34429.961
683.087;31868.424;   -7.710;34463.680
683.663;31466.049;  -11.480;34648.898
684.239;30451.887;  -14.090;34546.457
684.815;29272.131;   -7.560;35586.375
685.390;29372.049;   -9.910;35821.895
685.966;30564.877;  -11.159;35085.871
686.542;32140.266;  -11.169;34198.230
687.118;33635.766;   -5.959;32847.707
687.693;32703.713;  -10.329;32794.027
688.269;33639.664;  -12.059;33072.367
688.844;33847.234;  -10.909;33141.664
689.420;31099.270;   -8.019;33965.742
689.995;29571.953;   -8.399;34655.523
690.571;31044.215;  -10.949;33576.742
691.146;30691.387;   -9.619;32657.219
691.722;29179.043;   -8.999;32526.979
692.297;28543.816;  -11.589;33014.617
692.872;28689.273;  -11.739;34012.254
693.448;31466.174;  -11.059;34237.434
694.023;32050.170;  -10.139;34142.672
694.598;30076.523;   -9.029;34132.031
695.173;31170.441;  -13.319;34205.250
695.748;31845.807;  -10.169;32882.488
696.323;29533.549;   -8.339;32864.906
696.898;27441.408;   -8.169;33170.004
697.473;27709.428;  -12.309;32432.984
698.048;27929.412;  -10.989;31649.303
698.623;26661.328;   -9.329;30778.141
699.198;27479.318;   -9.849;31140.119
699.773;28570.256;  -12.329;31764.299
700.348;29946.611;  -10.389;31780.816
700.922;30361.463;   -9.269;32046.375
701.497;31372.314;   -9.329;32603.574
702.072;32422.842;  -10.789;34799.871
702.646;31318.123;  -10.839;35793.172
703.221;30502.834;   -9.099;35201.590
703.795;32450.045;  -10.939;34764.527
704.370;30018.057;  -12.859;34307.367
704.944;28447.740;  -11.559;33509.887
705.519;29508.248;   -7.939;31388.584
706.093;31986.238;  -10.499;31340.104
706.668;34446.602;  -11.289;32630.281
707.242;33847.059;  -11.509;32728.779
707.816;31914.744;   -9.639;32947.238
708.390;30469.102;  -11.429;33277.855
708.965;29710.619;  -11.869;33834.336
709.539;31140.176;  -11.689;33709.273
710.113;31200.047;  -10.478;33044.313
710.687;30422.203;  -10.228;31953.992
711.261;29613.008;  -13.698;30505.949
711.835;30064.744;  -13.378;30262.369
712.409;29197.973;   -9.698;31254.447
712.983;28831.375;  -11.898;32754.986
713.557;31302.467;  -15.138;34018.824
714.131;29370.807;  -14.098;34579.625
714.704;28766.512;   -9.958;33890.262
715.278;30830.072;  -10.028;33531.102
715.852;29512.832;  -11.148;33601.660
716.425;28220.320;   -9.068;33515.117
716.999;26751.010;  -10.038;33185.555
717.573;26161.412;   -9.798;33905.996
718.146;25512.793;  -12.378;35199.293
718.720;26165.047;  -11.918;35060.551
719.293;26794.385;   -8.088;34973.230
719.867;29167.043;  -10.888;36394.449
720.440;30854.176;  -11.938;36663.008
721.013;31442.896;  -12.818;35102.426
721.587;29111.309;  -10.298;33985.266
722.160;27224.254;  -10.048;33524.965
722.733;26673.541;  -12.108;32987.043
723.306;27043.262;  -10.818;33066.301
723.880;28790.727;   -8.908;33399.500
724.453;28461.389;   -9.878;33468.297
725.026;28558.701;  -11.188;33816.637
725.599;31516.621;  -11.678;32797.996
726.172;31199.012;   -9.618;33187.434
726.745;28539.240;   -8.258;35136.613
727.318;28025.873;  -12.978;35751.730
727.891;27134.934;  -12.148;35890.430
728.463;26056.543;   -8.968;34822.090
729.036;26038.408;  -10.188;32895.086
729.609;26118.156;  -11.788;31823.225
730.182;24274.672;  -11.788;31445.283
730.754;23003.949;  -10.268;32373.223
731.327;22974.732;   -9.998;33676.820
731.900;24276.166;  -12.228;33417.000
732.472;24261.475;  -13.848;31978.498
733.045;23394.594;   -8.698;30368.777
733.617;22946.539;  -10.607;30574.215
734.190;24798.482;  -11.507;31280.975
734.762;25780.012;  -13.647;31674.412
735.334;27235.807;   -9.767;31247.291
735.907;27816.863;   -9.897;29876.211
736.479;27592.521;  -11.637;29808.488
737.051;28589.207;   -9.567;30233.547
737.623;27967.713;   -8.187;31469.086
738.195;26583.070;  -11.187;31784.225
738.768;25345.387;  -12.337;32120.523
739.340;23629.754;  -12.227;32094.342
739.912;22659.668;  -11.057;31312.680
740.484;22652.279;  -10.207;31946.238
741.056;22438.850;  -10.047;32984.059
741.628;23525.641;  -13.627;33897.715
742.199;24448.117;   -7.177;33213.016
742.771;26643.051;  -10.797;31369.113
743.343;27456.504;  -11.997;31865.473
743.915;27191.264;  -12.867;32388.631
744.487;24666.490;   -7.617;31079.568
745.058;21688.658;   -9.557;30570.107
745.630;22698.947;   -9.877;29970.127
746.201;24356.629;  -14.177;29186.766
746.773;24981.670;   -9.237;28805.723
747.344;23183.955;   -9.847;29591.223
747.916;21447.613;  -11.657;31412.201
748.487;22415.701;  -10.587;32194.898
749.059;24220.619;   -8.707;32533.719
749.630;24422.838;  -10.537;32158.518
750.201;23824.197;  -11.687;30855.395
750.773;22627.500;  -11.647;28622.555
751.344;22495.441;   -7.147;28405.732
751.915;24637.520;   -9.757;28461.551
752.486;25746.961;  -12.427;27842.850
753.057;24510.074;  -12.227;27845.008
753.628;24494.895;  -10.417;27728.107
754.199;24141.668;  -11.767;27381.086
754.770;23661.334;  -11.187;25882.203
755.341;22511.838;  -10.507;25886.184
755.912;20969.107;   -9.387;26050.861
756.483;19467.230;  -10.647;26798.779
757.054;19835.418;  -11.837;27048.238
757.625;19766.668;  -12.716;26294.838
758.195;19511.326;   -9.666;26142.076
758.766;19759.625;   -8.656;26392.234
759.337;19287.686;  -12.856;26334.594
759.907;19121.857;  -13.366;27579.652
760.478;18854.182;   -8.576;28352.770
761.048;19881.063;  -10.526;27325.088
761.619;20072.525;  -11.116;26460.428
762.189;18665.551;  -12.136;26029.826
762.760;18293.912;   -9.456;26430.145
763.330;18729.568;   -7.136;26670.902
763.900;18894.447;  -11.786;26603.021
764.471;18507.162;  -11.546;25542.740
765.041;17583.354;   -8.096;24358.459
765.611;16796.209;   -8.876;23991.297
766.181;16805.188;  -12.196;24470.236
766.751;16680.807;  -11.636;24845.975
767.321;17666.234;  -10.156;24533.633
767.891;17060.793;  -11.766;24916.492
768.461;17201.693;  -14.936;24776.771
769.031;18178.100;  -12.356;24757.988
769.601;18864.668;   -7.526;24181.088
770.171;18741.699;  -10.766;23670.387
770.741;18028.813;  -13.176;22960.045
771.311;17487.373;  -10.616;22917.523
771.880;17615.555;   -9.576;23562.941
772.450;17215.523;  -10.336;24216.500
773.020;16798.975;  -13.516;24140.398
773.589;17461.422;  -13.466;24414.857
774.159;17407.922;   -8.686;23858.717
774.729;16007.108;   -9.476;22942.135
775.298;14192.890;  -13.666;22324.033
775.867;13914.526;  -11.716;21140.313
776.437;14024.037;   -9.906;20838.092
777.006;13289.965;  -12.166;20599.510
777.576;12797.888;  -12.356;20508.809
778.145;12713.908;  -11.646;20732.947
778.714;13165.179;   -8.226;21062.465
779.283;14275.146;   -9.556;20949.664
779.853;15018.602;  -14.116;20508.623
780.422;14472.289;  -11.506;20649.082
780.991;14033.972;   -9.556;21527.520
781.560;13693.687;   -9.095;22632.658
782.129;13479.390;  -12.135;23048.277
782.698;13338.465;  -10.865;23438.555
783.267;13039.444;   -9.335;23267.734
783.836;13093.174;  -11.045;22415.133
784.404;13727.739;  -13.865;20443.152
784.973;12992.250;  -13.095;19699.150
785.542;11608.747;  -11.575;19763.828
786.111;10957.237;   -9.705;20341.408
786.679;11671.995;  -12.105;20207.967
787.248;12016.147;  -12.455;19516.465
787.817;11794.136;  -11.535;18900.363
788.385;11894.167;   -9.765;17879.121
788.954;11789.587;  -14.005;17658.301
789.522;11212.842;  -11.955;17788.879
790.090;11466.147;  -10.135;18118.277
790.659;12438.262;  -10.975;18338.736
791.227;12415.529;  -13.375;18508.615
791.795;11868.731;  -12.375;17898.254
792.364;11307.203;  -10.725;17295.133
792.932;11457.460;   -9.715;16822.051
793.500;11556.664;  -12.675;17040.148
794.068;11297.741;  -13.495;17179.787
794.636;10155.373;  -10.885;16664.246
795.204; 9132.116;  -11.045;16524.545
795.772; 9750.480;  -13.175;17274.564
796.340;10867.473;  -12.445;17891.002
796.908;10741.595;   -9.735;17648.561
797.476;11133.396;   -9.815;17064.080
798.044;12009.256;  -13.985;16672.777
798.612;11871.859;  -13.115;17023.996
799.180;10576.082;  -10.185;16561.615
799.747; 9518.105;   -9.055;15962.773
800.315; 8893.781;  -12.385;15296.992
800.883; 9167.220;  -15.035;14801.771
801.450; 9453.687;  -10.365;14534.430
802.018; 9546.667;   -9.855;14173.248
802.585; 9698.157;  -11.905;14029.547
803.153; 9234.013;  -11.585;13836.846
803.720; 8598.300;   -9.095;13567.324
804.287; 8666.621;   -9.135;13360.622
804.855; 8962.516;  -11.604;13681.981
805.422; 9032.122;  -11.794;13536.560
805.989; 8895.110;  -10.734;13355.958
806.556; 8486.910;  -10.444;13747.896
807.124; 8359.528;  -12.764;13987.376
807.691; 8932.607;  -12.964;14038.674
808.258; 9359.445;  -11.134;14120.152
808.825; 9568.282;   -9.854;13860.111
809.392; 9280.063;  -10.504;13268.790
809.959; 8848.413;  -13.054;12680.389
810.526; 8680.749;   -8.294;12427.308
811.093; 8345.851;   -8.394;12030.105
811.659; 7534.273;  -12.304;11653.664
812.226; 7298.566;  -13.944;11637.183
812.793; 7829.870;  -10.484;11611.521
813.360; 7959.793;  -10.144;11885.181
813.926; 7210.423;  -11.684;12770.539
814.493; 6585.822;  -13.644;12677.638
815.060; 6472.162;   -9.724;11974.336
815.626; 6818.131;   -9.854;11594.715
816.193; 6861.215;  -13.254;11579.474
816.759; 6866.227;  -13.204;11666.972
817.325; 6645.429;   -9.434;11325.530
817.892; 6317.937;  -10.134;11105.369
818.458; 6228.734;  -13.474;10843.928
819.024; 6230.196;  -11.854;10714.406
819.591; 6524.898;  -10.244;10469.165
820.157; 6622.621;  -10.704;10235.523
820.723; 6873.771;  -12.324;10847.563
821.289; 7301.780;   -9.444;11040.980
821.855; 7381.318;   -8.374;10357.100
822.421; 6986.540;  -10.234; 9978.918
822.987; 6720.715;  -13.294; 9754.177
823.553; 6585.335;  -10.884;10065.755
824.119; 6131.360;   -8.884;10036.294
824.685; 5925.983;   -6.784;10029.192
825.251; 5860.687;  -12.004;10199.230
825.816; 5956.381;  -11.474; 9820.189
826.382; 5720.295;   -9.174; 9297.248
826.948; 5439.488;   -9.214; 9381.347
827.513; 5209.408;  -10.774; 9450.726
828.079; 5160.502;  -11.924; 9472.444
828.645; 5290.771;  -10.543; 9292.643
829.210; 5531.219;  -10.533; 9065.341
829.776; 5551.398;  -10.753; 9132.620
830.341; 5425.481;  -10.173; 9092.878
830.906; 5498.195;  -10.743; 9078.557
831.472; 5379.211;  -11.113; 8534.535
832.037; 4887.561;  -10.603; 8677.874
832.602; 4810.764;  -13.323; 8628.692
833.167; 5153.510;  -10.823; 8879.031
833.733; 5121.016;  -10.113; 9189.790
834.298; 4873.039;  -13.583; 9052.608
834.863; 4746.060;  -12.703; 8895.087
835.428; 4629.455;  -10.523; 8824.266
835.993; 4580.676;   -6.963; 8845.385
836.558; 4672.677;  -10.763; 8888.563
837.123; 4780.997;   -9.903; 8966.582
837.688; 4612.387;   -9.913; 8617.860
838.253; 4461.812;  -10.283; 8590.699
838.817; 4588.395;  -12.963; 8443.797
839.382; 4775.486;  -14.243; 8799.356
839.947; 4684.177;  -10.733; 8810.595
840.511; 4761.462;   -9.383; 8796.394
841.076; 4782.588;  -12.563; 8347.231
841.641; 4584.505;  -12.953; 8224.330
842.205; 4295.010;   -7.043; 8223.349
842.770; 4248.991;   -8.163; 8622.107
843.334; 4289.506;  -12.503; 8410.386
843.898; 4244.728;  -11.693; 8337.465
844.463; 4136.809;  -10.203; 8506.283
845.027; 4052.042;   -9.533; 8280.962
845.591; 4101.444;  -13.443; 8231.141
846.156; 4025.670;  -13.143; 7969.179
846.720; 3844.300;   -9.433; 7768.278
847.284; 3556.625;  -11.033; 7630.957
847.848; 3395.082;  -10.403; 7472.395
848.412; 3407.750;  -11.553; 7437.394
848.976; 3596.965;   -8.393; 7674.592
849.540; 3632.780;   -8.713; 7836.011
850.104; 3603.607;  -12.463; 7913.669
850.668; 3740.265;  -12.973; 7694.508
851.232; 3778.920;  -10.793; 7756.887
851.796; 3694.454;  -10.662; 7926.545
852.359; 3735.146;  -13.082; 7827.844
852.923; 3500.593;  -12.192; 7641.163
853.487; 3420.956;  -11.912; 7342.501
854.050; 3587.039;  -10.892; 7042.820
854.614; 3576.284;  -13.992; 7151.338
855.177; 3452.529;  -11.732; 7105.077
855.741; 3361.726;   -8.962; 6989.675
856.304; 3251.096;   -9.442; 6596.634
856.868; 3002.447;  -14.192; 6356.272
857.431; 2784.131;  -12.702; 6468.571
857.995; 2821.504;   -9.942; 6373.210
858.558; 2851.016;   -9.112; 6324.448
859.121; 2666.327;  -12.932; 6408.327
859.684; 2613.188;  -13.442; 6347.886
860.247; 3035.545;  -10.632; 6321.264
860.810; 3381.273;  -11.272; 6301.903
861.374; 3414.862;   -9.832; 6607.881
861.937; 3402.658;  -11.762; 6408.200
862.500; 3248.278;   -9.722; 6572.639
863.062; 2918.762;  -10.512; 6387.297
863.625; 2795.608;  -11.232; 6190.836
864.188; 2795.974;  -14.112; 5807.254
864.751; 2794.924;  -11.302; 5682.413
865.314; 2913.374;  -10.112; 5547.492
865.876; 2950.257;  -12.182; 5500.150
866.439; 2870.262;  -10.722; 5415.909
867.002; 2713.838;   -9.252; 5501.567
867.564; 2604.114;   -9.572; 5413.946
868.127; 2474.083;  -13.142; 5160.325
868.689; 2180.806;  -12.902; 5133.183
869.252; 2040.538;   -9.732; 5252.382
869.814; 2062.035;   -9.432; 5297.141
870.377; 2180.634;  -11.552; 5390.919
870.939; 2164.783;   -9.052; 5599.898
871.501; 2085.297;  -10.982; 5248.336
872.063; 2111.606;  -12.292; 4854.235
872.626; 2123.525;  -14.912; 4817.074
873.188; 2133.015;  -13.112; 4987.732
873.750; 2102.894;  -13.442; 4868.651
874.312; 2221.289;   -9.402; 4779.330
874.874; 2505.737;  -11.062; 4866.348
875.436; 2530.479;  -13.931; 4718.887
875.998; 2215.596;   -9.561; 4660.005
876.560; 1904.094;  -11.321; 4462.964
877.122; 1622.595;  -12.221; 4145.042
877.683; 1262.647;  -12.191; 4056.481
878.245; 1059.520;  -12.101; 3950.740
878.807; 1050.530;   -8.971; 4058.958
879.369; 1144.170;  -12.071; 3954.677
879.930; 1232.614;  -14.621; 3941.495
880.492; 1215.463;  -10.311; 4067.014
881.053; 1151.904;  -10.901; 3859.633
881.615; 1177.498;  -14.411; 3776.071
882.176; 1245.399;  -13.761; 3734.750
882.738; 1298.492;   -9.181; 3678.489
883.299; 1296.443;  -11.791; 3405.407
883.860; 1250.419;  -13.121; 3351.106
884.422; 1168.001;  -11.211; 3394.044
884.983; 1100.549;  -10.091; 3166.443
885.544; 1085.934;   -8.461; 3189.802
886.105; 1042.575;  -12.361; 3160.360
886.666;  978.549;  -14.141; 3093.059
887.227;  951.218;  -11.361; 2941.957
887.788;  966.845;  -11.401; 2974.836
888.349;  929.508;  -13.791; 2721.214
888.910;  844.482;  -13.191; 2696.493
889.471;  749.066;   -9.881; 2560.172
890.032;  675.492;   -9.881; 2558.190
890.593;  675.999;  -10.371; 2567.669
891.153;  682.800;  -13.301; 2460.307
891.714;  625.302;  -11.431; 2372.046
892.275;  577.242;  -11.291; 2309.505
892.835;  561.094;  -11.471; 2382.543
893.396;  552.409;  -11.541; 2295.502
893.956;  548.072;  -11.181; 2162.420
894.517;  536.192;  -11.741; 2125.439
895.077;  492.585;  -11.671; 2086.978
895.638;  445.767;  -11.311; 2126.316
896.198;  426.312;   -9.831; 1838.275
896.758;  425.176;   -8.421; 1892.813
897.319;  417.945;  -12.351; 1792.232
897.879;  402.308;  -13.511; 1762.751
898.439;  376.198;  -12.001; 1661.149
898.999;  357.181;  -10.180; 1781.468
899.559;  343.705;  -12.030; 1703.347
900.119;  336.746;  -15.710; 1537.525
900.679;  316.287;   -8.900; 1638.384
901.239;  287.210;   -8.340; 1527.902
901.799;  272.324;  -13.910; 1456.441
902.359;  263.970;  -13.460; 1357.140
902.919;  258.569;  -11.490; 1331.118
903.479;  253.957;  -12.110; 1317.257
904.038;  247.907;  -11.720; 1262.595
904.598;  232.944;  -13.610; 1152.034
905.158;  222.222;  -11.040; 1240.893
905.717;  214.076;  -10.900; 1233.691
906.277;  210.897;  -15.080; 1217.330
906.836;  209.120;  -13.380; 1222.408
907.396;  206.326;  -10.780; 1193.047
907.955;  199.142;   -8.500; 1182.526
908.515;  192.351;  -12.760; 1099.364
909.074;  188.509;  -11.900; 1092.863
909.633;  184.459;   -8.950; 1069.121
910.192;  181.175;   -8.770; 1196.460
910.752;  176.783;  -12.390; 1029.960
911.311;  175.098;  -13.680; 1009.780
911.870;  169.619;  -12.370;  971.460
912.429;  166.070;  -10.900; 1094.080
912.988;  163.005;  -11.690; 1081.060
913.547;  160.894;  -13.240;  940.380
914.106;  158.729;  -11.990;  999.420
914.665;  157.953;   -9.990;  984.020
915.224;  157.287;  -12.880; 1035.760
915.782;  156.043;  -12.350;  922.560
916.341;  153.318;   -9.110; 1049.840
916.900;  147.138;   -9.270;  925.260
917.458;  143.932;  -13.240;  884.220
918.017;  144.953;  -13.550;  942.600
918.576;  143.989;  -12.320;  904.440
919.134;  143.308;  -11.490;  837.980
919.693;  143.261;  -13.670;  893.060
920.251;  143.446;  -15.470;  876.500
920.809;  142.842;  -11.290;  839.580
921.368;  142.637;  -10.210;  885.360
921.926;  141.569;  -12.140;  842.940
922.484;  143.048;  -13.080;  903.360
923.042;  142.285;  -11.720;  880.340
923.601;  142.160;   -7.480;  998.680
924.159;  140.803;  -11.570;  935.560
924.717;  141.646;  -13.840;  841.080
925.275;  143.112;  -10.640;  903.240
925.833;  140.498;  -11.540;  779.320
926.391;  140.986;  -12.960;  938.380
926.949;  142.435;  -14.130;  857.680
927.506;  142.136;  -11.750;  903.500
928.064;  139.257;  -10.250;  877.580
928.622;  139.220;  -13.030;  880.100
929.180;  142.136;  -13.400;  814.180
929.737;  142.746;  -10.700;  808.540
930.295;  143.510;  -10.070;  928.480
930.853;  143.846;  -11.960;  849.100
931.410;  143.197;  -13.120;  821.120
931.968;  144.185;  -10.770;  940.660
932.525;  145.180;  -10.680;  909.380
933.082;  147.291;  -13.130;  811.440
933.640;  154.757;  -13.210;  925.900
934.197;  154.720;  -11.060;  886.360
934.754;  153.947;   -9.580;  897.780
935.312;  153.673;  -14.000;  863.340
935.869;  158.526;  -10.710; 1012.980
936.426;  156.250;   -9.860;  872.800
936.983;  154.824;   -9.710;  889.020
937.540;  152.331;  -13.990;  838.280
938.097;  154.048;  -14.040;  940.120
938.654;  156.927;  -10.310;  898.860
939.211;  155.602;  -10.560;  952.480
939.768;  154.977;  -13.900;  915.420
940.324;  157.536;  -14.760;  904.200
940.881;  161.174;  -10.370;  878.500
941.438;  166.669;   -8.260; 1021.200
941.995;  168.062;  -12.540;  992.560
942.551;  166.717;  -14.670;  875.620
943.108;  167.135;  -10.450;  937.920
943.664;  167.310;  -10.750;  869.340
944.221;  172.562;  -11.550; 1088.140
944.777;  175.661;  -14.770;  869.680
945.334;  174.059;  -12.820;  884.840
945.890;  170.855;  -10.130;  946.480
946.446;  169.187;  -13.470;  947.020
947.003;  170.499;  -12.120;  964.940
947.559;  171.195;   -9.980; 1063.040
948.115;  165.709;   -9.080; 1026.540
948.671;  162.838;  -10.830;  967.300
949.227;  161.496;  -12.440;  859.560
949.783;  160.730;  -12.910;  858.900
950.339;  161.567;  -10.270;  991.000
950.895;  162.706;  -13.630; 1023.840
951.451;  163.568;  -15.100;  925.280
952.007;  163.036;  -11.330;  998.540
952.563;  160.078;  -10.580;  937.780
953.118;  156.095;  -13.440;  904.940
953.674;  154.589;  -12.710;  935.780
954.230;  156.475;  -10.350;  949.640
954.785;  158.402;   -9.190;  936.640
955.341;  160.373;  -11.200;  998.160
955.897;  157.649;  -16.560;  834.660
956.452;  155.268;  -12.570;  953.840
957.008;  151.567;   -7.970; 1083.640
957.563;  150.352;  -11.940; 1009.540
958.118;  150.320;  -13.450;  877.700
958.674;  150.461;  -12.030;  946.780
959.229;  148.491;   -9.410; 1013.980
959.784;  146.907;  -12.000;  832.400
960.339;  146.595;  -14.780; 1001.280
960.894;  139.836;   -9.860;  963.760
961.449;  133.300;   -9.970;  859.960
962.004;  131.310;  -10.900; 1212.840
962.559;  127.424;  -13.150;  860.140
963.114;  125.533;  -13.740;  742.480
963.669;  125.519;   -9.820;  915.500
964.224;  124.676;  -13.890;  874.340
964.779;  126.147;  -12.600;  828.420
965.334;  127.146;  -10.950; 1017.860
965.888;  122.874;  -11.170;  875.360
966.443;  124.914;  -12.540;  972.380
966.998;  124.968;  -15.780;  819.460
967.552;  125.483;   -9.760;  908.380
968.107;  118.675;   -9.060;  868.300
968.661;  116.657;  -11.950;  922.440
969.216;  116.925;  -12.800;  856.280
969.770;  117.516;  -11.210;  917.200
970.324;  113.593;  -11.610;  923.140
970.879;  111.141;  -11.370;  947.180
971.433;  112.132;  -12.540;  952.720
971.987;  110.560;  -11.320;  895.340
972.541;  108.661;  -10.720;  917.100
973.095;  109.332;   -9.680; 1009.460
973.649;  109.200;  -11.440;  809.480
974.203;  109.230;  -11.210;  829.040
974.757;  108.585;  -10.240;  855.220
975.311;  108.360;  -13.720;  872.600
975.865;  109.790;  -13.770;  881.820
976.419;  108.809;  -11.690;  857.400
976.973;  107.289;   -9.510;  849.620
977.526;  106.796;  -12.620;  949.920
978.080;  104.829;  -12.010;  796.780
978.634;  103.920;  -10.170;  921.320
979.187;   99.217;   -9.020;  905.400
979.741;   98.166;   -9.820; 1018.380
980.294;   95.450;  -14.870;  789.160
980.848;   91.848;  -12.380;  717.220
981.401;   90.241;  -10.350;  816.540
981.955;   89.578;  -13.720;  844.300
982.508;   87.971;  -11.490;  746.340
983.061;   87.613;  -10.000;  915.260
983.615;   86.479;  -11.480;  798.800
984.168;   85.636;  -13.220;  770.080
984.721;   87.129;  -13.960;  880.760
985.274;   84.619;  -10.870;  867.500
985.827;   82.341;   -9.790;  834.220
986.380;   80.338;  -13.120;  721.340
986.933;   83.428;  -12.450;  864.800
987.486;   82.331;  -10.210;  861.920
988.039;   79.549;   -8.430;  863.100
988.591;   76.719;  -10.520;  893.260
989.144;   74.706;  -14.860;  737.260
989.697;   72.899;  -13.080;  758.740
990.250;   71.023;  -10.150;  858.100
990.802;   68.626;  -13.430;  755.860
991.355;   69.594;  -12.750;  974.880
991.907;   66.523;  -12.040;  864.320
992.460;   63.453;  -11.330;  753.760
993.012;   62.770;  -13.610;  749.540
993.565;   63.124;  -13.460;  711.360
994.117;   63.841;   -9.360;  950.780
994.669;   59.876;  -11.300;  701.320
995.221;   59.789;  -13.540;  791.920
995.774;   60.476;  -13.430;  787.580
996.326;   59.074;  -12.520;  740.220
996.878;   58.361;  -10.950;  838.420
997.430;   55.661;  -14.300;  699.860
997.982;   55.434;  -13.760;  750.140
998.534;   55.520;  -11.530;  739.060
999.086;   53.160;  -10.310;  738.220
999.638;   51.393;  -12.530;  661.380
1000.190;   51.888;  -11.840;  699.320
1000.741;   51.612;  -10.260;  742.700
1001.293;   49.814;   -8.860;  686.020
1001.845;   49.301;  -13.700;  676.640
1002.396;   51.121;  -12.100;  743.400
1002.948;   50.493;  -12.760;  737.400
1003.500;   47.924;  -10.380;  723.780
1004.051;   47.438;  -11.900;  907.580
1004.603;   47.766;  -12.250;  791.820
1005.154;   44.397;  -13.210;  608.980
1005.705;   43.953;  -10.950;  723.960
1006.257;   42.149;  -13.880;  707.220
1006.808;   42.359;  -12.840;  685.460
1007.359;   42.342;  -10.570;  763.240
1007.910;   39.894;   -9.620;  646.640
1008.461;   39.585;  -13.630;  732.940
1009.013;   39.975;  -17.200;  588.340
1009.564;   41.366;  -10.200;  793.520
1010.115;   38.497;  -12.570;  597.040
1010.665;   37.152;  -15.150;  602.160
1011.216;   38.700;  -14.480;  667.920
1011.767;   38.152;  -11.340;  697.920
1012.318;   37.497;   -9.780;  736.980
1012.869;   36.341;  -12.380;  679.000
1013.419;   36.712;  -15.560;  603.120
1013.970;   37.166;  -11.010;  666.640
1014.521;   35.598;  -11.610;  620.620
1015.071;   35.504;  -13.450;  670.380
1015.622;   36.534;  -13.870;  635.460
1016.172;   36.470;  -11.610;  596.820
1016.723;   33.954;  -12.120;  614.380
1017.273;   34.374;  -13.620;  604.160
1017.823;   35.602;  -14.140;  650.340
1018.374;   35.108;  -12.800;  611.760
1018.924;   33.111;  -12.340;  716.880
1019.474;   34.062;  -11.410;  718.880
1020.024;   33.216;  -14.770;  657.580
1020.574;   34.213;   -9.780;  726.160
1021.124;   32.810;   -8.560;  673.580
1021.674;   31.975;  -15.190;  559.120
1022.224;   34.487;  -13.530;  708.940
1022.774;   33.704;  -13.280;  668.820
1023.324;   32.781;  -10.690;  753.520
1023.874;   34.086;  -10.240;  875.760
1024.423;   32.238;  -12.540;  613.700
1024.973;   32.184;  -10.010;  610.760
1025.523;   30.465;  -10.550;  620.960
1026.072;   29.702;  -13.560;  606.420
1026.622;   30.936;  -15.120;  675.740
1027.172;   32.177;  -11.260;  715.660
1027.721;   29.077;  -11.410;  601.220
1028.270;   30.159;  -13.530;  663.400
1028.820;   30.523;  -13.680;  638.080
1029.369;   30.973;  -13.520;  612.700
1029.918;   29.771;  -10.980;  649.840
1030.468;   28.977;  -13.530;  564.780
1031.017;   30.778;  -13.170;  634.800
1031.566;   29.447;  -12.200;  608.900
1032.115;   29.201;   -9.960;  694.500
1032.664;   27.317;  -13.210;  596.480
1033.213;   29.983;  -12.500;  735.420
1033.762;   28.752;  -11.910;  635.620
1034.311;   27.311;   -9.640;  677.220
1034.860;   27.813;  -13.310;  691.000
1035.408;   29.497;  -11.830;  722.720
1035.957;   29.628;  -12.000;  719.540
1036.506;   25.659;  -11.690;  530.800
1037.055;   28.418;  -10.990;  844.320
1037.603;   27.378;  -15.120;  664.000
1038.152;   26.831;  -12.450;  534.760
1038.700;   26.947;  -10.560;  585.740
1039.249;   24.975;  -11.080;  681.220
1039.797;   26.916;  -12.540;  633.360
1040.345;   26.734;  -11.920;  705.420
1040.894;   25.287;  -11.410;  625.300
1041.442;   24.719;  -14.320;  632.200
1041.990;   25.163;  -16.240;  559.160
1042.538;   24.849;  -11.680;  536.180
1043.087;   24.114;  -10.760;  570.860
1043.635;   25.047;  -11.850;  670.500
1044.183;   24.705;  -15.480;  586.400
1044.731;   25.094;  -11.770;  576.000
1045.279;   23.635;  -13.090;  674.920
1045.827;   25.634;  -12.440;  892.400
1046.374;   23.541;  -13.840;  515.420
1046.922;   23.839;  -13.220;  590.580
1047.470;   23.980;  -10.230;  691.300
1048.018;   23.646;  -14.590;  647.960
1048.565;   25.587;  -12.050;  708.600
1049.113;   23.810;  -11.650;  557.000
1049.660;   23.347;  -10.510;  629.660
1050.208;   23.217;  -13.310;  675.640
1050.755;   22.494;  -15.900;  606.580
1051.303;   23.930;  -11.430;  686.820
1051.850;   21.526;   -8.480;  635.120
1052.397;   20.840;  -15.010;  473.960
1052.945;   22.249;  -13.960;  617.760
1053.492;   23.646;  -13.150;  741.840
1054.039;   21.924;   -9.630;  720.180
1054.586;   20.851;  -13.680;  557.240
1055.133;   23.594;  -14.570;  693.140
1055.680;   23.227;  -13.820;  646.620
1056.227;   20.635;  -11.730;  542.780
1056.774;   22.501;  -12.480;  794.980
1057.321;   20.911;  -13.930;  523.260
1057.868;   22.280;  -11.690;  651.320
1058.415;   20.544;   -9.520;  651.980
1058.961;   20.153;  -13.160;  678.940
1059.508;   21.343;  -12.920;  643.820
1060.055;   20.862;  -11.920;  581.780
1060.601;   20.565;  -11.500;  624.300
1061.148;   20.371;  -14.330;  616.820
1061.694;   20.526;  -16.870;  592.580
1062.241;   20.687;  -10.330;  596.320
1062.787;   19.831;  -10.620;  663.140
1063.334;   21.002;  -10.110;  808.560
1063.880;   20.372;  -13.400;  668.360
1064.426;   19.763;  -10.680;  706.820
1064.972;   18.866;   -9.920;  601.340
1065.518;   16.373;  -10.980;  566.640
1066.065;   19.875;  -14.890;  624.460
1066.611;   19.311;  -12.870;  598.800
1067.157;   18.435;  -12.950;  641.860
1067.703;   18.010;  -13.540;  668.480
1068.249;   19.159;  -13.540;  605.220
1068.794;   19.090;  -12.600;  626.880
1069.340;   17.713;  -10.620;  578.960
1069.886;   17.324;  -12.830;  590.700
1070.432;   17.460;  -14.870;  541.720
1070.977;   17.753;  -11.980;  601.080
1071.523;   16.648;   -8.200;  573.060
1072.068;   16.875;  -12.330;  582.000
1072.614;   17.163;  -16.370;  527.760
1073.160;   18.517;  -11.100;  687.040
1073.705;   15.827;  -10.480;  572.520
1074.250;   15.919;  -14.520;  559.900
1074.796;   18.117;  -11.460;  655.160
1075.341;   17.951;  -11.950;  664.100
1075.886;   16.014;  -11.460;  594.240
1076.431;   15.003;  -13.770;  649.880
1076.976;   16.813;  -12.680;  639.220
1077.521;   16.888;  -13.170;  583.080
1078.067;   14.915;  -10.860;  579.400
1078.612;   14.524;  -13.920;  661.620
1079.156;   16.837;  -13.880;  601.540
1079.701;   16.070;  -13.120;  693.260
1080.246;   15.307;   -9.940;  696.300
1080.791;   15.174;  -14.740;  625.020
1081.336;   17.012;  -13.750;  659.320
1081.880;   16.648;  -13.400;  649.680
1082.425;   14.007;  -12.220;  573.480
1082.970;   15.391;  -11.610;  717.040
1083.514;   15.149;  -13.580;  597.000
1084.059;   14.404;  -12.810;  586.720
1084.603;   13.649;  -12.320;  565.840
1085.147;   13.520;  -13.190;  645.220
1085.692;   15.725;  -12.480;  716.800
1086.236;   14.391;  -13.020;  503.140
1086.780;   15.297;   -9.190;  751.440
1087.325;   13.739;  -12.480;  654.620
1087.869;   14.722;  -12.450;  610.700
1088.413;   15.427;  -12.240;  705.040
1088.957;   12.587;   -9.020;  543.400
1089.501;   13.909;  -10.320;  766.640
1090.045;   14.157;  -12.720;  726.480
1090.589;   12.410;  -13.690;  569.920
1091.133;   12.700;  -10.020;  673.340
1091.676;   12.466;  -12.330;  591.940
1092.220;   12.308;  -14.970;  600.920
1092.764;   14.288;  -12.430;  706.960
1093.307;   12.857;   -9.800;  673.780
1093.851;   10.954;  -14.970;  556.540
1094.395;   13.716;  -15.310;  683.140
1094.938;   13.142;  -10.370;  632.520
1095.482;   12.070;  -11.050;  559.800
1096.025;   12.166;  -11.840;  710.880
1096.568;   13.773;  -12.840;  779.280
1097.112;   10.990;  -14.700;  508.180
1097.655;   11.792;   -8.720;  603.000
1098.198;    9.945;  -13.610;  600.180
1098.741;   11.336;  -13.350;  612.860
1099.285;   11.881;  -11.230;  657.300
1099.828;    9.940;  -11.840;  439.400
1100.371;   10.357;  -10.840;  608.160
1100.914;   11.631;  -14.190;  682.660
1101.457;   12.570;  -11.240;  679.900
1101.999;    9.349;  -11.270;  584.680
1102.542;   10.438;  -11.480;  641.440
1103.085;   10.394;  -11.750;  658.500
1103.628;   11.578;  -11.400;  762.060
1104.170;    8.993;  -10.490;  588.280
1104.713;    9.975;  -10.600;  646.700
1105.256;   10.722;  -14.360;  557.440
1105.798;   10.321;  -13.210;  499.980
1106.341;   10.369;  -10.270;  728.900
1106.883;    8.720;  -12.200;  521.340
1107.425;   11.169;  -13.110;  668.180
1107.968;   10.367;  -12.840;  612.380
1108.510;    9.264;   -6.480;  684.960
1109.052;    7.209;  -13.940;  612.620
1109.594;    8.871;  -13.690;  554.440
1110.136;   10.745;  -11.880;  643.220
1110.679;    8.281;   -9.500;  633.080
1111.221;    8.610;  -14.160;  604.460
1111.763;    8.856;  -13.980;  559.220
1112.304;    8.888;  -13.880;  547.140
1112.846;    8.889;  -12.210;  666.240
1113.388;   11.257;  -11.390;  942.180
1113.930;    9.525;  -14.540;  694.200
1114.472;    8.726;  -12.640;  606.540
1115.013;    6.349;  -11.620;  551.280
1115.555;    6.134;  -13.640;  587.100
1116.097;    7.020;  -15.380;  579.480
1116.638;    9.034;  -12.640;  684.600
1117.180;    8.075;   -9.850;  667.740
1117.721;    6.223;  -13.690;  568.580
1118.262;    9.063;  -12.680;  677.960
1118.804;    9.333;  -12.530;  637.340
1119.345;    6.941;  -11.690;  578.400
1119.886;    7.289;  -13.380;  704.040
1120.427;    6.771;  -14.070;  589.020
1120.969;    7.719;  -13.500;  597.920
1121.510;    5.627;  -11.480;  563.060
1122.051;    6.282;  -12.830;  723.580
1122.592;    6.607;  -14.290;  655.420
1123.133;    5.734;  -12.400;  547.940
1123.673;    7.356;  -10.130;  706.480
1124.214;    5.186;  -12.930;  612.460
1124.755;    7.752;  -14.380;  639.460
1125.296;    7.338;  -14.000;  627.320
1125.836;    6.754;  -10.070;  691.500
1126.377;    5.242;  -12.640;  599.660
1126.918;    6.591;  -12.960;  614.980
1127.458;    5.866;  -13.350;  622.220
1127.999;    6.699;  -10.750;  656.980
1128.539;    5.198;  -12.350;  694.240
1129.079;    5.406;  -14.860;  632.720
1129.620;    5.834;  -13.840;  558.100
1130.160;    3.722;  -12.330;  539.480
1130.700;    5.447;  -14.530;  640.840
1131.240;    6.533;  -12.530;  643.700
1131.781;    6.083;  -14.450;  619.680
1132.321;    5.133;   -9.790;  599.120
1132.861;    3.493;  -14.860;  564.200
1133.401;    4.971;  -14.290;  593.940
1133.941;    5.804;  -11.750;  626.280
1134.481;    3.941;   -9.920;  597.580
1135.020;    3.004;  -12.290;  609.160
1135.560;    5.203;  -11.650;  674.940
1136.100;    3.736;  -16.270;  501.160
1136.640;    3.335;  -10.890;  510.480
1137.179;    2.749;  -14.180;  537.960
1137.719;    5.115;  -16.250;  605.400
1138.258;    5.757;  -14.230;  587.360
1138.798;    3.994;   -9.090;  663.780
1139.337;    2.535;  -15.130;  482.840
1139.877;    4.466;  -13.680;  642.360
1140.416;    6.430;  -11.320;  878.060
1140.955;    2.355;  -10.860;  535.380
1141.494;    3.152;  -12.920;  669.280
1142.034;    3.147;  -13.930;  583.520
1142.573;    5.330;  -11.440;  646.280
1143.112;    2.118;  -12.000;  553.480
1143.651;    2.144;  -13.670;  536.480
1144.190;    4.511;  -12.730;  691.640
1144.729;    3.775;  -14.560;  607.420
1145.267;    3.187;  -11.830;  584.900
1145.806;    2.768;  -12.230;  637.040
1146.345;    2.573;  -14.130;  635.020
1146.884;    3.874;  -11.590;  622.500
1147.422;    2.194;  -12.550;  533.060
1147.961;    2.952;  -11.180;  708.460
1148.500;    3.372;  -11.510;  669.720
1149.038;    3.785;  -11.640;  632.500
1149.577;    2.528;  -10.130;  698.640
1150.115;    0.419;  -13.970;  452.280
1150.653;    3.518;  -14.520;  607.340
1151.192;    3.043;  -12.810;  552.920
1151.730;    2.092;   -9.100;  652.560
1152.268;    0.779;  -12.220;  589.520
1152.806;    2.061;  -14.140;  571.180
1153.344;    1.411;  -12.350;  577.640
1153.882;    1.708;   -8.980;  600.060
1154.421;   -0.398;  -15.190;  470.620
1154.958;    1.759;  -15.210;  595.240
1155.496;    3.596;  -12.850;  645.280
1156.034;    1.262;   -9.940;  721.880
1156.572;    2.014;  -13.570;  667.060
1157.110;    0.672;  -14.590;  473.940
1157.647;    2.832;  -13.030;  676.960
1158.185;    0.345;  -12.140;  564.320
1158.723;   -0.422;  -14.390;  509.200
1159.260;    1.325;  -14.090;  701.700
1159.798;    2.552;  -11.920;  658.160
1160.335;    0.553;  -11.110;  631.820

