gmr_right
Integration time [ms]:   3.882
Averaging Nr. [scans]: 1000
Smoothing Nr. [pixels]: 0
Data measured with spectrometer [name]: 7414430SP
Wave   ;Sample   ;Dark     ;Reference
[nm]   ;[counts] ;[counts] ;[counts] 

288.544;  130.802;   10.292;  793.890
289.143;  133.322;    4.564;  681.602
289.742;  135.241;    6.144;  828.814
290.341;  121.845;    4.396;  789.841
290.940;  111.980;    0.938;  730.702
291.538;  112.829;   -0.684;  881.108
292.137;  111.867;   -2.845;  792.581
292.736;  115.801;   -0.144;  975.101
293.335;  112.614;   -6.352;  735.086
293.934;  112.402;   -7.642;  781.677
294.532;  111.844;   -4.992; 1031.958
295.131;   98.282;   -5.478;  834.394
295.730;   98.911;   -6.549;  809.588
296.328;   96.452;   -9.558;  783.442
296.927;   96.378;   -8.118;  779.652
297.525;   97.429;   -6.908;  781.236
298.124;   88.218;   -9.195;  654.009
298.722;   92.794;   -8.198;  761.933
299.321;   91.018;   -8.817;  708.597
299.919;   88.743;   -7.716;  751.918
300.518;   84.685;  -10.745;  689.338
301.116;   85.609;   -9.647;  691.381
301.715;   85.731;  -10.828;  730.222
302.313;   85.223;   -6.087;  704.943
302.911;   80.849;   -6.824;  733.830
303.509;   87.146;   -8.807;  925.627
304.108;   83.880;   -8.198;  760.383
304.706;   83.964;   -6.218;  801.664
305.304;   78.281;   -7.185;  796.707
305.902;   83.376;   -8.568;  784.484
306.500;   79.215;   -7.737;  728.200
307.098;   77.002;   -6.026;  746.560
307.696;   75.610;   -7.176;  780.432
308.294;   76.666;   -8.656;  731.359
308.892;   78.750;   -6.838;  759.769
309.490;   74.082;   -2.596;  712.161
310.088;   72.620;   -4.485;  788.444
310.686;   77.806;   -3.907;  821.749
311.284;   73.172;   -2.806;  766.040
311.882;   71.658;   -2.845;  731.225
312.480;   67.004;   -3.274;  697.167
313.078;   70.111;   -3.645;  808.331
313.675;   69.964;   -4.997;  691.600
314.273;   65.494;   -0.894;  797.837
314.871;   64.503;   -2.854;  589.829
315.468;   62.598;   -3.644;  652.090
316.066;   66.047;   -3.947;  694.427
316.664;   58.856;   -1.824;  656.351
317.261;   63.469;    1.565;  910.128
317.859;   59.098;   -3.955;  768.735
318.456;   59.449;   -2.886;  830.096
319.054;   55.890;   -0.995;  787.828
319.651;   55.497;   -1.765;  759.928
320.249;   54.120;   -3.685;  810.188
320.846;   52.776;   -3.736;  714.286
321.443;   50.413;   -2.065;  832.135
322.041;   48.225;   -5.635;  812.315
322.638;   46.201;   -5.985;  701.456
323.235;   48.254;   -6.677;  665.683
323.833;   44.062;   -3.497;  740.354
324.430;   41.654;   -6.756;  615.900
325.027;   43.414;   -7.647;  876.855
325.624;   43.579;   -7.598;  644.532
326.221;   40.498;   -5.848;  689.717
326.818;   39.797;   -5.777;  818.332
327.415;   42.593;   -8.769;  748.828
328.012;   41.707;   -6.299;  690.585
328.609;   40.558;   -6.639;  731.389
329.206;   38.982;   -6.358;  778.621
329.803;   37.669;   -8.698;  737.841
330.400;   39.530;   -8.379;  704.260
330.997;   40.477;   -6.178;  817.147
331.594;   38.138;   -5.646;  788.185
332.191;   42.644;   -6.928;  728.722
332.787;   43.432;   -6.057;  844.463
333.384;   41.192;   -6.445;  763.093
333.981;   39.994;   -8.002;  815.687
334.578;   42.304;   -8.443;  708.378
335.174;   44.226;   -6.053;  731.469
335.771;   43.350;   -5.791;  836.456
336.367;   40.561;   -6.570;  710.631
336.964;   42.846;   -6.741;  793.266
337.561;   43.092;   -5.710;  731.112
338.157;   38.287;   -3.928;  911.916
338.754;   35.732;   -5.577;  796.589
339.350;   33.596;   -9.667;  722.493
339.946;   37.164;   -5.269;  773.135
340.543;   30.018;   -4.485;  846.136
341.139;   24.153;   -7.584;  720.836
341.735;   22.619;   -8.553;  772.593
342.332;   22.706;   -4.984;  691.472
342.928;   21.681;   -3.475;  795.394
343.524;   17.569;   -6.653;  761.684
344.120;   13.735;   -7.173;  738.562
344.716;   17.144;   -4.385;  723.717
345.313;   15.526;   -3.565;  795.342
345.909;   11.129;   -7.495;  627.336
346.505;   12.856;   -8.276;  740.247
347.101;   13.245;   -5.697;  827.864
347.697;   13.986;   -4.767;  785.398
348.293;    8.583;   -7.226;  627.244
348.889;   10.370;   -7.547;  745.914
349.485;    8.907;   -9.147;  688.205
350.081;   10.108;   -6.568;  772.592
350.676;    5.830;   -6.516;  691.606
351.272;   10.168;   -7.378;  809.530
351.868;    9.842;   -6.759;  780.497
352.464;    7.173;   -4.798;  723.932
353.059;    2.457;   -7.977;  646.017
353.655;    7.170;   -8.769;  777.063
354.251;    8.154;   -5.920;  759.845
354.846;    2.525;   -7.647;  740.646
355.442;    0.543;   -6.956;  753.071
356.038;    2.308;   -9.928;  751.708
356.633;    2.878;   -7.698;  728.594
357.229;    0.814;   -6.307;  724.757
357.824;   -0.966;   -7.647;  703.600
358.420;   -1.788;  -10.047;  679.726
359.015;   -1.050;   -7.458;  695.357
359.610;    0.414;   -5.748;  763.920
360.206;   -6.468;   -9.346;  603.240
360.801;   -3.431;  -11.268;  646.503
361.396;   -0.496;   -8.789;  725.975
361.992;   -4.716;   -6.347;  668.220
362.587;   -7.502;   -6.476;  670.160
363.182;   -5.891;   -9.457;  689.631
363.777;   -4.992;   -7.147;  738.242
364.372;   -4.677;   -5.507;  737.314
364.967;   -8.912;   -6.386;  680.744
365.563;   -3.558;   -7.858;  815.567
366.158;   -5.814;   -8.517;  685.161
366.753;   -6.515;   -8.728;  649.263
367.348;   -7.584;   -7.677;  746.056
367.942;   -7.552;  -10.387;  697.298
368.537;   -8.064;   -7.187;  754.245
369.132;   -8.714;   -8.587;  703.428
369.727;  -12.696;   -8.606;  638.079
370.322;  -11.072;  -10.426;  580.186
370.917;  -11.182;   -5.776;  710.646
371.511;   -7.771;   -6.007;  861.834
372.106;  -11.643;   -6.686;  776.964
372.701;  -15.704;   -9.335;  585.988
373.296;   -9.366;   -6.777;  863.135
373.890;  -13.945;   -7.546;  647.840
374.485;  -15.554;   -8.755;  691.199
375.079;  -12.253;   -9.797;  738.685
375.674;  -10.298;   -6.327;  812.970
376.268;  -14.710;   -9.046;  691.759
376.863;  -20.320;   -7.993;  580.327
377.457;  -14.567;   -9.206;  662.490
378.052;  -15.718;   -5.345;  764.884
378.646;  -16.473;   -5.605;  741.167
379.240;  -17.214;   -6.825;  721.176
379.835;  -16.101;  -10.476;  636.978
380.429;  -18.201;   -8.676;  562.557
381.023;  -17.706;   -4.945;  779.205
381.617;  -20.860;   -8.094;  680.106
382.212;  -16.104;  -10.646;  685.303
382.806;  -15.811;   -8.136;  760.690
383.400;  -19.753;   -7.855;  672.281
383.994;  -20.493;   -8.125;  664.870
384.588;  -16.244;   -7.637;  697.701
385.182;  -15.214;   -7.458;  726.624
385.776;  -17.258;   -6.277;  706.875
386.370;  -20.905;   -7.485;  681.968
386.964;  -18.360;   -9.416;  684.155
387.558;  -16.916;   -8.518;  598.360
388.152;  -20.137;   -7.096;  681.959
388.745;  -18.843;   -7.656;  814.707
389.339;  -16.670;   -8.927;  747.642
389.933;  -15.398;   -9.538;  695.370
390.527;  -16.134;   -5.857;  859.029
391.120;  -22.814;   -9.455;  595.318
391.714;  -19.793;   -9.746;  711.633
392.308;  -16.283;   -7.857;  780.253
392.901;  -20.729;   -9.106;  642.460
393.495;  -22.707;  -10.365;  595.414
394.089;  -19.632;   -9.696;  760.452
394.682;  -21.229;   -7.016;  697.188
395.275;  -20.726;   -8.466;  719.927
395.869;  -22.816;   -8.985;  667.314
396.462;  -20.785;  -11.496;  616.609
397.056;  -16.474;   -7.838;  776.621
397.649;  -21.500;   -6.895;  731.575
398.242;  -17.998;   -5.017;  712.645
398.836;  -17.081;   -8.787;  766.408
399.429;  -18.807;   -8.967;  631.041
400.022;  -22.146;   -8.815;  665.902
400.615;  -19.234;   -6.276;  805.609
401.208;  -17.636;   -8.407;  691.451
401.802;  -20.438;   -7.296;  699.329
402.395;  -21.336;   -7.585;  683.502
402.988;  -22.726;   -8.015;  696.627
403.581;  -18.897;   -9.577;  646.878
404.174;  -16.616;   -7.588;  686.568
404.767;  -19.311;   -7.906;  638.583
405.360;  -21.499;   -7.875;  621.445
405.953;  -15.282;   -8.127;  759.034
406.545;  -15.694;   -7.198;  725.342
407.138;  -19.878;   -8.916;  618.350
407.731;  -18.581;   -9.767;  613.303
408.324;  -14.730;  -10.659;  660.554
408.917;  -16.037;   -8.068;  681.864
409.509;  -17.007;   -9.837;  740.396
410.102;  -19.433;   -8.146;  643.948
410.695;  -13.041;   -7.969;  665.758
411.287;  -13.846;   -8.579;  599.821
411.880;  -14.974;   -6.968;  585.421
412.472;  -17.586;   -9.487;  613.092
413.065;  -15.133;  -10.338;  629.408
413.657;  -13.463;   -9.169;  576.678
414.250;  -13.027;  -10.119;  646.681
414.842;  -15.000;   -9.938;  676.353
415.434;  -12.099;  -10.409;  570.463
416.027;   -8.360;   -9.591;  652.196
416.619;  -10.493;   -7.379;  713.400
417.211;  -11.084;   -9.159;  599.352
417.804;   -6.531;   -9.191;  628.499
418.396;  -11.151;   -8.159;  607.643
418.988;   -8.883;   -6.960;  659.238
419.580;  -12.409;  -11.389;  568.276
420.172;   -8.832;  -13.460;  536.196
420.764;   -5.347;  -10.701;  672.482
421.356;   -6.307;   -8.961;  636.898
421.948;   -7.169;   -9.770;  677.661
422.540;   -1.535;   -8.832;  680.027
423.132;   -3.306;   -8.153;  600.641
423.724;   -6.551;   -8.481;  561.267
424.316;   -4.993;   -9.261;  621.345
424.908;   -0.062;   -9.643;  591.517
425.500;    0.464;   -8.663;  647.978
426.092;    0.734;   -8.503;  648.268
426.683;    0.482;  -10.522;  684.836
427.275;    2.767;  -11.734;  641.471
427.867;    4.614;  -10.264;  668.948
428.458;    4.972;   -7.644;  732.344
429.050;    2.749;   -7.853;  680.749
429.642;    5.496;   -8.904;  743.124
430.233;    6.272;  -10.795;  569.356
430.825;    7.429;   -7.665;  724.809
431.416;    4.819;   -8.843;  698.241
432.008;    7.627;   -9.885;  651.723
432.599;    9.553;   -9.966;  656.073
433.190;    5.816;   -9.164;  637.670
433.782;    6.003;   -8.584;  590.395
434.373;   13.424;   -8.296;  884.765
434.964;   11.040;   -9.896;  602.920
435.556;    8.625;   -8.255;  634.537
436.147;   12.044;   -8.075;  758.490
436.738;   12.229;   -9.716;  701.099
437.329;   17.855;   -7.318;  721.723
437.920;   10.171;   -6.694;  666.688
438.511;    9.707;   -9.644;  564.526
439.103;   17.393;   -9.427;  623.998
439.694;   19.276;  -10.748;  681.583
440.285;   20.443;   -7.997;  764.432
440.876;   18.630;  -10.046;  845.738
441.466;   17.960;  -13.467;  575.162
442.057;   23.205;   -9.329;  665.814
442.648;   21.403;   -7.707;  746.255
443.239;   19.508;   -9.017;  620.477
443.830;   24.730;  -10.279;  704.958
444.421;   27.169;  -12.630;  655.474
445.011;   23.220;   -8.697;  693.619
445.602;   22.472;   -7.787;  743.126
446.193;   24.563;  -13.329;  488.117
446.783;   29.904;   -9.171;  640.397
447.374;   24.466;   -7.457;  692.759
447.964;   25.862;   -9.277;  713.770
448.555;   33.751;   -9.041;  822.742
449.145;   30.178;   -8.969;  662.853
449.736;   31.857;   -6.809;  803.179
450.326;   32.318;   -7.229;  713.626
450.917;   36.422;  -11.391;  675.324
451.507;   35.725;   -9.501;  600.661
452.097;   35.945;   -8.460;  746.267
452.688;   37.385;  -10.080;  742.160
453.278;   36.869;  -12.861;  566.840
453.868;   42.384;   -8.372;  793.550
454.458;   38.937;   -8.131;  651.141
455.048;   40.672;   -8.520;  711.783
455.639;   41.439;  -13.632;  567.096
456.229;   45.346;  -10.143;  710.694
456.819;   47.607;   -9.163;  751.158
457.409;   47.131;   -8.652;  773.993
457.999;   50.913;   -9.933;  737.505
458.589;   49.695;  -10.363;  686.606
459.179;   50.349;  -10.633;  717.658
459.769;   48.060;  -12.442;  627.099
460.358;   53.366;   -9.844;  797.262
460.948;   52.879;   -9.924;  689.503
461.538;   54.309;  -10.484;  660.677
462.128;   52.385;  -10.703;  664.934
462.717;   59.510;  -11.486;  710.326
463.307;   62.801;  -10.767;  705.846
463.897;   57.662;   -8.814;  656.942
464.486;   57.288;   -8.182;  837.128
465.076;   61.952;   -9.985;  733.776
465.666;   66.287;  -10.447;  652.900
466.255;   63.113;   -7.754;  785.651
466.845;   61.774;  -10.884;  666.749
467.434;   65.676;  -12.525;  725.873
468.023;   67.112;  -11.456;  658.357
468.613;   63.816;   -9.173;  713.946
469.202;   68.348;   -9.306;  646.507
469.791;   72.519;   -8.917;  737.811
470.381;   74.222;   -9.657;  742.813
470.970;   74.136;   -9.947;  711.099
471.559;   74.012;   -9.256;  733.291
472.148;   77.260;  -13.397;  675.737
472.738;   80.494;   -9.928;  765.466
473.327;   78.972;  -10.897;  637.529
473.916;   77.966;   -8.526;  737.446
474.505;   82.787;  -11.078;  751.703
475.094;   86.645;   -9.559;  806.570
475.683;   86.580;   -8.838;  797.699
476.272;   86.554;  -10.198;  730.632
476.861;   90.447;  -11.489;  706.754
477.449;   96.107;  -10.721;  728.487
478.038;   89.559;   -9.818;  692.513
478.627;   92.044;   -9.887;  714.852
479.216;   98.100;  -10.030;  769.441
479.805;  100.578;   -9.401;  783.375
480.393;  100.780;   -5.739; 1008.945
480.982;   99.182;   -7.838;  874.501
481.571;  106.686;   -9.111;  858.333
482.159;  106.964;  -10.601;  705.386
482.748;  106.730;   -8.500;  821.385
483.336;  111.731;   -9.241;  858.209
483.925;  112.034;  -10.440;  774.373
484.513;  119.025;  -11.063;  758.962
485.102;  114.801;   -9.540;  810.965
485.690;  124.584;   -6.742; 1011.050
486.278;  126.116;   -8.442;  979.329
486.867;  126.399;  -10.472;  809.662
487.455;  128.152;   -8.811;  898.229
488.043;  128.632;  -10.721;  748.361
488.631;  138.825;  -10.393; 1005.079
489.220;  142.907;  -10.843;  908.626
489.808;  141.389;  -10.572;  741.415
490.396;  149.625;  -10.482;  914.645
490.984;  155.671;  -11.542;  830.161
491.572;  164.560;   -8.463;  940.315
492.160;  170.119;   -8.491;  919.081
492.748;  180.328;   -9.681;  884.341
493.336;  199.841;  -10.493; 1019.693
493.924;  222.500;   -9.354;  958.077
494.512;  250.298;   -9.132; 1066.638
495.100;  289.166;   -9.001; 1103.280
495.687;  341.900;  -11.924; 1206.373
496.275;  409.262;  -11.193; 1150.796
496.863;  480.810;   -9.241; 1281.171
497.451;  573.567;  -11.341; 1386.805
498.038;  695.360;  -11.364; 1556.729
498.626;  808.123;   -8.104; 1741.407
499.214;  972.307;   -8.842; 2016.609
499.801; 1203.884;  -10.112; 2220.633
500.389; 1410.684;  -11.953; 2312.494
500.976; 1598.473;  -10.023; 2744.849
501.564; 1858.647;   -8.662; 3148.565
502.151; 2195.744;  -10.531; 3515.999
502.738; 2559.416;  -13.853; 3971.274
503.326; 3074.167;  -10.794; 4403.796
503.913; 3485.459;   -8.663; 5161.749
504.500; 4024.889;  -10.172; 5986.420
505.088; 4870.087;  -13.472; 6381.201
505.675; 5443.313;  -10.924; 6925.547
506.262; 5512.324;   -8.551; 7619.060
506.849; 5994.251;  -10.523; 8733.969
507.436; 6795.292;  -10.834; 9790.121
508.023; 7244.251;   -9.093; 9985.472
508.610; 7588.406;  -10.073;10434.618
509.197; 8561.729;   -9.500;11198.435
509.784;10057.746;  -13.242;12391.194
510.371;11022.389;  -10.964;13603.713
510.958;11432.973;   -9.772;14426.586
511.545;11845.188;   -7.842;15243.775
512.132;11917.476;  -12.184;15945.876
512.719;13070.019;   -9.733;16340.369
513.305;15820.455;   -9.172;18011.766
513.892;17160.885;   -9.581;19754.971
514.479;18108.207;  -10.253;20967.805
515.066;19120.490;   -8.183;22299.793
515.652;20373.602;   -9.253;22908.660
516.239;22207.359;   -9.412;23798.875
516.825;23609.385;  -11.153;25567.275
517.412;23789.504;  -10.263;28154.959
517.998;23712.768;   -8.802;28344.111
518.585;24186.977;  -10.401;27134.219
519.171;23822.568;  -12.744;27268.576
519.758;24969.736;  -11.793;28964.129
520.344;27941.010;   -8.912;30664.494
520.930;31316.271;  -10.901;32550.605
521.516;31385.193;  -12.034;35422.895
522.103;31516.086;  -10.473;38280.004
522.689;33228.551;   -8.311;37835.117
523.275;35977.391;  -10.691;37288.613
523.861;38285.898;  -11.193;37281.395
524.447;36185.176;  -11.484;37846.949
525.033;36034.059;   -7.702;38321.949
525.619;35729.379;  -11.241;38579.285
526.205;35617.656;  -12.152;40622.875
526.791;37000.094;  -11.423;42258.836
527.377;37607.883;   -7.981;42966.902
527.963;37913.641;   -9.450;42018.949
528.549;38188.156;  -11.351;42476.828
529.135;38214.496;  -10.202;41854.852
529.721;39843.039;   -8.672;41237.711
530.306;39906.336;   -9.111;41259.445
530.892;40950.133;  -11.252;41506.047
531.478;43952.398;  -10.432;43559.613
532.063;45975.773;  -10.721;47695.563
532.649;46806.289;   -7.450;50808.324
533.235;48553.055;  -11.811;51787.500
533.820;47703.051;   -9.383;52145.035
534.406;45419.953;   -9.400;51133.488
534.991;43820.609;   -8.861;49996.805
535.576;44929.512;  -10.612;48882.852
536.162;42962.824;   -7.322;46942.285
536.747;42309.809;   -9.360;45711.746
537.333;43845.258;  -10.450;48510.180
537.918;46718.059;  -12.610;50439.891
538.503;46797.410;  -12.132;50863.711
539.088;43866.383;  -10.831;50906.922
539.673;43179.566;  -11.220;52621.965
540.259;47083.039;  -11.481;52368.094
540.844;47754.941;  -11.462;50879.109
541.429;48636.813;   -7.869;52077.777
542.014;47065.898;  -11.859;52716.695
542.599;45184.625;  -11.061;52363.281
543.184;46220.656;  -12.300;53187.137
543.769;48128.383;   -9.369;54697.605
544.354;49093.035;  -12.020;53913.914
544.938;44415.379;  -10.350;49680.164
545.523;40681.555;  -10.841;47386.277
546.108;43715.125;   -8.579;49151.949
546.693;46126.852;   -8.818;51384.637
547.278;47359.418;  -11.331;51853.254
547.862;47051.141;  -10.292;51173.750
548.447;44739.789;   -8.349;51691.395
549.031;44215.590;  -10.838;52456.703
549.616;45666.105;  -11.681;52714.516
550.201;48572.172;  -11.140;52414.598
550.785;47018.566;   -8.649;52355.059
551.370;46486.832;  -11.889;54589.453
551.954;47885.918;  -11.239;58267.348
552.538;49279.918;   -8.850;59062.176
553.123;51415.816;  -10.829;58115.285
553.707;52254.137;   -8.887;56556.285
554.291;49305.969;  -10.430;56201.668
554.876;47356.660;   -9.799;55335.762
555.460;44580.785;  -10.018;54155.703
556.044;42932.828;   -7.307;53721.484
556.628;46787.875;  -12.229;53731.016
557.212;48457.426;   -9.820;54312.531
557.796;46325.773;   -9.109;53797.773
558.380;42516.543;   -9.707;56145.984
558.964;43175.242;  -10.980;57277.930
559.548;46938.941;  -12.010;56459.641
560.132;47716.094;   -7.928;54434.543
560.716;50220.723;  -10.247;54800.617
561.300;50887.246;  -11.250;57606.945
561.884;48930.027;  -10.568;58972.445
562.467;48473.461;   -9.727;57327.570
563.051;45375.496;  -11.847;54962.434
563.635;43318.023;  -10.747;52594.473
564.219;41274.648;  -13.108;50610.410
564.802;38065.480;  -11.417;49551.180
565.386;34998.727;  -10.457;48370.953
565.969;36559.348;   -8.959;48178.871
566.553;37958.785;  -10.328;49957.305
567.136;39502.844;  -10.257;50369.594
567.720;40536.285;  -10.186;49492.004
568.303;40080.430;  -10.027;50616.352
568.887;40631.469;  -10.397;50727.148
569.470;41851.621;   -8.185;51698.379
570.053;40880.875;  -11.596;52122.078
570.637;39755.695;  -11.378;52536.438
571.220;39739.242;   -9.138;51186.098
571.803;39082.590;   -7.675;51032.762
572.386;37136.266;   -8.976;49609.887
572.969;37613.223;  -12.477;48285.926
573.552;38142.773;   -9.767;47624.285
574.135;37458.867;   -8.175;45498.641
574.718;32860.949;  -11.096;41970.434
575.301;31627.926;  -11.966;41447.137
575.884;30394.900;  -12.836;40923.836
576.467;35638.871;   -9.116;45267.723
577.050;37739.188;  -10.536;48175.543
577.633;37832.992;  -11.027;47729.328
578.216;36448.941;   -9.946;47579.793
578.799;35355.613;   -9.645;47820.996
579.381;35498.125;   -9.446;48115.551
579.964;36223.988;  -12.217;47333.766
580.547;37145.387;  -10.586;46668.969
581.129;36622.125;   -8.374;44466.141
581.712;34847.313;  -10.434;44164.922
582.294;34011.363;  -10.896;46477.855
582.877;35296.883;   -8.906;48244.254
583.459;36252.777;   -9.994;47437.895
584.042;35703.316;  -10.084;46943.219
584.624;34623.563;  -13.534;46792.227
585.206;33336.660;  -12.716;46557.250
585.789;33694.105;  -11.614;45793.773
586.371;34662.273;  -10.203;43836.391
586.953;33684.762;  -10.314;42972.492
587.536;31594.145;   -9.776;42487.211
588.118;31571.207;   -9.821;42086.414
588.700;32333.346;  -10.073;43389.930
589.282;33560.492;  -12.395;43646.039
589.864;32326.332;  -11.514;43438.109
590.446;32314.631;  -10.803;43151.926
591.028;33772.344;  -11.043;42781.867
591.610;34268.551;  -13.244;42839.098
592.192;31128.709;  -11.095;42820.402
592.774;28612.365;  -10.823;40724.277
593.356;27881.775;  -11.052;39874.789
593.937;29935.912;  -11.664;39980.648
594.519;32900.105;  -10.454;42069.633
595.101;33972.313;  -10.322;42976.031
595.683;32813.281;  -10.042;44084.441
596.264;31149.398;  -14.334;43478.797
596.846;30851.664;  -10.863;43803.672
597.427;31591.527;   -9.901;42986.934
598.009;32096.475;  -10.911;42832.219
598.591;32726.420;  -10.483;42580.086
599.172;31361.625;   -9.663;43061.805
599.753;29274.686;  -10.631;41691.469
600.335;28549.906;   -9.371;40692.520
600.916;29137.625;  -13.992;39982.422
601.498;29446.551;   -8.352;40318.617
602.079;26773.855;   -8.411;40670.609
602.660;28252.443;  -10.841;41450.898
603.241;31846.699;  -12.963;41137.738
603.823;32319.586;  -11.523;38868.797
604.404;30987.807;  -11.881;38182.785
604.985;31473.516;  -11.721;38078.047
605.566;33007.309;   -9.293;38056.633
606.147;32365.537;  -10.940;37020.418
606.728;30743.920;  -11.840;37883.359
607.309;29677.541;  -11.781;38748.273
607.890;30419.070;  -11.262;38850.230
608.471;29846.154;  -10.111;37457.918
609.051;29492.217;   -7.709;36066.457
609.632;30418.742;  -12.409;35991.074
610.213;29788.469;  -10.811;37402.641
610.794;28894.445;  -11.630;38383.363
611.374;29814.602;   -8.030;40562.387
611.955;30954.295;  -10.809;38533.727
612.536;32371.855;  -10.531;36951.789
613.116;32514.125;  -12.820;37197.891
613.697;31638.287;  -11.419;38411.125
614.277;30937.150;   -9.768;38673.938
614.858;31285.672;  -10.251;37075.863
615.438;28189.021;  -11.981;35092.906
616.019;25751.010;   -8.978;33666.301
616.599;28430.371;  -12.219;34189.023
617.179;31563.568;  -14.170;36952.047
617.760;33109.852;   -9.211;39582.574
618.340;33672.402;   -9.018;38943.977
618.920;32203.961;   -9.249;37594.156
619.500;31285.701;  -12.728;37866.938
620.080;33475.715;  -12.939;37869.043
620.660;33134.492;  -11.586;36868.617
621.241;31813.613;  -11.538;36352.309
621.821;32249.092;  -11.398;35459.520
622.401;33422.070;  -10.179;35207.414
622.980;34142.074;  -11.587;35980.422
623.560;33303.934;  -12.888;37351.328
624.140;31074.242;  -13.149;34388.582
624.720;26319.621;   -9.928;32368.764
625.300;25772.078;  -10.869;32638.629
625.880;30453.354;   -8.617;34599.035
626.459;35108.035;  -12.138;36831.738
627.039;36632.449;  -12.267;38299.098
627.619;36388.250;   -7.476;38289.574
628.198;36731.910;  -11.347;37220.695
628.778;36018.480;  -11.678;37632.563
629.357;34007.246;  -12.438;38003.012
629.937;32113.934;   -9.576;38402.039
630.516;30890.154;  -11.096;37868.801
631.096;29906.631;  -11.828;35760.410
631.675;29972.516;  -11.565;35225.219
632.254;30353.461;  -11.845;35130.289
632.834;31531.795;  -11.545;35794.570
633.413;32538.313;  -10.887;35788.922
633.992;34406.324;  -10.175;34532.863
634.571;33515.582;   -9.704;33590.113
635.151;30851.783;  -10.815;34943.863
635.730;30142.969;  -11.617;35352.523
636.309;29267.734;  -10.836;35366.605
636.888;29863.416;   -9.755;36165.637
637.467;30519.590;  -11.684;37515.902
638.046;32177.479;  -11.987;39288.695
638.625;33547.898;  -10.455;38279.699
639.204;33331.633;  -11.234;37741.598
639.782;30905.395;  -12.023;38364.551
640.361;28404.680;  -11.506;36740.621
640.940;27950.295;  -12.316;34950.082
641.519;30234.109;  -11.616;34137.398
642.097;34302.184;   -9.266;35654.258
642.676;34921.883;  -12.936;35637.957
643.255;33507.801;   -9.966;36567.074
643.833;33235.871;   -8.916;37809.434
644.412;34571.555;  -10.936;37337.293
644.990;37404.047;  -12.176;37018.531
645.569;38477.992;  -12.246;36518.469
646.147;37503.695;  -12.107;36186.430
646.726;36171.352;  -12.937;36267.688
647.304;38216.152;  -12.547;36647.625
647.882;38856.098;  -12.597;39286.742
648.461;37226.195;   -9.427;39157.703
649.039;35372.211;   -8.937;35412.883
649.617;33262.813;  -11.067;34744.918
650.195;33357.570;  -10.657;35403.098
650.773;32971.750;  -10.097;35053.797
651.352;30656.266;  -11.887;33756.816
651.930;25971.340;  -13.557;31868.773
652.508;22799.752;  -11.767;33121.551
653.086;24022.781;  -10.777;33564.793
653.663;27503.119;  -12.067;34054.668
654.241;30311.242;  -14.918;35693.309
654.819;32117.738;  -11.788;36422.906
655.397;32039.031;  -11.268;38213.484
655.975;33081.145;  -11.738;39507.625
656.553;32569.980;  -11.018;39498.223
657.130;31589.305;  -12.848;40395.480
657.708;30811.869;  -10.098;39242.020
658.286;31464.459;  -11.678;38920.020
658.863;34148.934;  -11.498;40202.898
659.441;36496.867;  -11.008;39677.938
660.018;37119.039;  -11.048;40413.355
660.596;37117.523;  -12.058;39931.414
661.173;36457.918;  -14.158;39604.531
661.750;35453.531;  -12.298;39700.070
662.328;34301.969;  -10.699;39292.809
662.905;32570.266;  -12.119;38235.648
663.482;27943.164;  -11.829;36212.305
664.060;26946.531;  -11.009;35944.945
664.637;29816.688;  -10.369;35170.785
665.214;30271.273;  -10.459;34197.523
665.791;28872.301;  -12.599;34549.520
666.368;28595.914;  -12.919;35118.578
666.945;30655.699;  -10.699;36019.418
667.522;31860.395;  -11.359;36048.438
668.099;31972.998;  -13.529;36243.914
668.676;31641.232;  -10.229;35958.875
669.253;31497.648;   -9.279;37384.730
669.830;30374.186;  -11.370;36779.629
670.407;30607.660;  -10.950;35231.289
670.984;31977.102;  -12.850;35544.270
671.560;31649.264;   -8.440;35466.867
672.137;30046.492;  -13.520;34280.863
672.714;29144.984;  -13.620;34632.863
673.290;29780.154;  -10.450;35135.422
673.867;29433.934;  -10.960;36114.480
674.443;28018.920;  -13.300;36152.859
675.020;28597.260;  -12.370;35327.238
675.596;29373.701;  -11.250;35795.176
676.173;30021.561;  -11.080;35430.355
676.749;30091.779;  -13.220;33549.516
677.326;32752.625;  -13.000;32210.012
677.902;34515.543;  -12.701;32068.871
678.478;34249.480;  -12.801;32583.891
679.054;33675.324;   -8.601;32088.928
679.631;34732.734;  -12.631;30978.848
680.207;34387.063;   -9.451;33160.887
680.783;32803.461;  -11.701;35570.363
681.359;32342.086;  -12.701;36125.184
681.935;32396.660;  -13.271;35240.922
682.511;31473.256;  -10.791;34429.961
683.087;31437.355;  -10.791;34463.680
683.663;31380.607;   -8.121;34648.898
684.239;32820.738;  -13.261;34546.457
684.815;32361.660;  -10.581;35586.375
685.390;29592.629;   -9.961;35821.895
685.966;28660.111;  -11.182;35085.871
686.542;27977.086;  -13.512;34198.230
687.118;27887.801;  -11.472;32847.707
687.693;28211.854;  -10.152;32794.027
688.269;29320.689;  -14.442;33072.367
688.844;30928.031;  -11.852;33141.664
689.420;29193.150;  -13.942;33965.742
689.995;27655.340;   -9.702;34655.523
690.571;27690.523;  -11.312;33576.742
691.146;27129.166;  -14.332;32657.219
691.722;28012.971;  -11.192;32526.979
692.297;30691.186;  -10.962;33014.617
692.872;30261.209;  -11.082;34012.254
693.448;29205.547;  -14.732;34237.434
694.023;28367.840;  -12.363;34142.672
694.598;28214.982;  -12.393;34132.031
695.173;27296.693;  -11.023;34205.250
695.748;26752.707;  -12.743;32882.488
696.323;27966.217;  -11.103;32864.906
696.898;29335.340;   -8.123;33170.004
697.473;29264.336;  -12.603;32432.984
698.048;29020.375;  -12.553;31649.303
698.623;30441.475;  -12.573;30778.141
699.198;33930.391;  -12.743;31140.119
699.773;31993.510;  -12.843;31764.299
700.348;30571.752;  -16.683;31780.816
700.922;30875.934;  -11.403;32046.375
701.497;31748.303;  -11.253;32603.574
702.072;32355.867;  -10.044;34799.871
702.646;32038.879;  -13.054;35793.172
703.221;30410.420;  -11.414;35201.590
703.795;30263.502;  -10.644;34764.527
704.370;31904.396;  -13.484;34307.367
704.944;32124.699;  -12.144;33509.887
705.519;31062.604;  -12.024;31388.584
706.093;29634.709;  -11.234;31340.104
706.668;27829.152;   -9.874;32630.281
707.242;27041.811;  -12.404;32728.779
707.816;27558.475;  -10.644;32947.238
708.390;27048.482;  -11.174;33277.855
708.965;26978.822;  -10.324;33834.336
709.539;26501.742;  -12.014;33709.273
710.113;26309.809;  -12.295;33044.313
710.687;27286.377;  -10.965;31953.992
711.261;28089.803;  -13.685;30505.949
711.835;27497.889;  -15.335;30262.369
712.409;26722.553;  -13.785;31254.447
712.983;27473.898;  -10.525;32754.986
713.557;29396.771;  -13.175;34018.824
714.131;30972.564;  -13.245;34579.625
714.704;32943.902;  -13.175;33890.262
715.278;35215.453;  -11.545;33531.102
715.852;34425.766;  -10.975;33601.660
716.425;32964.438;  -10.075;33515.117
716.999;32526.303;  -12.185;33185.555
717.573;33299.902;   -9.685;33905.996
718.146;35610.410;  -10.516;35199.293
718.720;32794.617;  -12.106;35060.551
719.293;30697.135;  -12.386;34973.230
719.867;33749.227;  -12.456;36394.449
720.440;34382.191;  -10.686;36663.008
721.013;34259.098;  -12.596;35102.426
721.587;34245.324;  -13.956;33985.266
722.160;33645.535;   -9.806;33524.965
722.733;33283.570;  -11.676;32987.043
723.306;32245.100;  -14.276;33066.301
723.880;31924.959;  -12.126;33399.500
724.453;33445.883;  -10.156;33468.297
725.026;32256.422;  -12.956;33816.637
725.599;30228.371;  -11.676;32797.996
726.172;28744.887;  -12.337;33187.434
726.745;29049.398;  -11.277;35136.613
727.318;28955.689;  -11.927;35751.730
727.891;27713.246;  -13.607;35890.430
728.463;27708.031;  -11.327;34822.090
729.036;26777.715;  -11.917;32895.086
729.609;26997.537;  -12.697;31823.225
730.182;28109.135;  -11.787;31445.283
730.754;28652.463;  -12.957;32373.223
731.327;29345.678;  -11.017;33676.820
731.900;28238.488;  -12.797;33417.000
732.472;26400.746;  -10.677;31978.498
733.045;25442.385;  -12.797;30368.777
733.617;26336.617;  -13.908;30574.215
734.190;26602.789;  -12.258;31280.975
734.762;27472.424;  -13.438;31674.412
735.334;28304.941;  -11.758;31247.291
735.907;28240.611;  -11.158;29876.211
736.479;29247.598;  -11.258;29808.488
737.051;31517.000;  -10.918;30233.547
737.623;32739.883;  -11.038;31469.086
738.195;32797.301;  -12.188;31784.225
738.768;29455.025;  -11.378;32120.523
739.340;27748.172;  -12.598;32094.342
739.912;29232.316;  -11.568;31312.680
740.484;30008.838;   -9.348;31946.238
741.056;29349.977;  -12.628;32984.059
741.628;29226.426;  -13.349;33897.715
742.199;29426.775;  -11.309;33213.016
742.771;28429.279;  -12.699;31369.113
743.343;29678.465;  -11.919;31865.473
743.915;30365.635;  -11.679;32388.631
744.487;29316.578;  -12.249;31079.568
745.058;27676.738;  -11.119;30570.107
745.630;26394.133;   -9.439;29970.127
746.201;26642.707;  -11.949;29186.766
746.773;27331.963;  -12.639;28805.723
747.344;26829.750;  -11.039;29591.223
747.916;25181.777;  -12.549;31412.201
748.487;23665.176;  -12.659;32194.898
749.059;23001.180;  -13.059;32533.719
749.630;24929.252;  -12.080;32158.518
750.201;25005.770;  -13.100;30855.395
750.773;23690.707;  -15.310;28622.555
751.344;22937.861;  -12.240;28405.732
751.915;22430.117;  -11.960;28461.551
752.486;21710.947;  -13.200;27842.850
753.057;21549.650;  -15.230;27845.008
753.628;21898.096;  -13.130;27728.107
754.199;22142.695;  -12.720;27381.086
754.770;21815.332;  -10.680;25882.203
755.341;21813.844;  -11.010;25886.184
755.912;21338.193;  -12.990;26050.861
756.483;20088.014;  -11.110;26798.779
757.054;19362.264;  -12.190;27048.238
757.625;19681.938;  -13.981;26294.838
758.195;19613.416;  -11.041;26142.076
758.766;20440.857;  -11.861;26392.234
759.337;21387.264;  -11.461;26334.594
759.907;22300.152;  -15.001;27579.652
760.478;22104.762;   -9.681;28352.770
761.048;21434.533;  -12.421;27325.088
761.619;20782.096;  -11.761;26460.428
762.189;19183.205;  -12.391;26029.826
762.760;18286.018;  -10.201;26430.145
763.330;18891.330;  -10.811;26670.902
763.900;21651.814;  -10.261;26603.021
764.471;22465.914;  -13.061;25542.740
765.041;20470.836;  -11.051;24358.459
765.611;19883.385;  -11.032;23991.297
766.181;19507.021;  -10.532;24470.236
766.751;19339.701;  -13.502;24845.975
767.321;19598.311;  -11.392;24533.633
767.891;19930.670;  -11.522;24916.492
768.461;20273.760;  -13.672;24776.771
769.031;19743.180;  -14.652;24757.988
769.601;18900.561;  -10.182;24181.088
770.171;17699.020;  -11.752;23670.387
770.741;15956.082;  -12.272;22960.045
771.311;15509.300;  -13.112;22917.523
771.880;15786.462;  -14.122;23562.941
772.450;16628.063;  -11.782;24216.500
773.020;18819.705;  -12.642;24140.398
773.589;19100.209;  -13.043;24414.857
774.159;17195.406;  -11.783;23858.717
774.729;15865.512;  -13.473;22942.135
775.298;16470.227;  -14.523;22324.033
775.867;17472.420;  -12.013;21140.313
776.437;16865.531;  -12.113;20838.092
777.006;15481.633;  -13.543;20599.510
777.576;14140.958;  -12.523;20508.809
778.145;13269.598;  -12.173;20732.947
778.714;14199.381;  -12.153;21062.465
779.283;14760.488;  -11.833;20949.664
779.853;15556.514;  -13.483;20508.623
780.422;16486.063;  -12.933;20649.082
780.991;16132.366;  -13.173;21527.520
781.560;14405.647;  -10.224;22632.658
782.129;13627.188;  -12.684;23048.277
782.698;14786.341;  -11.284;23438.555
783.267;16004.771;  -11.684;23267.734
783.836;15251.790;  -10.974;22415.133
784.404;13581.350;  -13.534;20443.152
784.973;13181.133;  -16.734;19699.150
785.542;13102.195;  -12.594;19763.828
786.111;12689.147;  -11.644;20341.408
786.679;13105.022;  -11.384;20207.967
787.248;14041.452;  -12.014;19516.465
787.817;13118.181;  -12.804;18900.363
788.385;11972.777;  -11.994;17879.121
788.954;12231.261;  -12.564;17658.301
789.522;13821.118;  -12.225;17788.879
790.090;14290.596;  -13.775;18118.277
790.659;13302.015;  -12.485;18338.736
791.227;12370.824;  -12.295;18508.615
791.795;12261.375;  -13.415;17898.254
792.364;11748.686;  -12.995;17295.133
792.932;11320.770;   -8.365;16822.051
793.500;11562.073;  -11.925;17040.148
794.068;11955.968;  -13.245;17179.787
794.636;12138.927;  -13.815;16664.246
795.204;11532.792;  -13.375;16524.545
795.772;11255.019;  -12.125;17274.564
796.340;11500.299;  -13.855;17891.002
796.908;11833.967;  -13.456;17648.561
797.476;11395.216;  -13.116;17064.080
798.044;10797.710;  -13.226;16672.777
798.612;11399.923;  -11.236;17023.996
799.180;12516.828;  -10.476;16561.615
799.747;12650.058;  -11.746;15962.773
800.315;11561.795;  -12.366;15296.992
800.883;10511.572;  -14.616;14801.771
801.450;10013.493;  -11.996;14534.430
802.018;10698.899;  -11.206;14173.248
802.585;10642.547;  -12.466;14029.547
803.153; 9791.545;  -12.846;13836.846
803.720; 9402.808;  -12.136;13567.324
804.287; 9106.008;  -10.966;13360.622
804.855; 9176.050;   -9.797;13681.981
805.422; 9002.617;  -13.037;13536.560
805.989; 8618.723;  -12.697;13355.958
806.556; 8772.829;  -11.737;13747.896
807.124; 9195.461;  -11.997;13987.376
807.691; 8817.939;  -13.997;14038.674
808.258; 8476.984;  -10.927;14120.152
808.825; 8860.806;  -13.727;13860.111
809.392; 9425.585;  -11.847;13268.790
809.959; 8967.624;  -14.217;12680.389
810.526; 7987.771;   -8.277;12427.308
811.093; 7519.113;   -9.647;12030.105
811.659; 7411.739;  -10.987;11653.664
812.226; 7093.804;  -13.447;11637.183
812.793; 7222.571;  -14.418;11611.521
813.360; 7724.901;  -13.908;11885.181
813.926; 7883.015;  -12.918;12770.539
814.493; 7674.344;  -14.888;12677.638
815.060; 7712.588;  -12.758;11974.336
815.626; 8040.256;  -13.478;11594.715
816.193; 8155.077;  -13.898;11579.474
816.759; 8008.998;  -13.588;11666.972
817.325; 8058.843;  -12.018;11325.530
817.892; 7780.402;  -14.068;11105.369
818.458; 6897.949;  -13.458;10843.928
819.024; 6413.583;  -11.968;10714.406
819.591; 6070.927;  -11.028;10469.165
820.157; 5776.337;  -12.088;10235.523
820.723; 5712.339;  -12.599;10847.563
821.289; 5940.428;  -10.419;11040.980
821.855; 6607.497;  -10.939;10357.100
822.421; 7231.391;  -12.539; 9978.918
822.987; 7215.550;  -13.259; 9754.177
823.553; 6578.438;  -15.369;10065.755
824.119; 6279.402;  -10.779;10036.294
824.685; 5921.132;   -9.999;10029.192
825.251; 5577.004;  -11.819;10199.230
825.816; 5321.143;  -13.369; 9820.189
826.382; 5385.566;  -12.679; 9297.248
826.948; 5655.409;  -11.199; 9381.347
827.513; 5560.968;  -11.179; 9450.726
828.079; 5429.623;  -13.489; 9472.444
828.645; 5639.075;  -12.500; 9292.643
829.210; 6000.412;  -15.120; 9065.341
829.776; 5988.923;  -12.590; 9132.620
830.341; 5749.363;  -11.540; 9092.878
830.906; 5586.664;  -12.400; 9078.557
831.472; 5440.166;  -12.720; 8534.535
832.037; 5079.147;  -11.490; 8677.874
832.602; 4600.955;  -14.380; 8628.692
833.167; 4628.508;  -12.780; 8879.031
833.733; 4817.021;  -11.100; 9189.790
834.298; 5027.929;  -12.080; 9052.608
834.863; 5145.955;  -13.910; 8895.087
835.428; 4968.493;  -13.470; 8824.266
835.993; 5164.126;  -11.760; 8845.385
836.558; 5544.421;  -12.731; 8888.563
837.123; 5755.307;  -12.431; 8966.582
837.688; 5606.213;  -11.241; 8617.860
838.253; 5308.403;  -13.681; 8590.699
838.817; 4953.767;  -12.531; 8443.797
839.382; 4954.749;  -12.671; 8799.356
839.947; 4944.189;  -11.541; 8810.595
840.511; 4765.831;  -12.021; 8796.394
841.076; 4732.169;  -13.071; 8347.231
841.641; 4701.858;  -11.411; 8224.330
842.205; 4503.611;  -13.671; 8223.349
842.770; 4374.782;  -11.291; 8622.107
843.334; 4450.406;  -12.951; 8410.386
843.898; 4559.866;  -11.221; 8337.465
844.463; 4568.130;  -11.322; 8506.283
845.027; 4417.748;  -11.412; 8280.962
845.591; 4146.959;  -11.512; 8231.141
846.156; 4217.532;  -14.042; 7969.179
846.720; 4447.765;  -12.152; 7768.278
847.284; 4466.832;  -10.922; 7630.957
847.848; 4237.425;  -10.962; 7472.395
848.412; 3903.612;  -14.612; 7437.394
848.976; 3816.307;  -11.492; 7674.592
849.540; 3840.226;   -9.172; 7836.011
850.104; 4108.798;  -11.232; 7913.669
850.668; 4546.113;  -15.182; 7694.508
851.232; 4364.678;  -15.332; 7756.887
851.796; 3976.626;  -13.703; 7926.545
852.359; 3970.156;  -11.113; 7827.844
852.923; 4028.024;  -11.843; 7641.163
853.487; 3967.296;  -11.173; 7342.501
854.050; 3812.445;  -13.443; 7042.820
854.614; 3633.754;  -13.823; 7151.338
855.177; 3578.683;  -16.393; 7105.077
855.741; 3703.466;  -11.693; 6989.675
856.304; 3796.245;  -10.843; 6596.634
856.868; 3736.285;  -13.783; 6356.272
857.431; 3527.563;  -11.953; 6468.571
857.995; 3376.229;  -13.683; 6373.210
858.558; 3407.489;  -11.433; 6324.448
859.121; 3424.185;  -12.493; 6408.327
859.684; 3405.911;  -12.384; 6347.886
860.247; 3382.502;  -14.774; 6321.264
860.810; 3247.537;  -13.154; 6301.903
861.374; 3098.874;  -11.264; 6607.881
861.937; 3019.960;  -15.424; 6408.200
862.500; 3020.694;  -12.854; 6572.639
863.062; 3044.619;  -12.344; 6387.297
863.625; 3039.805;  -13.314; 6190.836
864.188; 2886.614;  -14.724; 5807.254
864.751; 2771.501;  -13.464; 5682.413
865.314; 2752.935;  -11.684; 5547.492
865.876; 2838.930;  -11.104; 5500.150
866.439; 2995.292;  -12.344; 5415.909
867.002; 3022.448;  -13.494; 5501.567
867.564; 3019.155;  -10.935; 5413.946
868.127; 2871.116;  -12.665; 5160.325
868.689; 2633.041;  -14.515; 5133.183
869.252; 2598.392;  -13.425; 5252.382
869.814; 2615.524;  -11.595; 5297.141
870.377; 2644.898;  -12.175; 5390.919
870.939; 2547.114;  -10.265; 5599.898
871.501; 2433.715;  -12.375; 5248.336
872.063; 2404.618;  -14.355; 4854.235
872.626; 2453.490;  -14.435; 4817.074
873.188; 2374.645;  -12.415; 4987.732
873.750; 2324.372;  -14.555; 4868.651
874.312; 2327.210;  -11.185; 4779.330
874.874; 2263.540;  -12.715; 4866.348
875.436; 2106.879;  -13.196; 4718.887
875.998; 1999.634;  -11.426; 4660.005
876.560; 1927.227;   -9.786; 4462.964
877.122; 1919.138;  -12.796; 4145.042
877.683; 1873.613;  -13.226; 4056.481
878.245; 1785.125;  -12.036; 3950.740
878.807; 1701.347;  -11.536; 4058.958
879.369; 1657.863;  -10.806; 3954.677
879.930; 1723.474;  -13.946; 3941.495
880.492; 1845.804;  -11.876; 4067.014
881.053; 1810.870;  -13.216; 3859.633
881.615; 1693.003;  -12.226; 3776.071
882.176; 1625.752;  -12.946; 3734.750
882.738; 1606.074;  -10.736; 3678.489
883.299; 1544.398;  -12.057; 3405.407
883.860; 1424.851;  -12.677; 3351.106
884.422; 1347.411;  -14.097; 3394.044
884.983; 1288.623;  -13.667; 3166.443
885.544; 1227.632;  -10.717; 3189.802
886.105; 1172.721;  -14.357; 3160.360
886.666; 1119.901;  -14.287; 3093.059
887.227; 1069.322;  -14.297; 2941.957
887.788; 1029.150;  -13.137; 2974.836
888.349;  966.617;  -14.637; 2721.214
888.910;  897.712;  -12.247; 2696.493
889.471;  890.844;  -10.577; 2560.172
890.032;  890.919;  -12.937; 2558.190
890.593;  874.761;  -12.487; 2567.669
891.153;  854.694;  -11.898; 2460.307
891.714;  815.026;  -14.278; 2372.046
892.275;  789.072;  -13.308; 2309.505
892.835;  746.836;  -12.058; 2382.543
893.396;  667.277;  -15.268; 2295.502
893.956;  613.143;  -13.278; 2162.420
894.517;  590.286;  -11.968; 2125.439
895.077;  592.108;  -12.798; 2086.978
895.638;  578.308;  -11.908; 2126.316
896.198;  564.139;  -13.288; 1838.275
896.758;  543.399;  -12.198; 1892.813
897.319;  514.578;  -13.048; 1792.232
897.879;  484.269;  -13.718; 1762.751
898.439;  448.654;  -14.138; 1661.149
898.999;  410.483;  -13.659; 1781.468
899.559;  388.225;  -14.699; 1703.347
900.119;  371.055;  -14.339; 1537.525
900.679;  344.823;  -11.789; 1638.384
901.239;  317.052;  -13.629; 1527.902
901.799;  298.453;  -13.679; 1456.441
902.359;  288.353;  -13.679; 1357.140
902.919;  280.411;  -14.159; 1331.118
903.479;  269.113;  -13.419; 1317.257
904.038;  253.204;  -14.899; 1262.595
904.598;  238.579;  -14.339; 1152.034
905.158;  230.175;  -13.959; 1240.893
905.717;  224.054;  -12.749; 1233.691
906.277;  219.587;  -11.889; 1217.330
906.836;  215.356;  -12.870; 1222.408
907.396;  211.087;  -11.790; 1193.047
907.955;  203.417;  -13.750; 1182.526
908.515;  192.578;  -14.760; 1099.364
909.074;  187.497;  -12.540; 1092.863
909.633;  182.592;  -12.120; 1069.121
910.192;  176.475;  -12.550; 1196.460
910.752;  171.694;  -12.760; 1029.960
911.311;  167.512;  -14.750; 1009.780
911.870;  164.791;  -13.860;  971.460
912.429;  165.700;  -13.480; 1094.080
912.988;  164.617;  -12.370; 1081.060
913.547;  160.968;  -14.670;  940.380
914.106;  159.868;  -12.800;  999.420
914.665;  158.589;  -11.370;  984.020
915.224;  155.640;  -11.430; 1035.760
915.782;  153.307;  -12.260;  922.560
916.341;  152.900;  -12.540; 1049.840
916.900;  149.643;  -12.540;  925.260
917.458;  147.147;  -13.480;  884.220
918.017;  146.635;  -12.470;  942.600
918.576;  147.225;  -13.450;  904.440
919.134;  144.882;  -12.890;  837.980
919.693;  144.341;  -15.480;  893.060
920.251;  142.955;  -14.420;  876.500
920.809;  141.913;  -12.170;  839.580
921.368;  141.515;  -13.650;  885.360
921.926;  140.784;  -12.750;  842.940
922.484;  140.494;  -14.150;  903.360
923.042;  140.143;  -15.100;  880.340
923.601;  141.670;  -10.990;  998.680
924.159;  139.773;  -12.470;  935.560
924.717;  139.833;  -15.640;  841.080
925.275;  141.892;  -12.380;  903.240
925.833;  140.922;  -12.710;  779.320
926.391;  143.577;  -11.200;  938.380
926.949;  143.717;  -16.000;  857.680
927.506;  145.217;  -12.260;  903.500
928.064;  145.370;  -11.300;  877.580
928.622;  145.770;  -13.750;  880.100
929.180;  145.542;  -15.290;  814.180
929.737;  146.429;  -14.500;  808.540
930.295;  148.394;  -10.630;  928.480
930.853;  150.613;  -14.590;  849.100
931.410;  151.704;  -14.450;  821.120
931.968;  154.417;  -14.390;  940.660
932.525;  156.035;  -13.050;  909.380
933.082;  159.846;  -15.620;  811.440
933.640;  167.233;  -15.650;  925.900
934.197;  171.510;  -13.610;  886.360
934.754;  175.030;  -13.320;  897.780
935.312;  174.643;  -13.370;  863.340
935.869;  176.241;  -12.780; 1012.980
936.426;  176.348;  -14.480;  872.800
936.983;  179.125;  -13.180;  889.020
937.540;  179.787;  -15.710;  838.280
938.097;  181.476;  -14.980;  940.120
938.654;  180.711;  -13.060;  898.860
939.211;  179.604;  -12.760;  952.480
939.768;  178.980;  -16.230;  915.420
940.324;  187.124;  -10.940;  904.200
940.881;  194.246;  -12.570;  878.500
941.438;  199.866;  -13.650; 1021.200
941.995;  197.644;  -13.300;  992.560
942.551;  195.729;  -15.800;  875.620
943.108;  196.222;  -14.180;  937.920
943.664;  190.198;  -13.890;  869.340
944.221;  190.110;  -12.640; 1088.140
944.777;  190.205;  -14.700;  869.680
945.334;  191.393;  -13.010;  884.840
945.890;  190.613;  -13.480;  946.480
946.446;  184.664;  -14.920;  947.020
947.003;  175.489;  -13.860;  964.940
947.559;  165.051;  -12.000; 1063.040
948.115;  149.864;  -10.510; 1026.540
948.671;  137.223;  -12.760;  967.300
949.227;  129.843;  -15.390;  859.560
949.783;  130.825;  -15.570;  858.900
950.339;  137.813;  -12.800;  991.000
950.895;  143.941;  -13.780; 1023.840
951.451;  146.354;  -13.810;  925.280
952.007;  148.665;  -12.390;  998.540
952.563;  148.062;  -11.980;  937.780
953.118;  145.167;  -14.070;  904.940
953.674;  144.641;  -14.140;  935.780
954.230;  145.769;  -12.680;  949.640
954.785;  147.968;  -12.770;  936.640
955.341;  148.549;  -11.450;  998.160
955.897;  144.081;  -15.350;  834.660
956.452;  145.034;  -14.200;  953.840
957.008;  143.510;  -10.820; 1083.640
957.563;  141.358;  -13.200; 1009.540
958.118;  137.048;  -14.460;  877.700
958.674;  136.320;  -13.840;  946.780
959.229;  136.421;  -10.670; 1013.980
959.784;  138.229;  -17.040;  832.400
960.339;  143.073;  -12.970; 1001.280
960.894;  142.043;  -12.700;  963.760
961.449;  141.033;  -13.790;  859.960
962.004;  145.680;  -11.760; 1212.840
962.559;  144.803;  -14.840;  860.140
963.114;  143.419;  -14.530;  742.480
963.669;  147.736;  -12.780;  915.500
964.224;  148.215;  -14.330;  874.340
964.779;  145.710;  -14.380;  828.420
965.334;  141.060;  -12.460; 1017.860
965.888;  135.327;  -13.490;  875.360
966.443;  135.526;  -14.140;  972.380
966.998;  131.008;  -16.240;  819.460
967.552;  128.905;  -12.730;  908.380
968.107;  126.495;  -14.510;  868.300
968.661;  126.681;  -11.850;  922.440
969.216;  123.882;  -14.370;  856.280
969.770;  123.404;  -13.010;  917.200
970.324;  123.993;  -12.460;  923.140
970.879;  123.601;  -11.580;  947.180
971.433;  123.744;  -13.130;  952.720
971.987;  121.074;  -12.360;  895.340
972.541;  121.444;  -14.330;  917.100
973.095;  120.569;  -13.310; 1009.460
973.649;  117.515;  -15.830;  809.480
974.203;  120.946;  -15.830;  829.040
974.757;  125.881;  -13.480;  855.220
975.311;  123.385;  -13.720;  872.600
975.865;  119.333;  -15.780;  881.820
976.419;  115.707;  -14.290;  857.400
976.973;  114.812;  -13.210;  849.620
977.526;  113.201;  -12.300;  949.920
978.080;  109.207;  -14.840;  796.780
978.634;  110.643;  -13.100;  921.320
979.187;  106.717;  -12.300;  905.400
979.741;  104.531;  -12.020; 1018.380
980.294;   98.004;  -14.590;  789.160
980.848;   94.248;  -14.390;  717.220
981.401;   94.726;  -14.280;  816.540
981.955;   95.094;  -11.920;  844.300
982.508;   93.249;  -15.790;  746.340
983.061;   93.900;  -12.070;  915.260
983.615;   90.809;  -13.260;  798.800
984.168;   87.626;  -15.540;  770.080
984.721;   88.440;  -13.230;  880.760
985.274;   86.864;  -11.820;  867.500
985.827;   84.138;  -13.510;  834.220
986.380;   81.191;  -14.840;  721.340
986.933;   81.613;  -13.970;  864.800
987.486;   81.171;  -12.450;  861.920
988.039;   78.056;  -11.170;  863.100
988.591;   76.595;  -13.070;  893.260
989.144;   72.432;  -15.530;  737.260
989.697;   70.815;  -14.300;  758.740
990.250;   70.997;  -13.310;  858.100
990.802;   68.956;  -14.490;  755.860
991.355;   70.707;  -12.980;  974.880
991.907;   68.928;  -13.715;  864.320
992.460;   67.150;  -14.450;  753.760
993.012;   66.296;  -12.590;  749.540
993.565;   65.440;  -15.180;  711.360
994.117;   66.249;  -11.630;  950.780
994.669;   62.786;  -13.760;  701.320
995.221;   61.523;  -12.710;  791.920
995.774;   60.790;  -14.620;  787.580
996.326;   59.190;  -13.150;  740.220
996.878;   59.863;  -12.880;  838.420
997.430;   58.114;  -14.580;  699.860
997.982;   57.611;  -14.030;  750.140
998.534;   56.866;  -12.190;  739.060
999.086;   55.970;  -12.990;  738.220
999.638;   54.578;  -13.180;  661.380
1000.190;   54.524;  -14.970;  699.320
1000.741;   54.373;  -12.200;  742.700
1001.293;   52.882;  -13.400;  686.020
1001.845;   53.032;  -14.490;  676.640
1002.396;   53.657;  -15.280;  743.400
1002.948;   53.343;  -12.380;  737.400
1003.500;   51.297;  -13.260;  723.780
1004.051;   52.075;  -13.730;  907.580
1004.603;   51.571;  -12.300;  791.820
1005.154;   47.632;  -15.330;  608.980
1005.705;   47.384;  -12.800;  723.960
1006.257;   46.240;  -13.900;  707.220
1006.808;   44.771;  -14.430;  685.460
1007.359;   44.948;  -12.010;  763.240
1007.910;   43.200;  -12.690;  646.640
1008.461;   42.579;  -13.610;  732.940
1009.013;   41.267;  -14.990;  588.340
1009.564;   43.039;  -11.860;  793.520
1010.115;   40.894;  -12.640;  597.040
1010.665;   40.916;  -14.570;  602.160
1011.216;   41.321;  -15.190;  667.920
1011.767;   40.624;  -13.470;  697.920
1012.318;   40.643;  -13.760;  736.980
1012.869;   39.022;  -15.950;  679.000
1013.419;   39.163;  -15.880;  603.120
1013.970;   39.255;  -14.540;  666.640
1014.521;   38.519;  -13.220;  620.620
1015.071;   38.468;  -15.020;  670.380
1015.622;   38.086;  -17.510;  635.460
1016.172;   38.007;  -14.130;  596.820
1016.723;   37.099;  -14.220;  614.380
1017.273;   36.334;  -15.370;  604.160
1017.823;   36.798;  -15.290;  650.340
1018.374;   36.708;  -13.420;  611.760
1018.924;   36.614;  -11.740;  716.880
1019.474;   36.531;  -12.250;  718.880
1020.024;   34.675;  -15.850;  657.580
1020.574;   36.227;  -13.280;  726.160
1021.124;   36.356;  -13.560;  673.580
1021.674;   34.020;  -13.790;  559.120
1022.224;   35.198;  -14.610;  708.940
1022.774;   34.876;  -13.100;  668.820
1023.324;   34.733;  -11.470;  753.520
1023.874;   36.779;  -11.990;  875.760
1024.423;   33.362;  -14.550;  613.700
1024.973;   33.572;  -14.440;  610.760
1025.523;   32.668;  -13.250;  620.960
1026.072;   32.379;  -15.200;  606.420
1026.622;   32.294;  -14.590;  675.740
1027.172;   33.118;  -11.080;  715.660
1027.721;   31.590;  -14.010;  601.220
1028.270;   32.267;  -13.690;  663.400
1028.820;   31.760;  -15.380;  638.080
1029.369;   31.855;  -14.980;  612.700
1029.918;   31.916;  -13.100;  649.840
1030.468;   30.834;  -13.680;  564.780
1031.017;   31.859;  -13.770;  634.800
1031.566;   29.324;  -14.100;  608.900
1032.115;   31.824;  -11.770;  694.500
1032.664;   29.860;  -14.940;  596.480
1033.213;   31.242;  -13.370;  735.420
1033.762;   29.990;  -13.660;  635.620
1034.311;   29.924;  -13.650;  677.220
1034.860;   29.721;  -13.820;  691.000
1035.408;   30.026;  -12.860;  722.720
1035.957;   31.366;  -13.060;  719.540
1036.506;   27.907;  -14.510;  530.800
1037.055;   30.860;  -13.470;  844.320
1037.603;   28.530;  -14.800;  664.000
1038.152;   27.398;  -14.190;  534.760
1038.700;   28.211;  -11.810;  585.740
1039.249;   27.607;  -12.850;  681.220
1039.797;   28.078;  -14.610;  633.360
1040.345;   27.394;  -15.220;  705.420
1040.894;   27.683;  -13.480;  625.300
1041.442;   26.910;  -13.310;  632.200
1041.990;   26.146;  -14.510;  559.160
1042.538;   25.547;  -15.700;  536.180
1043.087;   25.897;  -13.910;  570.860
1043.635;   27.339;  -13.620;  670.500
1044.183;   25.827;  -14.230;  586.400
1044.731;   26.182;  -13.730;  576.000
1045.279;   25.427;  -13.970;  674.920
1045.827;   27.945;  -10.750;  892.400
1046.374;   24.453;  -15.230;  515.420
1046.922;   24.022;  -15.390;  590.580
1047.470;   26.021;  -12.320;  691.300
1048.018;   25.747;  -13.230;  647.960
1048.565;   26.369;  -13.390;  708.600
1049.113;   24.041;  -15.030;  557.000
1049.660;   24.403;  -12.540;  629.660
1050.208;   25.220;  -15.040;  675.640
1050.755;   24.030;  -14.680;  606.580
1051.303;   24.866;  -13.610;  686.820
1051.850;   23.719;  -14.340;  635.120
1052.397;   22.138;  -16.330;  473.960
1052.945;   23.155;  -15.710;  617.760
1053.492;   24.443;  -12.320;  741.840
1054.039;   23.805;  -13.730;  720.180
1054.586;   23.521;  -16.140;  557.240
1055.133;   23.054;  -14.020;  693.140
1055.680;   23.552;  -13.430;  646.620
1056.227;   22.281;  -14.570;  542.780
1056.774;   24.806;  -14.400;  794.980
1057.321;   21.379;  -14.230;  523.260
1057.868;   22.491;  -14.220;  651.320
1058.415;   21.842;  -14.060;  651.980
1058.961;   22.236;  -14.640;  678.940
1059.508;   22.033;  -13.970;  643.820
1060.055;   21.683;  -15.100;  581.780
1060.601;   22.194;  -12.180;  624.300
1061.148;   21.549;  -15.010;  616.820
1061.694;   20.515;  -14.750;  592.580
1062.241;   21.006;  -14.130;  596.320
1062.787;   21.036;  -14.770;  663.140
1063.334;   23.088;  -13.130;  808.560
1063.880;   21.098;  -14.420;  668.360
1064.426;   21.485;  -13.130;  706.820
1064.972;   18.810;  -13.960;  601.340
1065.518;   18.589;  -13.680;  566.640
1066.065;   19.860;  -15.720;  624.460
1066.611;   19.539;  -13.970;  598.800
1067.157;   20.766;  -13.920;  641.860
1067.703;   19.846;  -14.760;  668.480
1068.249;   19.351;  -14.490;  605.220
1068.794;   19.133;  -14.740;  626.880
1069.340;   18.512;  -13.220;  578.960
1069.886;   19.009;  -14.930;  590.700
1070.432;   18.199;  -14.700;  541.720
1070.977;   17.732;  -14.470;  601.080
1071.523;   18.549;  -14.330;  573.060
1072.068;   17.668;  -14.960;  582.000
1072.614;   16.807;  -16.220;  527.760
1073.160;   19.443;  -11.280;  687.040
1073.705;   17.183;  -15.990;  572.520
1074.250;   17.477;  -16.550;  559.900
1074.796;   18.836;  -14.600;  655.160
1075.341;   18.452;  -13.440;  664.100
1075.886;   17.473;  -14.450;  594.240
1076.431;   18.000;  -13.160;  649.880
1076.976;   17.073;  -14.710;  639.220
1077.521;   16.788;  -14.000;  583.080
1078.067;   16.198;  -14.470;  579.400
1078.612;   16.830;  -14.530;  661.620
1079.156;   16.414;  -15.660;  601.540
1079.701;   16.671;  -16.120;  693.260
1080.246;   17.463;  -12.960;  696.300
1080.791;   16.746;  -13.700;  625.020
1081.336;   16.679;  -15.540;  659.320
1081.880;   16.247;  -14.640;  649.680
1082.425;   15.033;  -14.220;  573.480
1082.970;   17.821;  -11.890;  717.040
1083.514;   16.243;  -13.820;  597.000
1084.059;   15.160;  -14.280;  586.720
1084.603;   15.262;  -12.890;  565.840
1085.147;   15.641;  -13.590;  645.220
1085.692;   15.744;  -14.050;  716.800
1086.236;   13.609;  -14.990;  503.140
1086.780;   16.126;  -12.640;  751.440
1087.325;   15.546;  -15.550;  654.620
1087.869;   14.867;  -14.980;  610.700
1088.413;   15.017;  -13.440;  705.040
1088.957;   13.152;  -12.170;  543.400
1089.501;   16.240;  -12.730;  766.640
1090.045;   14.987;  -14.650;  726.480
1090.589;   12.724;  -14.500;  569.920
1091.133;   14.423;  -12.320;  673.340
1091.676;   13.564;  -16.130;  591.940
1092.220;   12.588;  -13.930;  600.920
1092.764;   15.011;  -12.820;  706.960
1093.307;   13.653;  -11.700;  673.780
1093.851;   12.755;  -15.600;  556.540
1094.395;   13.286;  -13.920;  683.140
1094.938;   12.733;  -16.090;  632.520
1095.482;   13.467;  -13.820;  559.800
1096.025;   13.802;  -12.720;  710.880
1096.568;   14.126;  -12.100;  779.280
1097.112;   10.509;  -15.450;  508.180
1097.655;   12.623;  -14.310;  603.000
1098.198;   11.214;  -14.740;  600.180
1098.741;   11.394;  -15.550;  612.860
1099.285;   12.619;  -12.600;  657.300
1099.828;    9.947;  -15.050;  439.400
1100.371;   12.184;  -14.800;  608.160
1100.914;   12.303;  -16.480;  682.660
1101.457;   12.650;  -12.990;  679.900
1101.999;   10.871;  -14.110;  584.680
1102.542;   11.517;  -11.450;  641.440
1103.085;   11.290;  -13.350;  658.500
1103.628;   11.988;  -13.200;  762.060
1104.170;   10.273;  -12.310;  588.280
1104.713;   11.125;  -14.320;  646.700
1105.256;   10.134;  -16.110;  557.440
1105.798;    9.192;  -15.910;  499.980
1106.341;   11.974;  -12.200;  728.900
1106.883;    9.625;  -14.910;  521.340
1107.425;   10.909;  -14.960;  668.180
1107.968;    9.699;  -13.440;  612.380
1108.510;   11.272;  -14.010;  684.960
1109.052;    9.371;  -15.430;  612.620
1109.594;    9.190;  -15.290;  554.440
1110.136;   10.091;  -13.360;  643.220
1110.679;    9.468;  -13.820;  633.080
1111.221;   10.421;  -13.690;  604.460
1111.763;    8.826;  -14.890;  559.220
1112.304;    8.759;  -14.550;  547.140
1112.846;    9.595;  -12.760;  666.240
1113.388;   12.454;  -10.780;  942.180
1113.930;    9.668;  -12.690;  694.200
1114.472;    8.731;  -15.730;  606.540
1115.013;    7.971;  -14.620;  551.280
1115.555;    7.718;  -14.950;  587.100
1116.097;    7.889;  -16.460;  579.480
1116.638;    8.484;  -13.730;  684.600
1117.180;    8.927;  -13.810;  667.740
1117.721;    8.022;  -13.280;  568.580
1118.262;    8.614;  -15.080;  677.960
1118.804;    8.338;  -14.040;  637.340
1119.345;    7.720;  -15.430;  578.400
1119.886;    9.258;  -15.240;  704.040
1120.427;    7.466;  -15.820;  589.020
1120.969;    6.873;  -14.550;  597.920
1121.510;    7.062;  -14.030;  563.060
1122.051;    7.398;  -11.990;  723.580
1122.592;    6.616;  -16.490;  655.420
1123.133;    6.024;  -15.580;  547.940
1123.673;    8.092;  -12.850;  706.480
1124.214;    6.710;  -13.630;  612.460
1124.755;    7.663;  -14.830;  639.460
1125.296;    6.837;  -13.110;  627.320
1125.836;    8.330;  -11.320;  691.500
1126.377;    6.107;  -14.330;  599.660
1126.918;    7.182;  -12.800;  614.980
1127.458;    6.141;  -13.580;  622.220
1127.999;    7.221;  -10.330;  656.980
1128.539;    7.038;  -13.390;  694.240
1129.079;    5.264;  -16.420;  632.720
1129.620;    5.522;  -15.700;  558.100
1130.160;    4.853;  -14.790;  539.480
1130.700;    6.200;  -12.910;  640.840
1131.240;    6.305;  -15.610;  643.700
1131.781;    5.513;  -12.920;  619.680
1132.321;    5.889;  -15.300;  599.120
1132.861;    4.970;  -14.760;  564.200
1133.401;    4.819;  -15.470;  593.940
1133.941;    5.201;  -13.710;  626.280
1134.481;    4.752;  -11.820;  597.580
1135.020;    4.653;  -14.810;  609.160
1135.560;    5.119;  -13.660;  674.940
1136.100;    3.791;  -13.940;  501.160
1136.640;    3.846;  -15.410;  510.480
1137.179;    4.852;  -16.920;  537.960
1137.719;    4.305;  -16.430;  605.400
1138.258;    5.039;  -16.300;  587.360
1138.798;    5.426;  -13.710;  663.780
1139.337;    3.934;  -13.840;  482.840
1139.877;    5.007;  -16.140;  642.360
1140.416;    6.833;  -11.410;  878.060
1140.955;    3.904;  -12.820;  535.380
1141.494;    3.782;  -12.310;  669.280
1142.034;    3.448;  -16.280;  583.520
1142.573;    4.767;  -13.090;  646.280
1143.112;    4.112;  -13.770;  553.480
1143.651;    3.179;  -15.830;  536.480
1144.190;    4.870;  -15.010;  691.640
1144.729;    3.980;  -13.650;  607.420
1145.267;    3.943;  -13.670;  584.900
1145.806;    4.243;  -13.630;  637.040
1146.345;    3.001;  -14.160;  635.020
1146.884;    3.055;  -11.180;  622.500
1147.422;    2.711;  -15.890;  533.060
1147.961;    4.956;  -12.760;  708.460
1148.500;    3.564;  -15.220;  669.720
1149.038;    3.950;  -13.720;  632.500
1149.577;    3.629;  -13.250;  698.640
1150.115;    0.382;  -16.790;  452.280
1150.653;    2.983;  -15.810;  607.340
1151.192;    3.116;  -14.730;  552.920
1151.730;    2.681;  -13.660;  652.560
1152.268;    2.698;  -15.120;  589.520
1152.806;    2.155;  -15.580;  571.180
1153.344;    1.546;  -16.210;  577.640
1153.882;    2.872;  -12.810;  600.060
1154.421;    1.682;  -14.150;  470.620
1154.958;    1.799;  -15.360;  595.240
1155.496;    3.054;  -14.710;  645.280
1156.034;    2.588;  -13.640;  721.880
1156.572;    3.219;  -13.740;  667.060
1157.110;    0.021;  -16.960;  473.940
1157.647;    2.976;  -11.940;  676.960
1158.185;    1.260;  -14.090;  564.320
1158.723;    0.195;  -13.610;  509.200
1159.260;    1.893;  -14.760;  701.700
1159.798;    2.280;  -13.700;  658.160
1160.335;    1.226;  -13.820;  631.820

