membrane
Integration time [ms]:   3.882
Averaging Nr. [scans]: 1000
Smoothing Nr. [pixels]: 0
Data measured with spectrometer [name]: 7414430SP
Wave   ;Sample   ;Dark     ;Reference
[nm]   ;[counts] ;[counts] ;[counts] 

288.544;  123.216;   10.292;  793.890
289.143;  125.796;    4.564;  681.602
289.742;  126.999;    6.144;  828.814
290.341;  114.042;    4.396;  789.841
290.940;  107.103;    0.938;  730.702
291.538;  108.280;   -0.684;  881.108
292.137;  105.990;   -2.845;  792.581
292.736;  109.389;   -0.144;  975.101
293.335;  105.161;   -6.352;  735.086
293.934;  105.597;   -7.642;  781.677
294.532;  105.879;   -4.992; 1031.958
295.131;   93.333;   -5.478;  834.394
295.730;   93.181;   -6.549;  809.588
296.328;   91.603;   -9.558;  783.442
296.927;   91.592;   -8.118;  779.652
297.525;   92.317;   -6.908;  781.236
298.124;   84.040;   -9.195;  654.009
298.722;   88.637;   -8.198;  761.933
299.321;   86.216;   -8.817;  708.597
299.919;   83.509;   -7.716;  751.918
300.518;   81.526;  -10.745;  689.338
301.116;   82.931;   -9.647;  691.381
301.715;   81.926;  -10.828;  730.222
302.313;   82.380;   -6.087;  704.943
302.911;   77.285;   -6.824;  733.830
303.509;   83.424;   -8.807;  925.627
304.108;   79.282;   -8.198;  760.383
304.706;   79.889;   -6.218;  801.664
305.304;   75.581;   -7.185;  796.707
305.902;   80.351;   -8.568;  784.484
306.500;   75.561;   -7.737;  728.200
307.098;   74.656;   -6.026;  746.560
307.696;   72.875;   -7.176;  780.432
308.294;   74.323;   -8.656;  731.359
308.892;   75.935;   -6.838;  759.769
309.490;   71.783;   -2.596;  712.161
310.088;   70.277;   -4.485;  788.444
310.686;   75.203;   -3.907;  821.749
311.284;   70.531;   -2.806;  766.040
311.882;   68.921;   -2.845;  731.225
312.480;   66.607;   -3.274;  697.167
313.078;   67.869;   -3.645;  808.331
313.675;   68.696;   -4.997;  691.600
314.273;   63.441;   -0.894;  797.837
314.871;   63.808;   -2.854;  589.829
315.468;   61.947;   -3.644;  652.090
316.066;   64.722;   -3.947;  694.427
316.664;   57.895;   -1.824;  656.351
317.261;   63.338;    1.565;  910.128
317.859;   58.654;   -3.955;  768.735
318.456;   59.313;   -2.886;  830.096
319.054;   55.913;   -0.995;  787.828
319.651;   54.972;   -1.765;  759.928
320.249;   54.100;   -3.685;  810.188
320.846;   52.065;   -3.736;  714.286
321.443;   50.667;   -2.065;  832.135
322.041;   48.992;   -5.635;  812.315
322.638;   47.334;   -5.985;  701.456
323.235;   48.226;   -6.677;  665.683
323.833;   46.759;   -3.497;  740.354
324.430;   42.367;   -6.756;  615.900
325.027;   44.494;   -7.647;  876.855
325.624;   43.712;   -7.598;  644.532
326.221;   41.533;   -5.848;  689.717
326.818;   42.193;   -5.777;  818.332
327.415;   44.098;   -8.769;  748.828
328.012;   43.124;   -6.299;  690.585
328.609;   41.673;   -6.639;  731.389
329.206;   40.614;   -6.358;  778.621
329.803;   39.515;   -8.698;  737.841
330.400;   41.543;   -8.379;  704.260
330.997;   42.188;   -6.178;  817.147
331.594;   39.699;   -5.646;  788.185
332.191;   43.794;   -6.928;  728.722
332.787;   45.300;   -6.057;  844.463
333.384;   42.048;   -6.445;  763.093
333.981;   40.996;   -8.002;  815.687
334.578;   42.879;   -8.443;  708.378
335.174;   43.815;   -6.053;  731.469
335.771;   44.293;   -5.791;  836.456
336.367;   42.185;   -6.570;  710.631
336.964;   43.461;   -6.741;  793.266
337.561;   43.021;   -5.710;  731.112
338.157;   40.387;   -3.928;  911.916
338.754;   37.742;   -5.577;  796.589
339.350;   35.679;   -9.667;  722.493
339.946;   39.470;   -5.269;  773.135
340.543;   30.636;   -4.485;  846.136
341.139;   27.018;   -7.584;  720.836
341.735;   25.990;   -8.553;  772.593
342.332;   25.943;   -4.984;  691.472
342.928;   25.279;   -3.475;  795.394
343.524;   20.447;   -6.653;  761.684
344.120;   18.351;   -7.173;  738.562
344.716;   21.241;   -4.385;  723.717
345.313;   19.097;   -3.565;  795.342
345.909;   14.770;   -7.495;  627.336
346.505;   17.277;   -8.276;  740.247
347.101;   18.314;   -5.697;  827.864
347.697;   17.529;   -4.767;  785.398
348.293;   13.108;   -7.226;  627.244
348.889;   13.915;   -7.547;  745.914
349.485;   13.012;   -9.147;  688.205
350.081;   14.161;   -6.568;  772.592
350.676;   10.410;   -6.516;  691.606
351.272;   15.393;   -7.378;  809.530
351.868;   13.919;   -6.759;  780.497
352.464;   11.160;   -4.798;  723.932
353.059;    8.207;   -7.977;  646.017
353.655;   12.200;   -8.769;  777.063
354.251;   12.060;   -5.920;  759.845
354.846;    6.918;   -7.647;  740.646
355.442;    5.813;   -6.956;  753.071
356.038;    7.006;   -9.928;  751.708
356.633;    6.657;   -7.698;  728.594
357.229;    4.978;   -6.307;  724.757
357.824;    5.007;   -7.647;  703.600
358.420;    3.649;  -10.047;  679.726
359.015;    3.513;   -7.458;  695.357
359.610;    4.967;   -5.748;  763.920
360.206;   -0.842;   -9.346;  603.240
360.801;    2.100;  -11.268;  646.503
361.396;    4.472;   -8.789;  725.975
361.992;    0.954;   -6.347;  668.220
362.587;   -1.829;   -6.476;  670.160
363.182;    0.156;   -9.457;  689.631
363.777;    1.112;   -7.147;  738.242
364.372;    0.351;   -5.507;  737.314
364.967;   -2.970;   -6.386;  680.744
365.563;    2.027;   -7.858;  815.567
366.158;   -1.208;   -8.517;  685.161
366.753;   -1.266;   -8.728;  649.263
367.348;   -2.368;   -7.677;  746.056
367.942;   -2.664;  -10.387;  697.298
368.537;   -3.433;   -7.187;  754.245
369.132;   -2.693;   -8.587;  703.428
369.727;   -6.080;   -8.606;  638.079
370.322;   -5.118;  -10.426;  580.186
370.917;   -5.606;   -5.776;  710.646
371.511;   -2.676;   -6.007;  861.834
372.106;   -4.868;   -6.686;  776.964
372.701;   -8.725;   -9.335;  585.988
373.296;   -2.725;   -6.777;  863.135
373.890;   -8.043;   -7.546;  647.840
374.485;   -8.896;   -8.755;  691.199
375.079;   -5.763;   -9.797;  738.685
375.674;   -4.662;   -6.327;  812.970
376.268;   -8.623;   -9.046;  691.759
376.863;  -13.943;   -7.993;  580.327
377.457;   -6.884;   -9.206;  662.490
378.052;   -9.490;   -5.345;  764.884
378.646;  -10.218;   -5.605;  741.167
379.240;  -10.326;   -6.825;  721.176
379.835;   -9.475;  -10.476;  636.978
380.429;  -11.417;   -8.676;  562.557
381.023;  -10.230;   -4.945;  779.205
381.617;  -13.157;   -8.094;  680.106
382.212;  -10.208;  -10.646;  685.303
382.806;   -9.541;   -8.136;  760.690
383.400;  -13.496;   -7.855;  672.281
383.994;  -13.927;   -8.125;  664.870
384.588;   -9.662;   -7.637;  697.701
385.182;   -8.091;   -7.458;  726.624
385.776;  -10.185;   -6.277;  706.875
386.370;  -13.176;   -7.485;  681.968
386.964;  -11.378;   -9.416;  684.155
387.558;   -9.956;   -8.518;  598.360
388.152;  -13.026;   -7.096;  681.959
388.745;  -10.641;   -7.656;  814.707
389.339;   -8.986;   -8.927;  747.642
389.933;   -9.531;   -9.538;  695.370
390.527;   -9.913;   -5.857;  859.029
391.120;  -15.555;   -9.455;  595.318
391.714;  -12.897;   -9.746;  711.633
392.308;   -9.549;   -7.857;  780.253
392.901;  -12.629;   -9.106;  642.460
393.495;  -13.868;  -10.365;  595.414
394.089;  -12.940;   -9.696;  760.452
394.682;  -12.910;   -7.016;  697.188
395.275;  -13.468;   -8.466;  719.927
395.869;  -13.921;   -8.985;  667.314
396.462;  -13.321;  -11.496;  616.609
397.056;   -8.889;   -7.838;  776.621
397.649;  -13.464;   -6.895;  731.575
398.242;  -10.815;   -5.017;  712.645
398.836;   -9.683;   -8.787;  766.408
399.429;  -10.644;   -8.967;  631.041
400.022;  -15.309;   -8.815;  665.902
400.615;  -11.089;   -6.276;  805.609
401.208;   -9.815;   -8.407;  691.451
401.802;  -12.675;   -7.296;  699.329
402.395;  -13.686;   -7.585;  683.502
402.988;  -14.063;   -8.015;  696.627
403.581;  -10.585;   -9.577;  646.878
404.174;   -8.276;   -7.588;  686.568
404.767;  -12.324;   -7.906;  638.583
405.360;  -13.950;   -7.875;  621.445
405.953;   -7.651;   -8.127;  759.034
406.545;   -8.226;   -7.198;  725.342
407.138;  -11.835;   -8.916;  618.350
407.731;  -10.597;   -9.767;  613.303
408.324;   -6.401;  -10.659;  660.554
408.917;   -7.854;   -8.068;  681.864
409.509;   -9.772;   -9.837;  740.396
410.102;  -10.970;   -8.146;  643.948
410.695;   -4.926;   -7.969;  665.758
411.287;   -6.288;   -8.579;  599.821
411.880;   -7.507;   -6.968;  585.421
412.472;   -9.873;   -9.487;  613.092
413.065;   -6.641;  -10.338;  629.408
413.657;   -4.849;   -9.169;  576.678
414.250;   -5.049;  -10.119;  646.681
414.842;   -6.283;   -9.938;  676.353
415.434;   -4.110;  -10.409;  570.463
416.027;   -0.118;   -9.591;  652.196
416.619;   -2.510;   -7.379;  713.400
417.211;   -2.848;   -9.159;  599.352
417.804;    1.227;   -9.191;  628.499
418.396;   -3.069;   -8.159;  607.643
418.988;   -0.263;   -6.960;  659.238
419.580;   -3.338;  -11.389;  568.276
420.172;   -1.844;  -13.460;  536.196
420.764;    2.425;  -10.701;  672.482
421.356;    1.765;   -8.961;  636.898
421.948;    1.241;   -9.770;  677.661
422.540;    6.070;   -8.832;  680.027
423.132;    5.294;   -8.153;  600.641
423.724;    1.262;   -8.481;  561.267
424.316;    4.569;   -9.261;  621.345
424.908;    7.767;   -9.643;  591.517
425.500;    7.946;   -8.663;  647.978
426.092;    8.759;   -8.503;  648.268
426.683;    8.330;  -10.522;  684.836
427.275;   10.888;  -11.734;  641.471
427.867;   11.718;  -10.264;  668.948
428.458;   12.452;   -7.644;  732.344
429.050;   11.668;   -7.853;  680.749
429.642;   14.105;   -8.904;  743.124
430.233;   14.335;  -10.795;  569.356
430.825;   15.562;   -7.665;  724.809
431.416;   13.096;   -8.843;  698.241
432.008;   16.942;   -9.885;  651.723
432.599;   16.970;   -9.966;  656.073
433.190;   14.561;   -9.164;  637.670
433.782;   14.262;   -8.584;  590.395
434.373;   21.438;   -8.296;  884.765
434.964;   19.355;   -9.896;  602.920
435.556;   17.690;   -8.255;  634.537
436.147;   21.589;   -8.075;  758.490
436.738;   21.054;   -9.716;  701.099
437.329;   25.987;   -7.318;  721.723
437.920;   18.516;   -6.694;  666.688
438.511;   18.951;   -9.644;  564.526
439.103;   25.670;   -9.427;  623.998
439.694;   27.307;  -10.748;  681.583
440.285;   28.571;   -7.997;  764.432
440.876;   27.603;  -10.046;  845.738
441.466;   25.359;  -13.467;  575.162
442.057;   30.845;   -9.329;  665.814
442.648;   30.149;   -7.707;  746.255
443.239;   28.114;   -9.017;  620.477
443.830;   32.985;  -10.279;  704.958
444.421;   35.409;  -12.630;  655.474
445.011;   31.861;   -8.697;  693.619
445.602;   32.622;   -7.787;  743.126
446.193;   33.974;  -13.329;  488.117
446.783;   37.886;   -9.171;  640.397
447.374;   33.665;   -7.457;  692.759
447.964;   34.912;   -9.277;  713.770
448.555;   42.618;   -9.041;  822.742
449.145;   38.117;   -8.969;  662.853
449.736;   40.288;   -6.809;  803.179
450.326;   40.592;   -7.229;  713.626
450.917;   44.889;  -11.391;  675.324
451.507;   43.415;   -9.501;  600.661
452.097;   45.255;   -8.460;  746.267
452.688;   47.199;  -10.080;  742.160
453.278;   45.880;  -12.861;  566.840
453.868;   50.565;   -8.372;  793.550
454.458;   47.711;   -8.131;  651.141
455.048;   49.401;   -8.520;  711.783
455.639;   49.952;  -13.632;  567.096
456.229;   53.677;  -10.143;  710.694
456.819;   56.063;   -9.163;  751.158
457.409;   56.931;   -8.652;  773.993
457.999;   59.887;   -9.933;  737.505
458.589;   59.500;  -10.363;  686.606
459.179;   59.342;  -10.633;  717.658
459.769;   57.645;  -12.442;  627.099
460.358;   62.492;   -9.844;  797.262
460.948;   61.186;   -9.924;  689.503
461.538;   63.273;  -10.484;  660.677
462.128;   61.595;  -10.703;  664.934
462.717;   68.290;  -11.486;  710.326
463.307;   71.675;  -10.767;  705.846
463.897;   66.894;   -8.814;  656.942
464.486;   67.068;   -8.182;  837.128
465.076;   71.166;   -9.985;  733.776
465.666;   74.542;  -10.447;  652.900
466.255;   72.533;   -7.754;  785.651
466.845;   71.616;  -10.884;  666.749
467.434;   74.910;  -12.525;  725.873
468.023;   76.105;  -11.456;  658.357
468.613;   72.848;   -9.173;  713.946
469.202;   78.053;   -9.306;  646.507
469.791;   82.885;   -8.917;  737.811
470.381;   84.141;   -9.657;  742.813
470.970;   83.222;   -9.947;  711.099
471.559;   84.003;   -9.256;  733.291
472.148;   87.370;  -13.397;  675.737
472.738;   89.073;   -9.928;  765.466
473.327;   89.495;  -10.897;  637.529
473.916;   88.628;   -8.526;  737.446
474.505;   93.580;  -11.078;  751.703
475.094;   96.869;   -9.559;  806.570
475.683;   95.856;   -8.838;  797.699
476.272;   97.568;  -10.198;  730.632
476.861;  100.358;  -11.489;  706.754
477.449;  106.440;  -10.721;  728.487
478.038;  100.392;   -9.818;  692.513
478.627;  102.144;   -9.887;  714.852
479.216;  109.144;  -10.030;  769.441
479.805;  112.199;   -9.401;  783.375
480.393;  112.611;   -5.739; 1008.945
480.982;  112.288;   -7.838;  874.501
481.571;  118.526;   -9.111;  858.333
482.159;  119.346;  -10.601;  705.386
482.748;  118.221;   -8.500;  821.385
483.336;  123.326;   -9.241;  858.209
483.925;  124.872;  -10.440;  774.373
484.513;  131.344;  -11.063;  758.962
485.102;  127.525;   -9.540;  810.965
485.690;  138.188;   -6.742; 1011.050
486.278;  139.759;   -8.442;  979.329
486.867;  139.756;  -10.472;  809.662
487.455;  142.284;   -8.811;  898.229
488.043;  143.794;  -10.721;  748.361
488.631;  153.926;  -10.393; 1005.079
489.220;  157.508;  -10.843;  908.626
489.808;  157.709;  -10.572;  741.415
490.396;  167.491;  -10.482;  914.645
490.984;  174.369;  -11.542;  830.161
491.572;  185.287;   -8.463;  940.315
492.160;  192.575;   -8.491;  919.081
492.748;  207.873;   -9.681;  884.341
493.336;  232.717;  -10.493; 1019.693
493.924;  264.552;   -9.354;  958.077
494.512;  303.605;   -9.132; 1066.638
495.100;  348.467;   -9.001; 1103.280
495.687;  409.612;  -11.924; 1206.373
496.275;  497.759;  -11.193; 1150.796
496.863;  590.747;   -9.241; 1281.171
497.451;  708.305;  -11.341; 1386.805
498.038;  840.384;  -11.364; 1556.729
498.626;  968.869;   -8.104; 1741.407
499.214; 1197.816;   -8.842; 2016.609
499.801; 1503.185;  -10.112; 2220.633
500.389; 1753.865;  -11.953; 2312.494
500.976; 1980.608;  -10.023; 2744.849
501.564; 2299.152;   -8.662; 3148.565
502.151; 2766.093;  -10.531; 3515.999
502.738; 3291.218;  -13.853; 3971.274
503.326; 3884.610;  -10.794; 4403.796
503.913; 4515.406;   -8.663; 5161.749
504.500; 5180.417;  -10.172; 5986.420
505.088; 6227.998;  -13.472; 6381.201
505.675; 7011.575;  -10.924; 6925.547
506.262; 7296.885;   -8.551; 7619.060
506.849; 8075.648;  -10.523; 8733.969
507.436; 9150.903;  -10.834; 9790.121
508.023; 9479.598;   -9.093; 9985.472
508.610; 9886.045;  -10.073;10434.618
509.197;11292.013;   -9.500;11198.435
509.784;13526.995;  -13.242;12391.194
510.371;14618.704;  -10.964;13603.713
510.958;15611.955;   -9.772;14426.586
511.545;16305.596;   -7.842;15243.775
512.132;16225.741;  -12.184;15945.876
512.719;17884.674;   -9.733;16340.369
513.305;20823.557;   -9.172;18011.766
513.892;21991.502;   -9.581;19754.971
514.479;22986.641;  -10.253;20967.805
515.066;23526.748;   -8.183;22299.793
515.652;24616.029;   -9.253;22908.660
516.239;26410.508;   -9.412;23798.875
516.825;27636.834;  -11.153;25567.275
517.412;26616.045;  -10.263;28154.959
517.998;26029.912;   -8.802;28344.111
518.585;26394.930;  -10.401;27134.219
519.171;27105.955;  -12.744;27268.576
519.758;28965.717;  -11.793;28964.129
520.344;32323.855;   -8.912;30664.494
520.930;35276.094;  -10.901;32550.605
521.516;34854.891;  -12.034;35422.895
522.103;35651.855;  -10.473;38280.004
522.689;36973.305;   -8.311;37835.117
523.275;38306.664;  -10.691;37288.613
523.861;39243.746;  -11.193;37281.395
524.447;36869.121;  -11.484;37846.949
525.033;37241.418;   -7.702;38321.949
525.619;37698.766;  -11.241;38579.285
526.205;38035.746;  -12.152;40622.875
526.791;39161.789;  -11.423;42258.836
527.377;39896.898;   -7.981;42966.902
527.963;39572.320;   -9.450;42018.949
528.549;39906.258;  -11.351;42476.828
529.135;41030.074;  -10.202;41854.852
529.721;40926.883;   -8.672;41237.711
530.306;38673.949;   -9.111;41259.445
530.892;40987.270;  -11.252;41506.047
531.478;44061.070;  -10.432;43559.613
532.063;45623.148;  -10.721;47695.563
532.649;47030.098;   -7.450;50808.324
533.235;48262.715;  -11.811;51787.500
533.820;47443.027;   -9.383;52145.035
534.406;44728.875;   -9.400;51133.488
534.991;44896.539;   -8.861;49996.805
535.576;46713.027;  -10.612;48882.852
536.162;44054.152;   -7.322;46942.285
536.747;43662.605;   -9.360;45711.746
537.333;46140.102;  -10.450;48510.180
537.918;49460.211;  -12.610;50439.891
538.503;49770.602;  -12.132;50863.711
539.088;46197.852;  -10.831;50906.922
539.673;45664.578;  -11.220;52621.965
540.259;48423.473;  -11.481;52368.094
540.844;48197.742;  -11.462;50879.109
541.429;49281.137;   -7.869;52077.777
542.014;47678.000;  -11.859;52716.695
542.599;44814.016;  -11.061;52363.281
543.184;44873.902;  -12.300;53187.137
543.769;46715.820;   -9.369;54697.605
544.354;47609.320;  -12.020;53913.914
544.938;43790.297;  -10.350;49680.164
545.523;40797.035;  -10.841;47386.277
546.108;43855.465;   -8.579;49151.949
546.693;46937.586;   -8.818;51384.637
547.278;47890.793;  -11.331;51853.254
547.862;46453.352;  -10.292;51173.750
548.447;46164.746;   -8.349;51691.395
549.031;46183.965;  -10.838;52456.703
549.616;47631.852;  -11.681;52714.516
550.201;49256.789;  -11.140;52414.598
550.785;47012.234;   -8.649;52355.059
551.370;48122.809;  -11.889;54589.453
551.954;48854.605;  -11.239;58267.348
552.538;49973.637;   -8.850;59062.176
553.123;52148.719;  -10.829;58115.285
553.707;52692.656;   -8.887;56556.285
554.291;49584.008;  -10.430;56201.668
554.876;49057.090;   -9.799;55335.762
555.460;46497.203;  -10.018;54155.703
556.044;46433.094;   -7.307;53721.484
556.628;49620.070;  -12.229;53731.016
557.212;50400.254;   -9.820;54312.531
557.796;48494.703;   -9.109;53797.773
558.380;46615.883;   -9.707;56145.984
558.964;49285.758;  -10.980;57277.930
559.548;52268.641;  -12.010;56459.641
560.132;52648.883;   -7.928;54434.543
560.716;55253.184;  -10.247;54800.617
561.300;54829.270;  -11.250;57606.945
561.884;52964.172;  -10.568;58972.445
562.467;51122.172;   -9.727;57327.570
563.051;47733.012;  -11.847;54962.434
563.635;46922.766;  -10.747;52594.473
564.219;45338.465;  -13.108;50610.410
564.802;44193.652;  -11.417;49551.180
565.386;43242.414;  -10.457;48370.953
565.969;46713.695;   -8.959;48178.871
566.553;47884.777;  -10.328;49957.305
567.136;47660.648;  -10.257;50369.594
567.720;46240.387;  -10.186;49492.004
568.303;45321.648;  -10.027;50616.352
568.887;46508.191;  -10.397;50727.148
569.470;47966.336;   -8.185;51698.379
570.053;46086.574;  -11.596;52122.078
570.637;44563.254;  -11.378;52536.438
571.220;44575.746;   -9.138;51186.098
571.803;43724.152;   -7.675;51032.762
572.386;42382.973;   -8.976;49609.887
572.969;43028.453;  -12.477;48285.926
573.552;42862.711;   -9.767;47624.285
574.135;40625.664;   -8.175;45498.641
574.718;35669.895;  -11.096;41970.434
575.301;35601.195;  -11.966;41447.137
575.884;35532.500;  -12.836;40923.836
576.467;41483.297;   -9.116;45267.723
577.050;43259.203;  -10.536;48175.543
577.633;41860.266;  -11.027;47729.328
578.216;40846.078;   -9.946;47579.793
578.799;41514.531;   -9.645;47820.996
579.381;40865.254;   -9.446;48115.551
579.964;40569.004;  -12.217;47333.766
580.547;40728.477;  -10.586;46668.969
581.129;40554.375;   -8.374;44466.141
581.712;39661.543;  -10.434;44164.922
582.294;38849.813;  -10.896;46477.855
582.877;40049.586;   -8.906;48244.254
583.459;40503.719;   -9.994;47437.895
584.042;39487.648;  -10.084;46943.219
584.624;37797.816;  -13.534;46792.227
585.206;37898.793;  -12.716;46557.250
585.789;38756.742;  -11.614;45793.773
586.371;38384.715;  -10.203;43836.391
586.953;36611.801;  -10.314;42972.492
587.536;35039.582;   -9.776;42487.211
588.118;35441.379;   -9.821;42086.414
588.700;36573.863;  -10.073;43389.930
589.282;38078.766;  -12.395;43646.039
589.864;38196.484;  -11.514;43438.109
590.446;38996.898;  -10.803;43151.926
591.028;40368.004;  -11.043;42781.867
591.610;39225.723;  -13.244;42839.098
592.192;36297.762;  -11.095;42820.402
592.774;33823.668;  -10.823;40724.277
593.356;33458.133;  -11.052;39874.789
593.937;34976.934;  -11.664;39980.648
594.519;36632.344;  -10.454;42069.633
595.101;36696.746;  -10.322;42976.031
595.683;35377.703;  -10.042;44084.441
596.264;34736.492;  -14.334;43478.797
596.846;35642.656;  -10.863;43803.672
597.427;36140.914;   -9.901;42986.934
598.009;35742.039;  -10.911;42832.219
598.591;34887.668;  -10.483;42580.086
599.172;33966.535;   -9.663;43061.805
599.753;33780.176;  -10.631;41691.469
600.335;34047.555;   -9.371;40692.520
600.916;36322.359;  -13.992;39982.422
601.498;37922.590;   -8.352;40318.617
602.079;36145.613;   -8.411;40670.609
602.660;38404.938;  -10.841;41450.898
603.241;38684.512;  -12.963;41137.738
603.823;35497.449;  -11.523;38868.797
604.404;32897.863;  -11.881;38182.785
604.985;34113.262;  -11.721;38078.047
605.566;34968.621;   -9.293;38056.633
606.147;33753.004;  -10.940;37020.418
606.728;32492.547;  -11.840;37883.359
607.309;31329.127;  -11.781;38748.273
607.890;31222.996;  -11.262;38850.230
608.471;30546.525;  -10.111;37457.918
609.051;31012.154;   -7.709;36066.457
609.632;31575.893;  -12.409;35991.074
610.213;29773.611;  -10.811;37402.641
610.794;29176.348;  -11.630;38383.363
611.374;30396.793;   -8.030;40562.387
611.955;31521.967;  -10.809;38533.727
612.536;33187.797;  -10.531;36951.789
613.116;33837.496;  -12.820;37197.891
613.697;33637.219;  -11.419;38411.125
614.277;32399.359;   -9.768;38673.938
614.858;30789.986;  -10.251;37075.863
615.438;27684.322;  -11.981;35092.906
616.019;27230.365;   -8.978;33666.301
616.599;29883.301;  -12.219;34189.023
617.179;32583.061;  -14.170;36952.047
617.760;34442.508;   -9.211;39582.574
618.340;34785.063;   -9.018;38943.977
618.920;33357.645;   -9.249;37594.156
619.500;33764.176;  -12.728;37866.938
620.080;35496.367;  -12.939;37869.043
620.660;34127.898;  -11.586;36868.617
621.241;33198.160;  -11.538;36352.309
621.821;33216.801;  -11.398;35459.520
622.401;34447.078;  -10.179;35207.414
622.980;33771.316;  -11.587;35980.422
623.560;32629.453;  -12.888;37351.328
624.140;30695.842;  -13.149;34388.582
624.720;26149.582;   -9.928;32368.764
625.300;25837.016;  -10.869;32638.629
625.880;29995.795;   -8.617;34599.035
626.459;34237.445;  -12.138;36831.738
627.039;35041.082;  -12.267;38299.098
627.619;34779.992;   -7.476;38289.574
628.198;35565.426;  -11.347;37220.695
628.778;34395.574;  -11.678;37632.563
629.357;31936.551;  -12.438;38003.012
629.937;30328.912;   -9.576;38402.039
630.516;29392.807;  -11.096;37868.801
631.096;29193.590;  -11.828;35760.410
631.675;29738.443;  -11.565;35225.219
632.254;30352.412;  -11.845;35130.289
632.834;31492.799;  -11.545;35794.570
633.413;32876.422;  -10.887;35788.922
633.992;34372.668;  -10.175;34532.863
634.571;33249.250;   -9.704;33590.113
635.151;31045.930;  -10.815;34943.863
635.730;31241.461;  -11.617;35352.523
636.309;31256.164;  -10.836;35366.605
636.888;31928.395;   -9.755;36165.637
637.467;32796.230;  -11.684;37515.902
638.046;35090.055;  -11.987;39288.695
638.625;35581.738;  -10.455;38279.699
639.204;33960.156;  -11.234;37741.598
639.782;30614.209;  -12.023;38364.551
640.361;29841.982;  -11.506;36740.621
640.940;30050.721;  -12.316;34950.082
641.519;31247.709;  -11.616;34137.398
642.097;34237.148;   -9.266;35654.258
642.676;34530.633;  -12.936;35637.957
643.255;33841.563;   -9.966;36567.074
643.833;33540.746;   -8.916;37809.434
644.412;34683.883;  -10.936;37337.293
644.990;36480.922;  -12.176;37018.531
645.569;36299.555;  -12.246;36518.469
646.147;35607.895;  -12.107;36186.430
646.726;35389.383;  -12.937;36267.688
647.304;38384.457;  -12.547;36647.625
647.882;38651.316;  -12.597;39286.742
648.461;36259.262;   -9.427;39157.703
649.039;33489.590;   -8.937;35412.883
649.617;32092.258;  -11.067;34744.918
650.195;31990.176;  -10.657;35403.098
650.773;31210.371;  -10.097;35053.797
651.352;29013.785;  -11.887;33756.816
651.930;25099.605;  -13.557;31868.773
652.508;22592.508;  -11.767;33121.551
653.086;23332.525;  -10.777;33564.793
653.663;27588.785;  -12.067;34054.668
654.241;30532.885;  -14.918;35693.309
654.819;30911.180;  -11.788;36422.906
655.397;30623.219;  -11.268;38213.484
655.975;31979.789;  -11.738;39507.625
656.553;31597.590;  -11.018;39498.223
657.130;30328.953;  -12.848;40395.480
657.708;29540.158;  -10.098;39242.020
658.286;29677.926;  -11.678;38920.020
658.863;30700.799;  -11.498;40202.898
659.441;31732.832;  -11.008;39677.938
660.018;32823.906;  -11.048;40413.355
660.596;32772.594;  -12.058;39931.414
661.173;32478.783;  -14.158;39604.531
661.750;32125.994;  -12.298;39700.070
662.328;31729.617;  -10.699;39292.809
662.905;30048.684;  -12.119;38235.648
663.482;26125.939;  -11.829;36212.305
664.060;25070.303;  -11.009;35944.945
664.637;28014.189;  -10.369;35170.785
665.214;28937.094;  -10.459;34197.523
665.791;27578.338;  -12.599;34549.520
666.368;27036.795;  -12.919;35118.578
666.945;28756.809;  -10.699;36019.418
667.522;29292.350;  -11.359;36048.438
668.099;29576.455;  -13.529;36243.914
668.676;30499.736;  -10.229;35958.875
669.253;30410.088;   -9.279;37384.730
669.830;30359.631;  -11.370;36779.629
670.407;31611.199;  -10.950;35231.289
670.984;32280.717;  -12.850;35544.270
671.560;32212.471;   -8.440;35466.867
672.137;30540.221;  -13.520;34280.863
672.714;28839.824;  -13.620;34632.863
673.290;28662.381;  -10.450;35135.422
673.867;27719.758;  -10.960;36114.480
674.443;26734.816;  -13.300;36152.859
675.020;27207.480;  -12.370;35327.238
675.596;27038.459;  -11.250;35795.176
676.173;27565.436;  -11.080;35430.355
676.749;28114.609;  -13.220;33549.516
677.326;30869.660;  -13.000;32210.012
677.902;31722.162;  -12.701;32068.871
678.478;31174.883;  -12.801;32583.891
679.054;30430.863;   -8.601;32088.928
679.631;31676.104;  -12.631;30978.848
680.207;31711.555;   -9.451;33160.887
680.783;30456.869;  -11.701;35570.363
681.359;30306.523;  -12.701;36125.184
681.935;29062.836;  -13.271;35240.922
682.511;27634.305;  -10.791;34429.961
683.087;28679.234;  -10.791;34463.680
683.663;29516.018;   -8.121;34648.898
684.239;30877.496;  -13.261;34546.457
684.815;29138.084;  -10.581;35586.375
685.390;26514.418;   -9.961;35821.895
685.966;25531.830;  -11.182;35085.871
686.542;25222.211;  -13.512;34198.230
687.118;26087.494;  -11.472;32847.707
687.693;26352.467;  -10.152;32794.027
688.269;28088.422;  -14.442;33072.367
688.844;29592.740;  -11.852;33141.664
689.420;27776.883;  -13.942;33965.742
689.995;26240.441;   -9.702;34655.523
690.571;26088.008;  -11.312;33576.742
691.146;25790.727;  -14.332;32657.219
691.722;27522.498;  -11.192;32526.979
692.297;28929.203;  -10.962;33014.617
692.872;27624.914;  -11.082;34012.254
693.448;27199.158;  -14.732;34237.434
694.023;27324.020;  -12.363;34142.672
694.598;27540.873;  -12.393;34132.031
695.173;26787.803;  -11.023;34205.250
695.748;26801.729;  -12.743;32882.488
696.323;28310.088;  -11.103;32864.906
696.898;29378.947;   -8.123;33170.004
697.473;28996.775;  -12.603;32432.984
698.048;27927.209;  -12.553;31649.303
698.623;28696.146;  -12.573;30778.141
699.198;30746.334;  -12.743;31140.119
699.773;28583.598;  -12.843;31764.299
700.348;27819.924;  -16.683;31780.816
700.922;28541.563;  -11.403;32046.375
701.497;29123.619;  -11.253;32603.574
702.072;28907.563;  -10.044;34799.871
702.646;27496.736;  -13.054;35793.172
703.221;26367.719;  -11.414;35201.590
703.795;27176.258;  -10.644;34764.527
704.370;28408.875;  -13.484;34307.367
704.944;28307.029;  -12.144;33509.887
705.519;27652.152;  -12.024;31388.584
706.093;26613.512;  -11.234;31340.104
706.668;24975.783;   -9.874;32630.281
707.242;24632.854;  -12.404;32728.779
707.816;24432.609;  -10.644;32947.238
708.390;24645.783;  -11.174;33277.855
708.965;25707.709;  -10.324;33834.336
709.539;25467.094;  -12.014;33709.273
710.113;25393.270;  -12.295;33044.313
710.687;26088.662;  -10.965;31953.992
711.261;26576.564;  -13.685;30505.949
711.835;25869.412;  -15.335;30262.369
712.409;25452.543;  -13.785;31254.447
712.983;26531.215;  -10.525;32754.986
713.557;27600.434;  -13.175;34018.824
714.131;28305.084;  -13.245;34579.625
714.704;29669.996;  -13.175;33890.262
715.278;30677.615;  -11.545;33531.102
715.852;29238.695;  -10.975;33601.660
716.425;28280.098;  -10.075;33515.117
716.999;27921.223;  -12.185;33185.555
717.573;28767.104;   -9.685;33905.996
718.146;29978.719;  -10.516;35199.293
718.720;26554.348;  -12.106;35060.551
719.293;26326.967;  -12.386;34973.230
719.867;28412.836;  -12.456;36394.449
720.440;27896.521;  -10.686;36663.008
721.013;28158.717;  -12.596;35102.426
721.587;28581.477;  -13.956;33985.266
722.160;28186.188;   -9.806;33524.965
722.733;28683.998;  -11.676;32987.043
723.306;28532.129;  -14.276;33066.301
723.880;28609.361;  -12.126;33399.500
724.453;29194.223;  -10.156;33468.297
725.026;27919.709;  -12.956;33816.637
725.599;26254.738;  -11.676;32797.996
726.172;25758.850;  -12.337;33187.434
726.745;27069.764;  -11.277;35136.613
727.318;26227.436;  -11.927;35751.730
727.891;25005.229;  -13.607;35890.430
728.463;25033.959;  -11.327;34822.090
729.036;24873.855;  -11.917;32895.086
729.609;25928.125;  -12.697;31823.225
730.182;27102.307;  -11.787;31445.283
730.754;28045.225;  -12.957;32373.223
731.327;28558.590;  -11.017;33676.820
731.900;27141.988;  -12.797;33417.000
732.472;25118.242;  -10.677;31978.498
733.045;24552.211;  -12.797;30368.777
733.617;24926.270;  -13.908;30574.215
734.190;24695.318;  -12.258;31280.975
734.762;25610.127;  -13.438;31674.412
735.334;25587.234;  -11.758;31247.291
735.907;25607.721;  -11.158;29876.211
736.479;26586.480;  -11.258;29808.488
737.051;28405.227;  -10.918;30233.547
737.623;29604.303;  -11.038;31469.086
738.195;28792.854;  -12.188;31784.225
738.768;25791.762;  -11.378;32120.523
739.340;25138.727;  -12.598;32094.342
739.912;26082.650;  -11.568;31312.680
740.484;25908.059;   -9.348;31946.238
741.056;25200.736;  -12.628;32984.059
741.628;25588.547;  -13.349;33897.715
742.199;26029.768;  -11.309;33213.016
742.771;26573.246;  -12.699;31369.113
743.343;27941.156;  -11.919;31865.473
743.915;27908.643;  -11.679;32388.631
744.487;26390.344;  -12.249;31079.568
745.058;24954.801;  -11.119;30570.107
745.630;23963.184;   -9.439;29970.127
746.201;23917.303;  -11.949;29186.766
746.773;23463.729;  -12.639;28805.723
747.344;22772.441;  -11.039;29591.223
747.916;21860.828;  -12.549;31412.201
748.487;21157.297;  -12.659;32194.898
749.059;21467.523;  -13.059;32533.719
749.630;22261.873;  -12.080;32158.518
750.201;21475.912;  -13.100;30855.395
750.773;20330.979;  -15.310;28622.555
751.344;20293.617;  -12.240;28405.732
751.915;20407.902;  -11.960;28461.551
752.486;20550.951;  -13.200;27842.850
753.057;20210.182;  -15.230;27845.008
753.628;19741.223;  -13.130;27728.107
754.199;19725.488;  -12.720;27381.086
754.770;19660.533;  -10.680;25882.203
755.341;19819.889;  -11.010;25886.184
755.912;19104.189;  -12.990;26050.861
756.483;18063.584;  -11.110;26798.779
757.054;17700.076;  -12.190;27048.238
757.625;17779.443;  -13.981;26294.838
758.195;18080.572;  -11.041;26142.076
758.766;19300.502;  -11.861;26392.234
759.337;19956.084;  -11.461;26334.594
759.907;20228.424;  -15.001;27579.652
760.478;19941.844;   -9.681;28352.770
761.048;19360.535;  -12.421;27325.088
761.619;18621.092;  -11.761;26460.428
762.189;17379.193;  -12.391;26029.826
762.760;17127.195;  -10.201;26430.145
763.330;18172.545;  -10.811;26670.902
763.900;20327.070;  -10.261;26603.021
764.471;19673.789;  -13.061;25542.740
765.041;18564.268;  -11.051;24358.459
765.611;18561.064;  -11.032;23991.297
766.181;18425.563;  -10.532;24470.236
766.751;18078.439;  -13.502;24845.975
767.321;17942.447;  -11.392;24533.633
767.891;18113.689;  -11.522;24916.492
768.461;18823.836;  -13.672;24776.771
769.031;18585.980;  -14.652;24757.988
769.601;17566.205;  -10.182;24181.088
770.171;15767.339;  -11.752;23670.387
770.741;14776.275;  -12.272;22960.045
771.311;14813.803;  -13.112;22917.523
771.880;14885.261;  -14.122;23562.941
772.450;16095.387;  -11.782;24216.500
773.020;17386.797;  -12.642;24140.398
773.589;16381.281;  -13.043;24414.857
774.159;14492.885;  -11.783;23858.717
774.729;13928.337;  -13.473;22942.135
775.298;15166.325;  -14.523;22324.033
775.867;16056.770;  -12.013;21140.313
776.437;15229.093;  -12.113;20838.092
777.006;13877.766;  -13.543;20599.510
777.576;12464.313;  -12.523;20508.809
778.145;12426.308;  -12.173;20732.947
778.714;13511.339;  -12.153;21062.465
779.283;13957.365;  -11.833;20949.664
779.853;14409.884;  -13.483;20508.623
780.422;14833.973;  -12.933;20649.082
780.991;14123.601;  -13.173;21527.520
781.560;12685.426;  -10.224;22632.658
782.129;12517.815;  -12.684;23048.277
782.698;13777.468;  -11.284;23438.555
783.267;14627.074;  -11.684;23267.734
783.836;13735.636;  -10.974;22415.133
784.404;12731.409;  -13.534;20443.152
784.973;12861.997;  -16.734;19699.150
785.542;12778.983;  -12.594;19763.828
786.111;12277.956;  -11.644;20341.408
786.679;12713.218;  -11.384;20207.967
787.248;13379.737;  -12.014;19516.465
787.817;12421.528;  -12.804;18900.363
788.385;11311.734;  -11.994;17879.121
788.954;11338.910;  -12.564;17658.301
789.522;12330.815;  -12.225;17788.879
790.090;12353.860;  -13.775;18118.277
790.659;11501.839;  -12.485;18338.736
791.227;11209.460;  -12.295;18508.615
791.795;11325.898;  -13.415;17898.254
792.364;10938.539;  -12.995;17295.133
792.932;10652.741;   -8.365;16822.051
793.500;10766.163;  -11.925;17040.148
794.068;10812.771;  -13.245;17179.787
794.636;10602.062;  -13.815;16664.246
795.204;10062.017;  -13.375;16524.545
795.772;10140.472;  -12.125;17274.564
796.340;10605.868;  -13.855;17891.002
796.908;10768.071;  -13.456;17648.561
797.476;10218.694;  -13.116;17064.080
798.044; 9897.596;  -13.226;16672.777
798.612;10579.656;  -11.236;17023.996
799.180;11410.246;  -10.476;16561.615
799.747;11450.878;  -11.746;15962.773
800.315;10589.026;  -12.366;15296.992
800.883; 9847.183;  -14.616;14801.771
801.450; 9764.677;  -11.996;14534.430
802.018;10259.465;  -11.206;14173.248
802.585; 9469.479;  -12.466;14029.547
803.153; 8404.397;  -12.846;13836.846
803.720; 8175.621;  -12.136;13567.324
804.287; 8386.477;  -10.966;13360.622
804.855; 8815.208;   -9.797;13681.981
805.422; 8646.189;  -13.037;13536.560
805.989; 8338.790;  -12.697;13355.958
806.556; 8525.730;  -11.737;13747.896
807.124; 8869.511;  -11.997;13987.376
807.691; 8440.323;  -13.997;14038.674
808.258; 8322.186;  -10.927;14120.152
808.825; 8809.047;  -13.727;13860.111
809.392; 9153.558;  -11.847;13268.790
809.959; 8453.455;  -14.217;12680.389
810.526; 7630.469;   -8.277;12427.308
811.093; 7495.239;   -9.647;12030.105
811.659; 7336.387;  -10.987;11653.664
812.226; 6851.057;  -13.447;11637.183
812.793; 6988.845;  -14.418;11611.521
813.360; 7411.306;  -13.908;11885.181
813.926; 7474.627;  -12.918;12770.539
814.493; 7444.965;  -14.888;12677.638
815.060; 7557.679;  -12.758;11974.336
815.626; 7820.304;  -13.478;11594.715
816.193; 7782.662;  -13.898;11579.474
816.759; 7426.434;  -13.588;11666.972
817.325; 7299.900;  -12.018;11325.530
817.892; 6842.497;  -14.068;11105.369
818.458; 6242.592;  -13.458;10843.928
819.024; 6007.024;  -11.968;10714.406
819.591; 5712.275;  -11.028;10469.165
820.157; 5477.793;  -12.088;10235.523
820.723; 5389.492;  -12.599;10847.563
821.289; 5667.095;  -10.419;11040.980
821.855; 6356.515;  -10.939;10357.100
822.421; 6864.488;  -12.539; 9978.918
822.987; 6732.214;  -13.259; 9754.177
823.553; 6177.490;  -15.369;10065.755
824.119; 5951.026;  -10.779;10036.294
824.685; 5544.994;   -9.999;10029.192
825.251; 5212.166;  -11.819;10199.230
825.816; 5006.095;  -13.369; 9820.189
826.382; 5126.445;  -12.679; 9297.248
826.948; 5269.154;  -11.199; 9381.347
827.513; 5125.905;  -11.179; 9450.726
828.079; 5123.507;  -13.489; 9472.444
828.645; 5412.929;  -12.500; 9292.643
829.210; 5612.552;  -15.120; 9065.341
829.776; 5478.219;  -12.590; 9132.620
830.341; 5345.197;  -11.540; 9092.878
830.906; 5407.616;  -12.400; 9078.557
831.472; 5315.379;  -12.720; 8534.535
832.037; 4841.146;  -11.490; 8677.874
832.602; 4395.384;  -14.380; 8628.692
833.167; 4569.562;  -12.780; 8879.031
833.733; 4829.178;  -11.100; 9189.790
834.298; 5085.943;  -12.080; 9052.608
834.863; 5024.979;  -13.910; 8895.087
835.428; 4744.004;  -13.470; 8824.266
835.993; 4996.940;  -11.760; 8845.385
836.558; 5398.958;  -12.731; 8888.563
837.123; 5450.071;  -12.431; 8966.582
837.688; 5168.079;  -11.241; 8617.860
838.253; 4863.778;  -13.681; 8590.699
838.817; 4684.408;  -12.531; 8443.797
839.382; 4906.688;  -12.671; 8799.356
839.947; 4872.711;  -11.541; 8810.595
840.511; 4679.499;  -12.021; 8796.394
841.076; 4604.268;  -13.071; 8347.231
841.641; 4452.128;  -11.411; 8224.330
842.205; 4313.226;  -13.671; 8223.349
842.770; 4352.945;  -11.291; 8622.107
843.334; 4450.776;  -12.951; 8410.386
843.898; 4479.597;  -11.221; 8337.465
844.463; 4403.731;  -11.322; 8506.283
845.027; 4140.516;  -11.412; 8280.962
845.591; 3931.262;  -11.512; 8231.141
846.156; 4121.034;  -14.042; 7969.179
846.720; 4349.040;  -12.152; 7768.278
847.284; 4323.794;  -10.922; 7630.957
847.848; 4023.832;  -10.962; 7472.395
848.412; 3709.409;  -14.612; 7437.394
848.976; 3758.572;  -11.492; 7674.592
849.540; 3814.772;   -9.172; 7836.011
850.104; 4159.867;  -11.232; 7913.669
850.668; 4478.686;  -15.182; 7694.508
851.232; 4169.357;  -15.332; 7756.887
851.796; 3970.459;  -13.703; 7926.545
852.359; 4043.048;  -11.113; 7827.844
852.923; 3921.839;  -11.843; 7641.163
853.487; 3732.572;  -11.173; 7342.501
854.050; 3536.981;  -13.443; 7042.820
854.614; 3432.965;  -13.823; 7151.338
855.177; 3532.410;  -16.393; 7105.077
855.741; 3643.009;  -11.693; 6989.675
856.304; 3641.893;  -10.843; 6596.634
856.868; 3548.474;  -13.783; 6356.272
857.431; 3345.809;  -11.953; 6468.571
857.995; 3225.840;  -13.683; 6373.210
858.558; 3189.733;  -11.433; 6324.448
859.121; 3157.825;  -12.493; 6408.327
859.684; 3218.646;  -12.384; 6347.886
860.247; 3233.132;  -14.774; 6321.264
860.810; 3057.382;  -13.154; 6301.903
861.374; 2919.234;  -11.264; 6607.881
861.937; 2858.698;  -15.424; 6408.200
862.500; 2867.552;  -12.854; 6572.639
863.062; 2911.250;  -12.344; 6387.297
863.625; 2914.206;  -13.314; 6190.836
864.188; 2768.443;  -14.724; 5807.254
864.751; 2699.005;  -13.464; 5682.413
865.314; 2676.506;  -11.684; 5547.492
865.876; 2708.462;  -11.104; 5500.150
866.439; 2820.241;  -12.344; 5415.909
867.002; 2828.489;  -13.494; 5501.567
867.564; 2829.115;  -10.935; 5413.946
868.127; 2753.044;  -12.665; 5160.325
868.689; 2641.197;  -14.515; 5133.183
869.252; 2634.826;  -13.425; 5252.382
869.814; 2657.437;  -11.595; 5297.141
870.377; 2651.236;  -12.175; 5390.919
870.939; 2528.481;  -10.265; 5599.898
871.501; 2427.016;  -12.375; 5248.336
872.063; 2389.662;  -14.355; 4854.235
872.626; 2403.568;  -14.435; 4817.074
873.188; 2322.205;  -12.415; 4987.732
873.750; 2264.566;  -14.555; 4868.651
874.312; 2274.213;  -11.185; 4779.330
874.874; 2241.742;  -12.715; 4866.348
875.436; 2136.163;  -13.196; 4718.887
875.998; 2034.343;  -11.426; 4660.005
876.560; 1960.639;   -9.786; 4462.964
877.122; 1928.005;  -12.796; 4145.042
877.683; 1843.006;  -13.226; 4056.481
878.245; 1696.458;  -12.036; 3950.740
878.807; 1573.963;  -11.536; 4058.958
879.369; 1589.996;  -10.806; 3954.677
879.930; 1721.417;  -13.946; 3941.495
880.492; 1781.902;  -11.876; 4067.014
881.053; 1639.339;  -13.216; 3859.633
881.615; 1534.086;  -12.226; 3776.071
882.176; 1481.291;  -12.946; 3734.750
882.738; 1476.439;  -10.736; 3678.489
883.299; 1441.678;  -12.057; 3405.407
883.860; 1353.194;  -12.677; 3351.106
884.422; 1299.159;  -14.097; 3394.044
884.983; 1243.474;  -13.667; 3166.443
885.544; 1182.985;  -10.717; 3189.802
886.105; 1123.689;  -14.357; 3160.360
886.666; 1066.392;  -14.287; 3093.059
887.227; 1004.846;  -14.297; 2941.957
887.788;  953.494;  -13.137; 2974.836
888.349;  892.298;  -14.637; 2721.214
888.910;  842.942;  -12.247; 2696.493
889.471;  842.231;  -10.577; 2560.172
890.032;  846.652;  -12.937; 2558.190
890.593;  852.312;  -12.487; 2567.669
891.153;  834.706;  -11.898; 2460.307
891.714;  804.040;  -14.278; 2372.046
892.275;  779.409;  -13.308; 2309.505
892.835;  718.512;  -12.058; 2382.543
893.396;  639.247;  -15.268; 2295.502
893.956;  596.269;  -13.278; 2162.420
894.517;  575.808;  -11.968; 2125.439
895.077;  578.250;  -12.798; 2086.978
895.638;  554.537;  -11.908; 2126.316
896.198;  532.456;  -13.288; 1838.275
896.758;  511.616;  -12.198; 1892.813
897.319;  487.496;  -13.048; 1792.232
897.879;  454.467;  -13.718; 1762.751
898.439;  414.877;  -14.138; 1661.149
898.999;  386.088;  -13.659; 1781.468
899.559;  375.015;  -14.699; 1703.347
900.119;  355.561;  -14.339; 1537.525
900.679;  333.902;  -11.789; 1638.384
901.239;  306.949;  -13.629; 1527.902
901.799;  287.559;  -13.679; 1456.441
902.359;  278.144;  -13.679; 1357.140
902.919;  270.042;  -14.159; 1331.118
903.479;  256.211;  -13.419; 1317.257
904.038;  239.397;  -14.899; 1262.595
904.598;  227.620;  -14.339; 1152.034
905.158;  218.339;  -13.959; 1240.893
905.717;  213.457;  -12.749; 1233.691
906.277;  209.881;  -11.889; 1217.330
906.836;  203.657;  -12.870; 1222.408
907.396;  198.300;  -11.790; 1193.047
907.955;  189.657;  -13.750; 1182.526
908.515;  181.086;  -14.760; 1099.364
909.074;  176.779;  -12.540; 1092.863
909.633;  172.110;  -12.120; 1069.121
910.192;  166.896;  -12.550; 1196.460
910.752;  161.088;  -12.760; 1029.960
911.311;  158.689;  -14.750; 1009.780
911.870;  156.658;  -13.860;  971.460
912.429;  157.249;  -13.480; 1094.080
912.988;  155.911;  -12.370; 1081.060
913.547;  152.647;  -14.670;  940.380
914.106;  151.037;  -12.800;  999.420
914.665;  149.834;  -11.370;  984.020
915.224;  146.976;  -11.430; 1035.760
915.782;  144.999;  -12.260;  922.560
916.341;  143.774;  -12.540; 1049.840
916.900;  139.671;  -12.540;  925.260
917.458;  138.787;  -13.480;  884.220
918.017;  139.499;  -12.470;  942.600
918.576;  138.008;  -13.450;  904.440
919.134;  136.312;  -12.890;  837.980
919.693;  136.050;  -15.480;  893.060
920.251;  134.735;  -14.420;  876.500
920.809;  134.168;  -12.170;  839.580
921.368;  132.890;  -13.650;  885.360
921.926;  130.527;  -12.750;  842.940
922.484;  131.049;  -14.150;  903.360
923.042;  130.620;  -15.100;  880.340
923.601;  132.611;  -10.990;  998.680
924.159;  132.528;  -12.470;  935.560
924.717;  132.653;  -15.640;  841.080
925.275;  133.650;  -12.380;  903.240
925.833;  133.363;  -12.710;  779.320
926.391;  137.018;  -11.200;  938.380
926.949;  135.847;  -16.000;  857.680
927.506;  138.093;  -12.260;  903.500
928.064;  138.850;  -11.300;  877.580
928.622;  139.656;  -13.750;  880.100
929.180;  139.325;  -15.290;  814.180
929.737;  139.864;  -14.500;  808.540
930.295;  142.203;  -10.630;  928.480
930.853;  142.845;  -14.590;  849.100
931.410;  144.187;  -14.450;  821.120
931.968;  146.545;  -14.390;  940.660
932.525;  147.653;  -13.050;  909.380
933.082;  151.222;  -15.620;  811.440
933.640;  160.390;  -15.650;  925.900
934.197;  164.490;  -13.610;  886.360
934.754;  166.333;  -13.320;  897.780
935.312;  166.574;  -13.370;  863.340
935.869;  170.210;  -12.780; 1012.980
936.426;  171.483;  -14.480;  872.800
936.983;  172.847;  -13.180;  889.020
937.540;  172.363;  -15.710;  838.280
938.097;  172.501;  -14.980;  940.120
938.654;  169.241;  -13.060;  898.860
939.211;  168.637;  -12.760;  952.480
939.768;  170.350;  -16.230;  915.420
940.324;  175.796;  -10.940;  904.200
940.881;  180.601;  -12.570;  878.500
941.438;  183.278;  -13.650; 1021.200
941.995;  179.612;  -13.300;  992.560
942.551;  178.551;  -15.800;  875.620
943.108;  177.078;  -14.180;  937.920
943.664;  170.397;  -13.890;  869.340
944.221;  169.988;  -12.640; 1088.140
944.777;  170.762;  -14.700;  869.680
945.334;  172.715;  -13.010;  884.840
945.890;  173.341;  -13.480;  946.480
946.446;  170.911;  -14.920;  947.020
947.003;  172.867;  -13.860;  964.940
947.559;  173.662;  -12.000; 1063.040
948.115;  170.038;  -10.510; 1026.540
948.671;  167.880;  -12.760;  967.300
949.227;  165.465;  -15.390;  859.560
949.783;  162.907;  -15.570;  858.900
950.339;  161.694;  -12.800;  991.000
950.895;  159.584;  -13.780; 1023.840
951.451;  156.314;  -13.810;  925.280
952.007;  154.509;  -12.390;  998.540
952.563;  152.777;  -11.980;  937.780
953.118;  149.712;  -14.070;  904.940
953.674;  149.494;  -14.140;  935.780
954.230;  148.550;  -12.680;  949.640
954.785;  150.080;  -12.770;  936.640
955.341;  151.310;  -11.450;  998.160
955.897;  146.805;  -15.350;  834.660
956.452;  144.983;  -14.200;  953.840
957.008;  143.782;  -10.820; 1083.640
957.563;  139.524;  -13.200; 1009.540
958.118;  135.665;  -14.460;  877.700
958.674;  136.513;  -13.840;  946.780
959.229;  137.612;  -10.670; 1013.980
959.784;  138.141;  -17.040;  832.400
960.339;  140.663;  -12.970; 1001.280
960.894;  141.487;  -12.700;  963.760
961.449;  140.139;  -13.790;  859.960
962.004;  143.299;  -11.760; 1212.840
962.559;  141.944;  -14.840;  860.140
963.114;  141.785;  -14.530;  742.480
963.669;  143.279;  -12.780;  915.500
964.224;  140.487;  -14.330;  874.340
964.779;  137.689;  -14.380;  828.420
965.334;  133.610;  -12.460; 1017.860
965.888;  130.189;  -13.490;  875.360
966.443;  130.029;  -14.140;  972.380
966.998;  126.896;  -16.240;  819.460
967.552;  125.040;  -12.730;  908.380
968.107;  121.727;  -14.510;  868.300
968.661;  122.635;  -11.850;  922.440
969.216;  122.210;  -14.370;  856.280
969.770;  120.503;  -13.010;  917.200
970.324;  117.784;  -12.460;  923.140
970.879;  118.167;  -11.580;  947.180
971.433;  117.190;  -13.130;  952.720
971.987;  116.030;  -12.360;  895.340
972.541;  115.092;  -14.330;  917.100
973.095;  115.149;  -13.310; 1009.460
973.649;  114.518;  -15.830;  809.480
974.203;  115.624;  -15.830;  829.040
974.757;  118.211;  -13.480;  855.220
975.311;  117.090;  -13.720;  872.600
975.865;  114.184;  -15.780;  881.820
976.419;  110.811;  -14.290;  857.400
976.973;  108.718;  -13.210;  849.620
977.526;  108.143;  -12.300;  949.920
978.080;  105.008;  -14.840;  796.780
978.634;  103.916;  -13.100;  921.320
979.187;  100.530;  -12.300;  905.400
979.741;   98.769;  -12.020; 1018.380
980.294;   92.986;  -14.590;  789.160
980.848;   89.275;  -14.390;  717.220
981.401;   89.940;  -14.280;  816.540
981.955;   89.912;  -11.920;  844.300
982.508;   87.127;  -15.790;  746.340
983.061;   86.159;  -12.070;  915.260
983.615;   84.409;  -13.260;  798.800
984.168;   82.678;  -15.540;  770.080
984.721;   82.661;  -13.230;  880.760
985.274;   80.703;  -11.820;  867.500
985.827;   79.064;  -13.510;  834.220
986.380;   75.694;  -14.840;  721.340
986.933;   76.238;  -13.970;  864.800
987.486;   74.476;  -12.450;  861.920
988.039;   73.162;  -11.170;  863.100
988.591;   70.818;  -13.070;  893.260
989.144;   67.186;  -15.530;  737.260
989.697;   66.541;  -14.300;  758.740
990.250;   65.905;  -13.310;  858.100
990.802;   63.674;  -14.490;  755.860
991.355;   66.325;  -12.980;  974.880
991.907;   64.163;  -13.715;  864.320
992.460;   62.002;  -14.450;  753.760
993.012;   62.055;  -12.590;  749.540
993.565;   60.809;  -15.180;  711.360
994.117;   61.492;  -11.630;  950.780
994.669;   57.828;  -13.760;  701.320
995.221;   57.111;  -12.710;  791.920
995.774;   56.401;  -14.620;  787.580
996.326;   55.389;  -13.150;  740.220
996.878;   56.146;  -12.880;  838.420
997.430;   53.956;  -14.580;  699.860
997.982;   54.438;  -14.030;  750.140
998.534;   53.711;  -12.190;  739.060
999.086;   51.047;  -12.990;  738.220
999.638;   50.746;  -13.180;  661.380
1000.190;   50.266;  -14.970;  699.320
1000.741;   50.536;  -12.200;  742.700
1001.293;   49.670;  -13.400;  686.020
1001.845;   49.389;  -14.490;  676.640
1002.396;   49.999;  -15.280;  743.400
1002.948;   50.278;  -12.380;  737.400
1003.500;   47.870;  -13.260;  723.780
1004.051;   49.488;  -13.730;  907.580
1004.603;   48.688;  -12.300;  791.820
1005.154;   43.914;  -15.330;  608.980
1005.705;   43.780;  -12.800;  723.960
1006.257;   43.212;  -13.900;  707.220
1006.808;   41.997;  -14.430;  685.460
1007.359;   41.714;  -12.010;  763.240
1007.910;   39.695;  -12.690;  646.640
1008.461;   39.645;  -13.610;  732.940
1009.013;   39.047;  -14.990;  588.340
1009.564;   39.331;  -11.860;  793.520
1010.115;   37.315;  -12.640;  597.040
1010.665;   36.483;  -14.570;  602.160
1011.216;   37.481;  -15.190;  667.920
1011.767;   37.272;  -13.470;  697.920
1012.318;   37.019;  -13.760;  736.980
1012.869;   36.167;  -15.950;  679.000
1013.419;   36.180;  -15.880;  603.120
1013.970;   36.575;  -14.540;  666.640
1014.521;   35.317;  -13.220;  620.620
1015.071;   35.574;  -15.020;  670.380
1015.622;   35.365;  -17.510;  635.460
1016.172;   34.751;  -14.130;  596.820
1016.723;   34.310;  -14.220;  614.380
1017.273;   33.928;  -15.370;  604.160
1017.823;   33.722;  -15.290;  650.340
1018.374;   33.504;  -13.420;  611.760
1018.924;   33.387;  -11.740;  716.880
1019.474;   34.278;  -12.250;  718.880
1020.024;   32.521;  -15.850;  657.580
1020.574;   33.566;  -13.280;  726.160
1021.124;   32.955;  -13.560;  673.580
1021.674;   31.266;  -13.790;  559.120
1022.224;   33.140;  -14.610;  708.940
1022.774;   31.892;  -13.100;  668.820
1023.324;   32.458;  -11.470;  753.520
1023.874;   33.789;  -11.990;  875.760
1024.423;   31.490;  -14.550;  613.700
1024.973;   31.402;  -14.440;  610.760
1025.523;   30.256;  -13.250;  620.960
1026.072;   29.046;  -15.200;  606.420
1026.622;   30.016;  -14.590;  675.740
1027.172;   31.618;  -11.080;  715.660
1027.721;   28.682;  -14.010;  601.220
1028.270;   29.042;  -13.690;  663.400
1028.820;   29.546;  -15.380;  638.080
1029.369;   28.795;  -14.980;  612.700
1029.918;   28.873;  -13.100;  649.840
1030.468;   28.922;  -13.680;  564.780
1031.017;   29.231;  -13.770;  634.800
1031.566;   27.908;  -14.100;  608.900
1032.115;   28.195;  -11.770;  694.500
1032.664;   27.057;  -14.940;  596.480
1033.213;   28.809;  -13.370;  735.420
1033.762;   27.061;  -13.660;  635.620
1034.311;   26.884;  -13.650;  677.220
1034.860;   27.581;  -13.820;  691.000
1035.408;   27.912;  -12.860;  722.720
1035.957;   27.877;  -13.060;  719.540
1036.506;   25.074;  -14.510;  530.800
1037.055;   29.008;  -13.470;  844.320
1037.603;   25.925;  -14.800;  664.000
1038.152;   24.766;  -14.190;  534.760
1038.700;   25.152;  -11.810;  585.740
1039.249;   25.618;  -12.850;  681.220
1039.797;   25.664;  -14.610;  633.360
1040.345;   25.952;  -15.220;  705.420
1040.894;   24.734;  -13.480;  625.300
1041.442;   24.671;  -13.310;  632.200
1041.990;   23.883;  -14.510;  559.160
1042.538;   23.718;  -15.700;  536.180
1043.087;   23.634;  -13.910;  570.860
1043.635;   25.313;  -13.620;  670.500
1044.183;   23.989;  -14.230;  586.400
1044.731;   23.964;  -13.730;  576.000
1045.279;   22.903;  -13.970;  674.920
1045.827;   26.188;  -10.750;  892.400
1046.374;   23.037;  -15.230;  515.420
1046.922;   22.632;  -15.390;  590.580
1047.470;   23.395;  -12.320;  691.300
1048.018;   22.925;  -13.230;  647.960
1048.565;   24.371;  -13.390;  708.600
1049.113;   22.760;  -15.030;  557.000
1049.660;   21.934;  -12.540;  629.660
1050.208;   22.162;  -15.040;  675.640
1050.755;   22.178;  -14.680;  606.580
1051.303;   22.485;  -13.610;  686.820
1051.850;   21.714;  -14.340;  635.120
1052.397;   19.758;  -16.330;  473.960
1052.945;   21.524;  -15.710;  617.760
1053.492;   22.681;  -12.320;  741.840
1054.039;   21.557;  -13.730;  720.180
1054.586;   20.722;  -16.140;  557.240
1055.133;   21.937;  -14.020;  693.140
1055.680;   22.046;  -13.430;  646.620
1056.227;   19.743;  -14.570;  542.780
1056.774;   22.612;  -14.400;  794.980
1057.321;   19.562;  -14.230;  523.260
1057.868;   20.421;  -14.220;  651.320
1058.415;   20.285;  -14.060;  651.980
1058.961;   20.077;  -14.640;  678.940
1059.508;   19.907;  -13.970;  643.820
1060.055;   19.412;  -15.100;  581.780
1060.601;   19.377;  -12.180;  624.300
1061.148;   19.035;  -15.010;  616.820
1061.694;   18.681;  -14.750;  592.580
1062.241;   18.119;  -14.130;  596.320
1062.787;   19.210;  -14.770;  663.140
1063.334;   21.517;  -13.130;  808.560
1063.880;   18.946;  -14.420;  668.360
1064.426;   19.034;  -13.130;  706.820
1064.972;   17.633;  -13.960;  601.340
1065.518;   16.333;  -13.680;  566.640
1066.065;   18.167;  -15.720;  624.460
1066.611;   17.130;  -13.970;  598.800
1067.157;   17.896;  -13.920;  641.860
1067.703;   18.055;  -14.760;  668.480
1068.249;   17.443;  -14.490;  605.220
1068.794;   18.387;  -14.740;  626.880
1069.340;   16.684;  -13.220;  578.960
1069.886;   16.882;  -14.930;  590.700
1070.432;   16.025;  -14.700;  541.720
1070.977;   16.067;  -14.470;  601.080
1071.523;   15.688;  -14.330;  573.060
1072.068;   16.705;  -14.960;  582.000
1072.614;   16.164;  -16.220;  527.760
1073.160;   17.088;  -11.280;  687.040
1073.705;   15.255;  -15.990;  572.520
1074.250;   15.552;  -16.550;  559.900
1074.796;   16.707;  -14.600;  655.160
1075.341;   16.580;  -13.440;  664.100
1075.886;   15.665;  -14.450;  594.240
1076.431;   16.086;  -13.160;  649.880
1076.976;   14.754;  -14.710;  639.220
1077.521;   15.411;  -14.000;  583.080
1078.067;   13.935;  -14.470;  579.400
1078.612;   14.837;  -14.530;  661.620
1079.156;   14.651;  -15.660;  601.540
1079.701;   14.640;  -16.120;  693.260
1080.246;   15.437;  -12.960;  696.300
1080.791;   14.419;  -13.700;  625.020
1081.336;   15.357;  -15.540;  659.320
1081.880;   15.549;  -14.640;  649.680
1082.425;   14.054;  -14.220;  573.480
1082.970;   15.547;  -11.890;  717.040
1083.514;   13.892;  -13.820;  597.000
1084.059;   13.732;  -14.280;  586.720
1084.603;   13.127;  -12.890;  565.840
1085.147;   13.792;  -13.590;  645.220
1085.692;   15.344;  -14.050;  716.800
1086.236;   12.470;  -14.990;  503.140
1086.780;   14.235;  -12.640;  751.440
1087.325;   13.653;  -15.550;  654.620
1087.869;   14.573;  -14.980;  610.700
1088.413;   14.061;  -13.440;  705.040
1088.957;   11.282;  -12.170;  543.400
1089.501;   13.986;  -12.730;  766.640
1090.045;   14.187;  -14.650;  726.480
1090.589;   11.211;  -14.500;  569.920
1091.133;   12.570;  -12.320;  673.340
1091.676;   11.921;  -16.130;  591.940
1092.220;   11.606;  -13.930;  600.920
1092.764;   13.066;  -12.820;  706.960
1093.307;   12.595;  -11.700;  673.780
1093.851;   11.016;  -15.600;  556.540
1094.395;   12.799;  -13.920;  683.140
1094.938;   11.832;  -16.090;  632.520
1095.482;   11.099;  -13.820;  559.800
1096.025;   12.576;  -12.720;  710.880
1096.568;   13.360;  -12.100;  779.280
1097.112;    9.420;  -15.450;  508.180
1097.655;   11.602;  -14.310;  603.000
1098.198;   10.001;  -14.740;  600.180
1098.741;   10.953;  -15.550;  612.860
1099.285;   11.231;  -12.600;  657.300
1099.828;    8.659;  -15.050;  439.400
1100.371;   10.234;  -14.800;  608.160
1100.914;   11.315;  -16.480;  682.660
1101.457;   11.353;  -12.990;  679.900
1101.999;    8.776;  -14.110;  584.680
1102.542;   10.383;  -11.450;  641.440
1103.085;   10.122;  -13.350;  658.500
1103.628;   11.138;  -13.200;  762.060
1104.170;    9.217;  -12.310;  588.280
1104.713;    9.744;  -14.320;  646.700
1105.256;    9.628;  -16.110;  557.440
1105.798;    8.588;  -15.910;  499.980
1106.341;    9.513;  -12.200;  728.900
1106.883;    8.681;  -14.910;  521.340
1107.425;    9.743;  -14.960;  668.180
1107.968;    8.583;  -13.440;  612.380
1108.510;   10.026;  -14.010;  684.960
1109.052;    8.217;  -15.430;  612.620
1109.594;    8.938;  -15.290;  554.440
1110.136;    9.271;  -13.360;  643.220
1110.679;    7.785;  -13.820;  633.080
1111.221;    8.547;  -13.690;  604.460
1111.763;    8.118;  -14.890;  559.220
1112.304;    7.393;  -14.550;  547.140
1112.846;    8.004;  -12.760;  666.240
1113.388;   11.650;  -10.780;  942.180
1113.930;    8.122;  -12.690;  694.200
1114.472;    7.370;  -15.730;  606.540
1115.013;    5.919;  -14.620;  551.280
1115.555;    6.550;  -14.950;  587.100
1116.097;    6.600;  -16.460;  579.480
1116.638;    7.948;  -13.730;  684.600
1117.180;    7.682;  -13.810;  667.740
1117.721;    6.307;  -13.280;  568.580
1118.262;    7.691;  -15.080;  677.960
1118.804;    7.709;  -14.040;  637.340
1119.345;    5.885;  -15.430;  578.400
1119.886;    7.962;  -15.240;  704.040
1120.427;    6.323;  -15.820;  589.020
1120.969;    6.720;  -14.550;  597.920
1121.510;    5.197;  -14.030;  563.060
1122.051;    6.309;  -11.990;  723.580
1122.592;    6.402;  -16.490;  655.420
1123.133;    5.009;  -15.580;  547.940
1123.673;    6.745;  -12.850;  706.480
1124.214;    6.128;  -13.630;  612.460
1124.755;    7.611;  -14.830;  639.460
1125.296;    5.852;  -13.110;  627.320
1125.836;    6.453;  -11.320;  691.500
1126.377;    5.654;  -14.330;  599.660
1126.918;    6.067;  -12.800;  614.980
1127.458;    4.850;  -13.580;  622.220
1127.999;    4.942;  -10.330;  656.980
1128.539;    6.317;  -13.390;  694.240
1129.079;    5.660;  -16.420;  632.720
1129.620;    5.037;  -15.700;  558.100
1130.160;    3.367;  -14.790;  539.480
1130.700;    5.013;  -12.910;  640.840
1131.240;    5.870;  -15.610;  643.700
1131.781;    5.053;  -12.920;  619.680
1132.321;    4.836;  -15.300;  599.120
1132.861;    3.577;  -14.760;  564.200
1133.401;    4.109;  -15.470;  593.940
1133.941;    5.082;  -13.710;  626.280
1134.481;    3.366;  -11.820;  597.580
1135.020;    3.866;  -14.810;  609.160
1135.560;    4.214;  -13.660;  674.940
1136.100;    2.730;  -13.940;  501.160
1136.640;    2.102;  -15.410;  510.480
1137.179;    3.021;  -16.920;  537.960
1137.719;    4.155;  -16.430;  605.400
1138.258;    3.645;  -16.300;  587.360
1138.798;    3.977;  -13.710;  663.780
1139.337;    2.247;  -13.840;  482.840
1139.877;    3.672;  -16.140;  642.360
1140.416;    6.466;  -11.410;  878.060
1140.955;    1.592;  -12.820;  535.380
1141.494;    3.295;  -12.310;  669.280
1142.034;    2.418;  -16.280;  583.520
1142.573;    3.827;  -13.090;  646.280
1143.112;    2.635;  -13.770;  553.480
1143.651;    2.752;  -15.830;  536.480
1144.190;    4.011;  -15.010;  691.640
1144.729;    2.547;  -13.650;  607.420
1145.267;    2.784;  -13.670;  584.900
1145.806;    4.288;  -13.630;  637.040
1146.345;    2.821;  -14.160;  635.020
1146.884;    3.295;  -11.180;  622.500
1147.422;    1.866;  -15.890;  533.060
1147.961;    3.260;  -12.760;  708.460
1148.500;    3.368;  -15.220;  669.720
1149.038;    3.151;  -13.720;  632.500
1149.577;    2.231;  -13.250;  698.640
1150.115;    0.457;  -16.790;  452.280
1150.653;    2.404;  -15.810;  607.340
1151.192;    2.840;  -14.730;  552.920
1151.730;    1.571;  -13.660;  652.560
1152.268;    1.125;  -15.120;  589.520
1152.806;    2.109;  -15.580;  571.180
1153.344;    0.351;  -16.210;  577.640
1153.882;    1.548;  -12.810;  600.060
1154.421;   -0.389;  -14.150;  470.620
1154.958;    0.624;  -15.360;  595.240
1155.496;    2.726;  -14.710;  645.280
1156.034;    1.324;  -13.640;  721.880
1156.572;    2.286;  -13.740;  667.060
1157.110;    0.074;  -16.960;  473.940
1157.647;    2.163;  -11.940;  676.960
1158.185;   -0.188;  -14.090;  564.320
1158.723;   -0.263;  -13.610;  509.200
1159.260;    1.868;  -14.760;  701.700
1159.798;    1.359;  -13.700;  658.160
1160.335;    0.187;  -13.820;  631.820

