
Integration time [ms]:   3.882
Averaging Nr. [scans]: 1000
Smoothing Nr. [pixels]: 0
Data measured with spectrometer [name]: 7414430SP
Wave   ;Sample   ;Dark     ;Reference
[nm]   ;[counts] ;[counts] ;[counts] 

288.544;  125.573;   10.292;  793.890
289.143;  128.402;    4.564;  681.602
289.742;  130.526;    6.144;  828.814
290.341;  117.544;    4.396;  789.841
290.940;  108.052;    0.938;  730.702
291.538;  109.661;   -0.684;  881.108
292.137;  107.954;   -2.845;  792.581
292.736;  110.768;   -0.144;  975.101
293.335;  107.654;   -6.352;  735.086
293.934;  108.009;   -7.642;  781.677
294.532;  108.579;   -4.992; 1031.958
295.131;   95.504;   -5.478;  834.394
295.730;   94.915;   -6.549;  809.588
296.328;   93.394;   -9.558;  783.442
296.927;   93.101;   -8.118;  779.652
297.525;   94.248;   -6.908;  781.236
298.124;   84.707;   -9.195;  654.009
298.722;   89.470;   -8.198;  761.933
299.321;   88.116;   -8.817;  708.597
299.919;   85.327;   -7.716;  751.918
300.518;   81.964;  -10.745;  689.338
301.116;   83.057;   -9.647;  691.381
301.715;   84.681;  -10.828;  730.222
302.313;   83.022;   -6.087;  704.943
302.911;   77.559;   -6.824;  733.830
303.509;   84.022;   -8.807;  925.627
304.108;   81.416;   -8.198;  760.383
304.706;   81.218;   -6.218;  801.664
305.304;   76.251;   -7.185;  796.707
305.902;   81.376;   -8.568;  784.484
306.500;   77.219;   -7.737;  728.200
307.098;   75.634;   -6.026;  746.560
307.696;   73.347;   -7.176;  780.432
308.294;   74.805;   -8.656;  731.359
308.892;   76.406;   -6.838;  759.769
309.490;   71.773;   -2.596;  712.161
310.088;   71.287;   -4.485;  788.444
310.686;   75.792;   -3.907;  821.749
311.284;   72.700;   -2.806;  766.040
311.882;   69.254;   -2.845;  731.225
312.480;   65.603;   -3.274;  697.167
313.078;   68.256;   -3.645;  808.331
313.675;   68.914;   -4.997;  691.600
314.273;   63.887;   -0.894;  797.837
314.871;   62.836;   -2.854;  589.829
315.468;   61.382;   -3.644;  652.090
316.066;   64.490;   -3.947;  694.427
316.664;   57.302;   -1.824;  656.351
317.261;   62.932;    1.565;  910.128
317.859;   58.165;   -3.955;  768.735
318.456;   59.199;   -2.886;  830.096
319.054;   55.060;   -0.995;  787.828
319.651;   53.260;   -1.765;  759.928
320.249;   53.410;   -3.685;  810.188
320.846;   51.570;   -3.736;  714.286
321.443;   49.203;   -2.065;  832.135
322.041;   47.150;   -5.635;  812.315
322.638;   45.984;   -5.985;  701.456
323.235;   47.586;   -6.677;  665.683
323.833;   45.155;   -3.497;  740.354
324.430;   40.817;   -6.756;  615.900
325.027;   42.409;   -7.647;  876.855
325.624;   42.745;   -7.598;  644.532
326.221;   40.108;   -5.848;  689.717
326.818;   39.930;   -5.777;  818.332
327.415;   42.961;   -8.769;  748.828
328.012;   42.178;   -6.299;  690.585
328.609;   40.730;   -6.639;  731.389
329.206;   38.566;   -6.358;  778.621
329.803;   37.736;   -8.698;  737.841
330.400;   39.704;   -8.379;  704.260
330.997;   40.160;   -6.178;  817.147
331.594;   37.220;   -5.646;  788.185
332.191;   41.782;   -6.928;  728.722
332.787;   43.697;   -6.057;  844.463
333.384;   41.133;   -6.445;  763.093
333.981;   38.827;   -8.002;  815.687
334.578;   41.802;   -8.443;  708.378
335.174;   43.510;   -6.053;  731.469
335.771;   43.087;   -5.791;  836.456
336.367;   39.878;   -6.570;  710.631
336.964;   42.181;   -6.741;  793.266
337.561;   42.145;   -5.710;  731.112
338.157;   38.974;   -3.928;  911.916
338.754;   36.151;   -5.577;  796.589
339.350;   34.151;   -9.667;  722.493
339.946;   38.344;   -5.269;  773.135
340.543;   30.568;   -4.485;  846.136
341.139;   25.107;   -7.584;  720.836
341.735;   23.426;   -8.553;  772.593
342.332;   23.194;   -4.984;  691.472
342.928;   23.314;   -3.475;  795.394
343.524;   18.043;   -6.653;  761.684
344.120;   15.578;   -7.173;  738.562
344.716;   18.469;   -4.385;  723.717
345.313;   16.216;   -3.565;  795.342
345.909;   11.841;   -7.495;  627.336
346.505;   14.488;   -8.276;  740.247
347.101;   14.878;   -5.697;  827.864
347.697;   15.787;   -4.767;  785.398
348.293;    9.109;   -7.226;  627.244
348.889;   10.911;   -7.547;  745.914
349.485;   10.260;   -9.147;  688.205
350.081;   11.252;   -6.568;  772.592
350.676;    6.753;   -6.516;  691.606
351.272;   11.720;   -7.378;  809.530
351.868;   11.247;   -6.759;  780.497
352.464;    8.221;   -4.798;  723.932
353.059;    4.291;   -7.977;  646.017
353.655;    8.965;   -8.769;  777.063
354.251;    9.200;   -5.920;  759.845
354.846;    3.529;   -7.647;  740.646
355.442;    1.187;   -6.956;  753.071
356.038;    3.664;   -9.928;  751.708
356.633;    3.679;   -7.698;  728.594
357.229;    3.186;   -6.307;  724.757
357.824;    0.910;   -7.647;  703.600
358.420;   -0.354;  -10.047;  679.726
359.015;    0.796;   -7.458;  695.357
359.610;    1.158;   -5.748;  763.920
360.206;   -4.270;   -9.346;  603.240
360.801;   -1.266;  -11.268;  646.503
361.396;    1.316;   -8.789;  725.975
361.992;   -2.852;   -6.347;  668.220
362.587;   -6.524;   -6.476;  670.160
363.182;   -4.326;   -9.457;  689.631
363.777;   -2.602;   -7.147;  738.242
364.372;   -2.797;   -5.507;  737.314
364.967;   -7.220;   -6.386;  680.744
365.563;   -2.550;   -7.858;  815.567
366.158;   -5.383;   -8.517;  685.161
366.753;   -5.250;   -8.728;  649.263
367.348;   -6.633;   -7.677;  746.056
367.942;   -6.070;  -10.387;  697.298
368.537;   -7.056;   -7.187;  754.245
369.132;   -7.254;   -8.587;  703.428
369.727;  -10.266;   -8.606;  638.079
370.322;   -8.968;  -10.426;  580.186
370.917;   -9.514;   -5.776;  710.646
371.511;   -6.285;   -6.007;  861.834
372.106;   -9.610;   -6.686;  776.964
372.701;  -13.236;   -9.335;  585.988
373.296;   -7.407;   -6.777;  863.135
373.890;  -12.292;   -7.546;  647.840
374.485;  -13.704;   -8.755;  691.199
375.079;   -9.624;   -9.797;  738.685
375.674;   -8.732;   -6.327;  812.970
376.268;  -13.590;   -9.046;  691.759
376.863;  -18.551;   -7.993;  580.327
377.457;  -12.748;   -9.206;  662.490
378.052;  -13.522;   -5.345;  764.884
378.646;  -15.315;   -5.605;  741.167
379.240;  -15.070;   -6.825;  721.176
379.835;  -14.177;  -10.476;  636.978
380.429;  -16.281;   -8.676;  562.557
381.023;  -15.615;   -4.945;  779.205
381.617;  -18.467;   -8.094;  680.106
382.212;  -14.308;  -10.646;  685.303
382.806;  -13.609;   -8.136;  760.690
383.400;  -18.567;   -7.855;  672.281
383.994;  -19.249;   -8.125;  664.870
384.588;  -14.370;   -7.637;  697.701
385.182;  -12.894;   -7.458;  726.624
385.776;  -14.857;   -6.277;  706.875
386.370;  -18.856;   -7.485;  681.968
386.964;  -16.131;   -9.416;  684.155
387.558;  -15.027;   -8.518;  598.360
388.152;  -18.902;   -7.096;  681.959
388.745;  -16.774;   -7.656;  814.707
389.339;  -14.860;   -8.927;  747.642
389.933;  -13.900;   -9.538;  695.370
390.527;  -13.979;   -5.857;  859.029
391.120;  -21.347;   -9.455;  595.318
391.714;  -17.956;   -9.746;  711.633
392.308;  -14.184;   -7.857;  780.253
392.901;  -18.499;   -9.106;  642.460
393.495;  -20.737;  -10.365;  595.414
394.089;  -17.745;   -9.696;  760.452
394.682;  -18.845;   -7.016;  697.188
395.275;  -18.432;   -8.466;  719.927
395.869;  -20.563;   -8.985;  667.314
396.462;  -18.749;  -11.496;  616.609
397.056;  -14.513;   -7.838;  776.621
397.649;  -19.786;   -6.895;  731.575
398.242;  -16.636;   -5.017;  712.645
398.836;  -15.599;   -8.787;  766.408
399.429;  -16.428;   -8.967;  631.041
400.022;  -20.238;   -8.815;  665.902
400.615;  -17.469;   -6.276;  805.609
401.208;  -15.477;   -8.407;  691.451
401.802;  -17.394;   -7.296;  699.329
402.395;  -19.680;   -7.585;  683.502
402.988;  -20.333;   -8.015;  696.627
403.581;  -17.285;   -9.577;  646.878
404.174;  -13.227;   -7.588;  686.568
404.767;  -17.996;   -7.906;  638.583
405.360;  -19.993;   -7.875;  621.445
405.953;  -14.231;   -8.127;  759.034
406.545;  -13.768;   -7.198;  725.342
407.138;  -17.196;   -8.916;  618.350
407.731;  -16.811;   -9.767;  613.303
408.324;  -12.297;  -10.659;  660.554
408.917;  -13.733;   -8.068;  681.864
409.509;  -15.738;   -9.837;  740.396
410.102;  -17.535;   -8.146;  643.948
410.695;  -11.481;   -7.969;  665.758
411.287;  -11.628;   -8.579;  599.821
411.880;  -13.061;   -6.968;  585.421
412.472;  -16.269;   -9.487;  613.092
413.065;  -13.412;  -10.338;  629.408
413.657;  -10.814;   -9.169;  576.678
414.250;  -10.614;  -10.119;  646.681
414.842;  -13.282;   -9.938;  676.353
415.434;  -11.012;  -10.409;  570.463
416.027;   -5.673;   -9.591;  652.196
416.619;   -8.904;   -7.379;  713.400
417.211;   -9.089;   -9.159;  599.352
417.804;   -4.994;   -9.191;  628.499
418.396;   -9.050;   -8.159;  607.643
418.988;   -6.345;   -6.960;  659.238
419.580;  -10.407;  -11.389;  568.276
420.172;   -7.756;  -13.460;  536.196
420.764;   -3.594;  -10.701;  672.482
421.356;   -5.321;   -8.961;  636.898
421.948;   -6.118;   -9.770;  677.661
422.540;   -0.551;   -8.832;  680.027
423.132;   -0.524;   -8.153;  600.641
423.724;   -5.080;   -8.481;  561.267
424.316;   -2.524;   -9.261;  621.345
424.908;    1.428;   -9.643;  591.517
425.500;    2.190;   -8.663;  647.978
426.092;    2.643;   -8.503;  648.268
426.683;    1.599;  -10.522;  684.836
427.275;    4.608;  -11.734;  641.471
427.867;    5.795;  -10.264;  668.948
428.458;    5.922;   -7.644;  732.344
429.050;    4.660;   -7.853;  680.749
429.642;    7.301;   -8.904;  743.124
430.233;    7.343;  -10.795;  569.356
430.825;    8.396;   -7.665;  724.809
431.416;    6.280;   -8.843;  698.241
432.008;   10.795;   -9.885;  651.723
432.599;   11.003;   -9.966;  656.073
433.190;    7.046;   -9.164;  637.670
433.782;    6.797;   -8.584;  590.395
434.373;   15.080;   -8.296;  884.765
434.964;   13.257;   -9.896;  602.920
435.556;   10.188;   -8.255;  634.537
436.147;   13.497;   -8.075;  758.490
436.738;   13.616;   -9.716;  701.099
437.329;   18.830;   -7.318;  721.723
437.920;   10.928;   -6.694;  666.688
438.511;   11.101;   -9.644;  564.526
439.103;   18.066;   -9.427;  623.998
439.694;   20.735;  -10.748;  681.583
440.285;   21.979;   -7.997;  764.432
440.876;   19.566;  -10.046;  845.738
441.466;   19.383;  -13.467;  575.162
442.057;   24.894;   -9.329;  665.814
442.648;   22.892;   -7.707;  746.255
443.239;   20.261;   -9.017;  620.477
443.830;   25.936;  -10.279;  704.958
444.421;   27.914;  -12.630;  655.474
445.011;   24.585;   -8.697;  693.619
445.602;   23.953;   -7.787;  743.126
446.193;   26.333;  -13.329;  488.117
446.783;   30.991;   -9.171;  640.397
447.374;   27.072;   -7.457;  692.759
447.964;   26.343;   -9.277;  713.770
448.555;   35.210;   -9.041;  822.742
449.145;   31.060;   -8.969;  662.853
449.736;   32.793;   -6.809;  803.179
450.326;   32.000;   -7.229;  713.626
450.917;   37.866;  -11.391;  675.324
451.507;   36.643;   -9.501;  600.661
452.097;   37.931;   -8.460;  746.267
452.688;   38.935;  -10.080;  742.160
453.278;   38.955;  -12.861;  566.840
453.868;   43.039;   -8.372;  793.550
454.458;   40.696;   -8.131;  651.141
455.048;   40.648;   -8.520;  711.783
455.639;   42.393;  -13.632;  567.096
456.229;   46.453;  -10.143;  710.694
456.819;   48.298;   -9.163;  751.158
457.409;   48.264;   -8.652;  773.993
457.999;   51.792;   -9.933;  737.505
458.589;   51.132;  -10.363;  686.606
459.179;   50.927;  -10.633;  717.658
459.769;   48.753;  -12.442;  627.099
460.358;   54.129;   -9.844;  797.262
460.948;   53.569;   -9.924;  689.503
461.538;   55.020;  -10.484;  660.677
462.128;   52.771;  -10.703;  664.934
462.717;   59.023;  -11.486;  710.326
463.307;   63.154;  -10.767;  705.846
463.897;   58.668;   -8.814;  656.942
464.486;   58.363;   -8.182;  837.128
465.076;   63.275;   -9.985;  733.776
465.666;   66.472;  -10.447;  652.900
466.255;   64.061;   -7.754;  785.651
466.845;   62.942;  -10.884;  666.749
467.434;   66.340;  -12.525;  725.873
468.023;   67.852;  -11.456;  658.357
468.613;   64.550;   -9.173;  713.946
469.202;   69.005;   -9.306;  646.507
469.791;   73.463;   -8.917;  737.811
470.381;   74.695;   -9.657;  742.813
470.970;   74.505;   -9.947;  711.099
471.559;   75.141;   -9.256;  733.291
472.148;   78.421;  -13.397;  675.737
472.738;   80.827;   -9.928;  765.466
473.327;   79.772;  -10.897;  637.529
473.916;   79.160;   -8.526;  737.446
474.505;   83.996;  -11.078;  751.703
475.094;   87.299;   -9.559;  806.570
475.683;   86.405;   -8.838;  797.699
476.272;   86.975;  -10.198;  730.632
476.861;   90.362;  -11.489;  706.754
477.449;   96.717;  -10.721;  728.487
478.038;   91.522;   -9.818;  692.513
478.627;   91.538;   -9.887;  714.852
479.216;   98.339;  -10.030;  769.441
479.805;  102.555;   -9.401;  783.375
480.393;  101.608;   -5.739; 1008.945
480.982;  100.760;   -7.838;  874.501
481.571;  106.939;   -9.111;  858.333
482.159;  107.973;  -10.601;  705.386
482.748;  107.722;   -8.500;  821.385
483.336;  111.613;   -9.241;  858.209
483.925;  113.211;  -10.440;  774.373
484.513;  119.492;  -11.063;  758.962
485.102;  115.708;   -9.540;  810.965
485.690;  124.554;   -6.742; 1011.050
486.278;  126.767;   -8.442;  979.329
486.867;  126.964;  -10.472;  809.662
487.455;  128.871;   -8.811;  898.229
488.043;  130.096;  -10.721;  748.361
488.631;  139.403;  -10.393; 1005.079
489.220;  143.730;  -10.843;  908.626
489.808;  143.070;  -10.572;  741.415
490.396;  151.362;  -10.482;  914.645
490.984;  157.480;  -11.542;  830.161
491.572;  167.881;   -8.463;  940.315
492.160;  174.568;   -8.491;  919.081
492.748;  184.812;   -9.681;  884.341
493.336;  206.485;  -10.493; 1019.693
493.924;  232.648;   -9.354;  958.077
494.512;  264.917;   -9.132; 1066.638
495.100;  304.113;   -9.001; 1103.280
495.687;  358.019;  -11.924; 1206.373
496.275;  431.013;  -11.193; 1150.796
496.863;  509.708;   -9.241; 1281.171
497.451;  611.717;  -11.341; 1386.805
498.038;  737.220;  -11.364; 1556.729
498.626;  846.482;   -8.104; 1741.407
499.214; 1024.347;   -8.842; 2016.609
499.801; 1263.252;  -10.112; 2220.633
500.389; 1460.430;  -11.953; 2312.494
500.976; 1625.456;  -10.023; 2744.849
501.564; 1856.898;   -8.662; 3148.565
502.151; 2203.971;  -10.531; 3515.999
502.738; 2617.455;  -13.853; 3971.274
503.326; 3114.869;  -10.794; 4403.796
503.913; 3577.715;   -8.663; 5161.749
504.500; 4026.874;  -10.172; 5986.420
505.088; 4831.747;  -13.472; 6381.201
505.675; 5398.104;  -10.924; 6925.547
506.262; 5580.488;   -8.551; 7619.060
506.849; 6293.594;  -10.523; 8733.969
507.436; 7319.762;  -10.834; 9790.121
508.023; 7680.289;   -9.093; 9985.472
508.610; 7976.663;  -10.073;10434.618
509.197; 9061.169;   -9.500;11198.435
509.784;10745.583;  -13.242;12391.194
510.371;11568.882;  -10.964;13603.713
510.958;12021.152;   -9.772;14426.586
511.545;12466.252;   -7.842;15243.775
512.132;12660.751;  -12.184;15945.876
512.719;14118.985;   -9.733;16340.369
513.305;16671.309;   -9.172;18011.766
513.892;17879.250;   -9.581;19754.971
514.479;18703.240;  -10.253;20967.805
515.066;19264.479;   -8.183;22299.793
515.652;20436.455;   -9.253;22908.660
516.239;22032.121;   -9.412;23798.875
516.825;23522.928;  -11.153;25567.275
517.412;23348.676;  -10.263;28154.959
517.998;22779.578;   -8.802;28344.111
518.585;22974.932;  -10.401;27134.219
519.171;23311.059;  -12.744;27268.576
519.758;25029.471;  -11.793;28964.129
520.344;27821.207;   -8.912;30664.494
520.930;30316.406;  -10.901;32550.605
521.516;29878.752;  -12.034;35422.895
522.103;30749.406;  -10.473;38280.004
522.689;33131.383;   -8.311;37835.117
523.275;35279.164;  -10.691;37288.613
523.861;36268.590;  -11.193;37281.395
524.447;33854.230;  -11.484;37846.949
525.033;33923.578;   -7.702;38321.949
525.619;34010.145;  -11.241;38579.285
526.205;34292.352;  -12.152;40622.875
526.791;35252.168;  -11.423;42258.836
527.377;35716.445;   -7.981;42966.902
527.963;35803.582;   -9.450;42018.949
528.549;36379.133;  -11.351;42476.828
529.135;37355.594;  -10.202;41854.852
529.721;38160.984;   -8.672;41237.711
530.306;37787.723;   -9.111;41259.445
530.892;39420.773;  -11.252;41506.047
531.478;41891.555;  -10.432;43559.613
532.063;43856.598;  -10.721;47695.563
532.649;45185.164;   -7.450;50808.324
533.235;46555.461;  -11.811;51787.500
533.820;46109.316;   -9.383;52145.035
534.406;43782.215;   -9.400;51133.488
534.991;42496.879;   -8.861;49996.805
535.576;43354.973;  -10.612;48882.852
536.162;41003.766;   -7.322;46942.285
536.747;41073.277;   -9.360;45711.746
537.333;43372.969;  -10.450;48510.180
537.918;46498.859;  -12.610;50439.891
538.503;46956.609;  -12.132;50863.711
539.088;44574.887;  -10.831;50906.922
539.673;44606.723;  -11.220;52621.965
540.259;47361.254;  -11.481;52368.094
540.844;47401.379;  -11.462;50879.109
541.429;49191.934;   -7.869;52077.777
542.014;47447.293;  -11.859;52716.695
542.599;45586.793;  -11.061;52363.281
543.184;46454.945;  -12.300;53187.137
543.769;47905.727;   -9.369;54697.605
544.354;48196.797;  -12.020;53913.914
544.938;43663.422;  -10.350;49680.164
545.523;40514.926;  -10.841;47386.277
546.108;44043.156;   -8.579;49151.949
546.693;46996.961;   -8.818;51384.637
547.278;47785.453;  -11.331;51853.254
547.862;47347.281;  -10.292;51173.750
548.447;46392.602;   -8.349;51691.395
549.031;45748.203;  -10.838;52456.703
549.616;46705.016;  -11.681;52714.516
550.201;48848.320;  -11.140;52414.598
550.785;46741.281;   -8.649;52355.059
551.370;47574.426;  -11.889;54589.453
551.954;48139.262;  -11.239;58267.348
552.538;49854.195;   -8.850;59062.176
553.123;51891.117;  -10.829;58115.285
553.707;52302.770;   -8.887;56556.285
554.291;49550.746;  -10.430;56201.668
554.876;48786.227;   -9.799;55335.762
555.460;45881.414;  -10.018;54155.703
556.044;45328.379;   -7.307;53721.484
556.628;48612.297;  -12.229;53731.016
557.212;49118.023;   -9.820;54312.531
557.796;47324.563;   -9.109;53797.773
558.380;44465.750;   -9.707;56145.984
558.964;46374.738;  -10.980;57277.930
559.548;49523.910;  -12.010;56459.641
560.132;50425.250;   -7.928;54434.543
560.716;53858.875;  -10.247;54800.617
561.300;55015.250;  -11.250;57606.945
561.884;53051.844;  -10.568;58972.445
562.467;50685.719;   -9.727;57327.570
563.051;46617.453;  -11.847;54962.434
563.635;45743.324;  -10.747;52594.473
564.219;44587.379;  -13.108;50610.410
564.802;42688.398;  -11.417;49551.180
565.386;40495.820;  -10.457;48370.953
565.969;43147.707;   -8.959;48178.871
566.553;43896.457;  -10.328;49957.305
567.136;43445.645;  -10.257;50369.594
567.720;42753.418;  -10.186;49492.004
568.303;42395.891;  -10.027;50616.352
568.887;42913.281;  -10.397;50727.148
569.470;43910.637;   -8.185;51698.379
570.053;42096.281;  -11.596;52122.078
570.637;39291.598;  -11.378;52536.438
571.220;37740.234;   -9.138;51186.098
571.803;36263.766;   -7.675;51032.762
572.386;35214.352;   -8.976;49609.887
572.969;36933.113;  -12.477;48285.926
573.552;38240.859;   -9.767;47624.285
574.135;37748.863;   -8.175;45498.641
574.718;34108.234;  -11.096;41970.434
575.301;32867.691;  -11.966;41447.137
575.884;31627.143;  -12.836;40923.836
576.467;37008.246;   -9.116;45267.723
577.050;39543.469;  -10.536;48175.543
577.633;39203.605;  -11.027;47729.328
578.216;37750.984;   -9.946;47579.793
578.799;37508.316;   -9.645;47820.996
579.381;36943.836;   -9.446;48115.551
579.964;36900.500;  -12.217;47333.766
580.547;37861.391;  -10.586;46668.969
581.129;37475.098;   -8.374;44466.141
581.712;36798.859;  -10.434;44164.922
582.294;36389.277;  -10.896;46477.855
582.877;37000.906;   -8.906;48244.254
583.459;36968.301;   -9.994;47437.895
584.042;35935.773;  -10.084;46943.219
584.624;35011.195;  -13.534;46792.227
585.206;34994.957;  -12.716;46557.250
585.789;35085.195;  -11.614;45793.773
586.371;34954.422;  -10.203;43836.391
586.953;33469.098;  -10.314;42972.492
587.536;31665.260;   -9.776;42487.211
588.118;31888.682;   -9.821;42086.414
588.700;32630.621;  -10.073;43389.930
589.282;34107.898;  -12.395;43646.039
589.864;34126.730;  -11.514;43438.109
590.446;34238.391;  -10.803;43151.926
591.028;35530.453;  -11.043;42781.867
591.610;35326.887;  -13.244;42839.098
592.192;32205.982;  -11.095;42820.402
592.774;29565.807;  -10.823;40724.277
593.356;28832.461;  -11.052;39874.789
593.937;29713.813;  -11.664;39980.648
594.519;30730.498;  -10.454;42069.633
595.101;29862.271;  -10.322;42976.031
595.683;28314.268;  -10.042;44084.441
596.264;28375.814;  -14.334;43478.797
596.846;30569.041;  -10.863;43803.672
597.427;32641.209;   -9.901;42986.934
598.009;33201.559;  -10.911;42832.219
598.591;32879.043;  -10.483;42580.086
599.172;31737.750;   -9.663;43061.805
599.753;30870.240;  -10.631;41691.469
600.335;30797.789;   -9.371;40692.520
600.916;32521.428;  -13.992;39982.422
601.498;33589.953;   -8.352;40318.617
602.079;31809.521;   -8.411;40670.609
602.660;34145.867;  -10.841;41450.898
603.241;34512.926;  -12.963;41137.738
603.823;31921.971;  -11.523;38868.797
604.404;30086.674;  -11.881;38182.785
604.985;31427.900;  -11.721;38078.047
605.566;32509.928;   -9.293;38056.633
606.147;31442.516;  -10.940;37020.418
606.728;30726.352;  -11.840;37883.359
607.309;30343.699;  -11.781;38748.273
607.890;30289.598;  -11.262;38850.230
608.471;28817.883;  -10.111;37457.918
609.051;28588.252;   -7.709;36066.457
609.632;28994.217;  -12.409;35991.074
610.213;27974.037;  -10.811;37402.641
610.794;28308.799;  -11.630;38383.363
611.374;29781.404;   -8.030;40562.387
611.955;31089.896;  -10.809;38533.727
612.536;32274.643;  -10.531;36951.789
613.116;32196.002;  -12.820;37197.891
613.697;31576.691;  -11.419;38411.125
614.277;30892.518;   -9.768;38673.938
614.858;30218.244;  -10.251;37075.863
615.438;26581.219;  -11.981;35092.906
616.019;25482.170;   -8.978;33666.301
616.599;28329.064;  -12.219;34189.023
617.179;30818.762;  -14.170;36952.047
617.760;32612.186;   -9.211;39582.574
618.340;32961.645;   -9.018;38943.977
618.920;30997.152;   -9.249;37594.156
619.500;31238.555;  -12.728;37866.938
620.080;33567.938;  -12.939;37869.043
620.660;32133.990;  -11.586;36868.617
621.241;31129.809;  -11.538;36352.309
621.821;31531.561;  -11.398;35459.520
622.401;32540.832;  -10.179;35207.414
622.980;32342.631;  -11.587;35980.422
623.560;31247.918;  -12.888;37351.328
624.140;28942.084;  -13.149;34388.582
624.720;24321.057;   -9.928;32368.764
625.300;24427.475;  -10.869;32638.629
625.880;28711.045;   -8.617;34599.035
626.459;32809.953;  -12.138;36831.738
627.039;33987.309;  -12.267;38299.098
627.619;34081.133;   -7.476;38289.574
628.198;34563.418;  -11.347;37220.695
628.778;33632.832;  -11.678;37632.563
629.357;31386.898;  -12.438;38003.012
629.937;29455.078;   -9.576;38402.039
630.516;28394.830;  -11.096;37868.801
631.096;28472.285;  -11.828;35760.410
631.675;29522.506;  -11.565;35225.219
632.254;30178.727;  -11.845;35130.289
632.834;30882.588;  -11.545;35794.570
633.413;31680.092;  -10.887;35788.922
633.992;33081.355;  -10.175;34532.863
634.571;32145.904;   -9.704;33590.113
635.151;29831.408;  -10.815;34943.863
635.730;29694.564;  -11.617;35352.523
636.309;29574.730;  -10.836;35366.605
636.888;30563.053;   -9.755;36165.637
637.467;31071.525;  -11.684;37515.902
638.046;32979.844;  -11.987;39288.695
638.625;33828.719;  -10.455;38279.699
639.204;32692.670;  -11.234;37741.598
639.782;29716.266;  -12.023;38364.551
640.361;28062.227;  -11.506;36740.621
640.940;27777.035;  -12.316;34950.082
641.519;29318.904;  -11.616;34137.398
642.097;32641.975;   -9.266;35654.258
642.676;33080.680;  -12.936;35637.957
643.255;32617.156;   -9.966;36567.074
643.833;33029.582;   -8.916;37809.434
644.412;34552.570;  -10.936;37337.293
644.990;36401.027;  -12.176;37018.531
645.569;36245.324;  -12.246;36518.469
646.147;35245.098;  -12.107;36186.430
646.726;34902.230;  -12.937;36267.688
647.304;38128.402;  -12.547;36647.625
647.882;38671.488;  -12.597;39286.742
648.461;36469.688;   -9.427;39157.703
649.039;34172.656;   -8.937;35412.883
649.617;32869.922;  -11.067;34744.918
650.195;32795.684;  -10.657;35403.098
650.773;31816.988;  -10.097;35053.797
651.352;29637.020;  -11.887;33756.816
651.930;25394.279;  -13.557;31868.773
652.508;22800.430;  -11.767;33121.551
653.086;23881.902;  -10.777;33564.793
653.663;27580.338;  -12.067;34054.668
654.241;30656.412;  -14.918;35693.309
654.819;31718.313;  -11.788;36422.906
655.397;31108.049;  -11.268;38213.484
655.975;32001.596;  -11.738;39507.625
656.553;31925.602;  -11.018;39498.223
657.130;30873.402;  -12.848;40395.480
657.708;30555.420;  -10.098;39242.020
658.286;31643.496;  -11.678;38920.020
658.863;33012.395;  -11.498;40202.898
659.441;34097.734;  -11.008;39677.938
660.018;34600.484;  -11.048;40413.355
660.596;34117.484;  -12.058;39931.414
661.173;34161.734;  -14.158;39604.531
661.750;33900.801;  -12.298;39700.070
662.328;33313.926;  -10.699;39292.809
662.905;31881.963;  -12.119;38235.648
663.482;27858.010;  -11.829;36212.305
664.060;26785.086;  -11.009;35944.945
664.637;29285.004;  -10.369;35170.785
665.214;29722.602;  -10.459;34197.523
665.791;28246.783;  -12.599;34549.520
666.368;27746.201;  -12.919;35118.578
666.945;29653.146;  -10.699;36019.418
667.522;30614.916;  -11.359;36048.438
668.099;30806.730;  -13.529;36243.914
668.676;30735.320;  -10.229;35958.875
669.253;30444.850;   -9.279;37384.730
669.830;29897.510;  -11.370;36779.629
670.407;31262.330;  -10.950;35231.289
670.984;32534.594;  -12.850;35544.270
671.560;32225.461;   -8.440;35466.867
672.137;30287.799;  -13.520;34280.863
672.714;28789.283;  -13.620;34632.863
673.290;28736.170;  -10.450;35135.422
673.867;27924.047;  -10.960;36114.480
674.443;26508.121;  -13.300;36152.859
675.020;27228.779;  -12.370;35327.238
675.596;27593.406;  -11.250;35795.176
676.173;28140.734;  -11.080;35430.355
676.749;28614.707;  -13.220;33549.516
677.326;31888.234;  -13.000;32210.012
677.902;33088.414;  -12.701;32068.871
678.478;32439.846;  -12.801;32583.891
679.054;31684.531;   -8.601;32088.928
679.631;33313.977;  -12.631;30978.848
680.207;33321.352;   -9.451;33160.887
680.783;31357.234;  -11.701;35570.363
681.359;30986.314;  -12.701;36125.184
681.935;30579.738;  -13.271;35240.922
682.511;29685.934;  -10.791;34429.961
683.087;30325.297;  -10.791;34463.680
683.663;30445.668;   -8.121;34648.898
684.239;32193.924;  -13.261;34546.457
684.815;31253.781;  -10.581;35586.375
685.390;28510.822;   -9.961;35821.895
685.966;27454.789;  -11.182;35085.871
686.542;26971.834;  -13.512;34198.230
687.118;27358.672;  -11.472;32847.707
687.693;27580.689;  -10.152;32794.027
688.269;29014.186;  -14.442;33072.367
688.844;30217.418;  -11.852;33141.664
689.420;28098.590;  -13.942;33965.742
689.995;26566.566;   -9.702;34655.523
690.571;26848.047;  -11.312;33576.742
691.146;26486.215;  -14.332;32657.219
691.722;28207.189;  -11.192;32526.979
692.297;30220.480;  -10.962;33014.617
692.872;29175.402;  -11.082;34012.254
693.448;28446.834;  -14.732;34237.434
694.023;27857.721;  -12.363;34142.672
694.598;28003.088;  -12.393;34132.031
695.173;27279.375;  -11.023;34205.250
695.748;27114.023;  -12.743;32882.488
696.323;28681.711;  -11.103;32864.906
696.898;29976.523;   -8.123;33170.004
697.473;29635.166;  -12.603;32432.984
698.048;28769.018;  -12.553;31649.303
698.623;30107.301;  -12.573;30778.141
699.198;32841.109;  -12.743;31140.119
699.773;30470.559;  -12.843;31764.299
700.348;29574.980;  -16.683;31780.816
700.922;30212.523;  -11.403;32046.375
701.497;30983.715;  -11.253;32603.574
702.072;31230.793;  -10.044;34799.871
702.646;30139.994;  -13.054;35793.172
703.221;28592.910;  -11.414;35201.590
703.795;28972.387;  -10.644;34764.527
704.370;30493.258;  -13.484;34307.367
704.944;30060.049;  -12.144;33509.887
705.519;28912.900;  -12.024;31388.584
706.093;27645.410;  -11.234;31340.104
706.668;26305.131;   -9.874;32630.281
707.242;25911.068;  -12.404;32728.779
707.816;25585.336;  -10.644;32947.238
708.390;25316.965;  -11.174;33277.855
708.965;26092.910;  -10.324;33834.336
709.539;25397.424;  -12.014;33709.273
710.113;25280.426;  -12.295;33044.313
710.687;26020.439;  -10.965;31953.992
711.261;26316.361;  -13.685;30505.949
711.835;25463.514;  -15.335;30262.369
712.409;24734.281;  -13.785;31254.447
712.983;25923.908;  -10.525;32754.986
713.557;27628.844;  -13.175;34018.824
714.131;28744.563;  -13.245;34579.625
714.704;30139.875;  -13.175;33890.262
715.278;31846.854;  -11.545;33531.102
715.852;31144.801;  -10.975;33601.660
716.425;30710.766;  -10.075;33515.117
716.999;30613.645;  -12.185;33185.555
717.573;31201.205;   -9.685;33905.996
718.146;32921.699;  -10.516;35199.293
718.720;29789.217;  -12.106;35060.551
719.293;29102.727;  -12.386;34973.230
719.867;31750.795;  -12.456;36394.449
720.440;31524.980;  -10.686;36663.008
721.013;31296.781;  -12.596;35102.426
721.587;31479.428;  -13.956;33985.266
722.160;30819.971;   -9.806;33524.965
722.733;30907.801;  -11.676;32987.043
723.306;30517.621;  -14.276;33066.301
723.880;30187.574;  -12.126;33399.500
724.453;30976.262;  -10.156;33468.297
725.026;29872.107;  -12.956;33816.637
725.599;28146.350;  -11.676;32797.996
726.172;27108.990;  -12.337;33187.434
726.745;28033.271;  -11.277;35136.613
727.318;27452.523;  -11.927;35751.730
727.891;26326.789;  -13.607;35890.430
728.463;26439.176;  -11.327;34822.090
729.036;25905.359;  -11.917;32895.086
729.609;26604.365;  -12.697;31823.225
730.182;27623.182;  -11.787;31445.283
730.754;28310.898;  -12.957;32373.223
731.327;28797.293;  -11.017;33676.820
731.900;27463.420;  -12.797;33417.000
732.472;25474.119;  -10.677;31978.498
733.045;24819.689;  -12.797;30368.777
733.617;25445.275;  -13.908;30574.215
734.190;25580.512;  -12.258;31280.975
734.762;26726.953;  -13.438;31674.412
735.334;27115.115;  -11.758;31247.291
735.907;27122.670;  -11.158;29876.211
736.479;28103.904;  -11.258;29808.488
737.051;29774.055;  -10.918;30233.547
737.623;30793.404;  -11.038;31469.086
738.195;30510.617;  -12.188;31784.225
738.768;27727.547;  -11.378;32120.523
739.340;26819.219;  -12.598;32094.342
739.912;27736.666;  -11.568;31312.680
740.484;27578.035;   -9.348;31946.238
741.056;27030.303;  -12.628;32984.059
741.628;27411.813;  -13.349;33897.715
742.199;27734.496;  -11.309;33213.016
742.771;27697.197;  -12.699;31369.113
743.343;29482.389;  -11.919;31865.473
743.915;29799.773;  -11.679;32388.631
744.487;28308.379;  -12.249;31079.568
745.058;26504.936;  -11.119;30570.107
745.630;25005.186;   -9.439;29970.127
746.201;24635.863;  -11.949;29186.766
746.773;24554.621;  -12.639;28805.723
747.344;24160.875;  -11.039;29591.223
747.916;23228.754;  -12.549;31412.201
748.487;22275.186;  -12.659;32194.898
749.059;22061.902;  -13.059;32533.719
749.630;23236.848;  -12.080;32158.518
750.201;22513.350;  -13.100;30855.395
750.773;21054.793;  -15.310;28622.555
751.344;20771.063;  -12.240;28405.732
751.915;20813.453;  -11.960;28461.551
752.486;20750.531;  -13.200;27842.850
753.057;20690.633;  -15.230;27845.008
753.628;20702.504;  -13.130;27728.107
754.199;20953.359;  -12.720;27381.086
754.770;20852.514;  -10.680;25882.203
755.341;20922.992;  -11.010;25886.184
755.912;20342.961;  -12.990;26050.861
756.483;19171.219;  -11.110;26798.779
757.054;18367.199;  -12.190;27048.238
757.625;18346.650;  -13.981;26294.838
758.195;18548.818;  -11.041;26142.076
758.766;19864.371;  -11.861;26392.234
759.337;20902.021;  -11.461;26334.594
759.907;21249.936;  -15.001;27579.652
760.478;20888.686;   -9.681;28352.770
761.048;20221.707;  -12.421;27325.088
761.619;19404.049;  -11.761;26460.428
762.189;18058.801;  -12.391;26029.826
762.760;17882.500;  -10.201;26430.145
763.330;19028.777;  -10.811;26670.902
763.900;21424.902;  -10.261;26603.021
764.471;21060.998;  -13.061;25542.740
765.041;19459.045;  -11.051;24358.459
765.611;19414.063;  -11.032;23991.297
766.181;19330.084;  -10.532;24470.236
766.751;19115.502;  -13.502;24845.975
767.321;19335.188;  -11.392;24533.633
767.891;19727.793;  -11.522;24916.492
768.461;20291.896;  -13.672;24776.771
769.031;19734.490;  -14.652;24757.988
769.601;18665.668;  -10.182;24181.088
770.171;16996.932;  -11.752;23670.387
770.741;15725.186;  -12.272;22960.045
771.311;15839.882;  -13.112;22917.523
771.880;15985.780;  -14.122;23562.941
772.450;17033.572;  -11.782;24216.500
773.020;18644.910;  -12.642;24140.398
773.589;17932.826;  -13.043;24414.857
774.159;15915.310;  -11.783;23858.717
774.729;15111.565;  -13.473;22942.135
775.298;16281.882;  -14.523;22324.033
775.867;17183.758;  -12.013;21140.313
776.437;16244.604;  -12.113;20838.092
777.006;14687.217;  -13.543;20599.510
777.576;13147.306;  -12.523;20508.809
778.145;12956.915;  -12.173;20732.947
778.714;14206.191;  -12.153;21062.465
779.283;14707.815;  -11.833;20949.664
779.853;15216.798;  -13.483;20508.623
780.422;15864.931;  -12.933;20649.082
780.991;15288.212;  -13.173;21527.520
781.560;13699.866;  -10.224;22632.658
782.129;13246.133;  -12.684;23048.277
782.698;14510.562;  -11.284;23438.555
783.267;15605.428;  -11.684;23267.734
783.836;14595.002;  -10.974;22415.133
784.404;13242.759;  -13.534;20443.152
784.973;13113.171;  -16.734;19699.150
785.542;13119.396;  -12.594;19763.828
786.111;12917.552;  -11.644;20341.408
786.679;13587.427;  -11.384;20207.967
787.248;14479.117;  -12.014;19516.465
787.817;13538.889;  -12.804;18900.363
788.385;12420.201;  -11.994;17879.121
788.954;12460.458;  -12.564;17658.301
789.522;13720.079;  -12.225;17788.879
790.090;13851.703;  -13.775;18118.277
790.659;12792.334;  -12.485;18338.736
791.227;12259.239;  -12.295;18508.615
791.795;12322.723;  -13.415;17898.254
792.364;11766.461;  -12.995;17295.133
792.932;11293.158;   -8.365;16822.051
793.500;11461.892;  -11.925;17040.148
794.068;11654.400;  -13.245;17179.787
794.636;11719.912;  -13.815;16664.246
795.204;11192.194;  -13.375;16524.545
795.772;11147.958;  -12.125;17274.564
796.340;11499.677;  -13.855;17891.002
796.908;11745.185;  -13.456;17648.561
797.476;11238.522;  -13.116;17064.080
798.044;10831.038;  -13.226;16672.777
798.612;11568.749;  -11.236;17023.996
799.180;12519.644;  -10.476;16561.615
799.747;12601.008;  -11.746;15962.773
800.315;11665.967;  -12.366;15296.992
800.883;10703.085;  -14.616;14801.771
801.450;10297.286;  -11.996;14534.430
802.018;10855.639;  -11.206;14173.248
802.585;10418.075;  -12.466;14029.547
803.153; 9428.974;  -12.846;13836.846
803.720; 9111.825;  -12.136;13567.324
804.287; 9073.391;  -10.966;13360.622
804.855; 9445.652;   -9.797;13681.981
805.422; 9376.299;  -13.037;13536.560
805.989; 9029.870;  -12.697;13355.958
806.556; 9237.752;  -11.737;13747.896
807.124; 9584.299;  -11.997;13987.376
807.691; 9127.437;  -13.997;14038.674
808.258; 8926.728;  -10.927;14120.152
808.825; 9483.654;  -13.727;13860.111
809.392; 9987.048;  -11.847;13268.790
809.959; 9298.280;  -14.217;12680.389
810.526; 8386.620;   -8.277;12427.308
811.093; 8239.715;   -9.647;12030.105
811.659; 8135.736;  -10.987;11653.664
812.226; 7661.915;  -13.447;11637.183
812.793; 7704.579;  -14.418;11611.521
813.360; 8169.156;  -13.908;11885.181
813.926; 8267.714;  -12.918;12770.539
814.493; 8141.811;  -14.888;12677.638
815.060; 8179.826;  -12.758;11974.336
815.626; 8418.204;  -13.478;11594.715
816.193; 8432.275;  -13.898;11579.474
816.759; 8258.168;  -13.588;11666.972
817.325; 8261.245;  -12.018;11325.530
817.892; 7837.520;  -14.068;11105.369
818.458; 7060.844;  -13.458;10843.928
819.024; 6722.128;  -11.968;10714.406
819.591; 6377.049;  -11.028;10469.165
820.157; 6107.240;  -12.088;10235.523
820.723; 5968.769;  -12.599;10847.563
821.289; 6242.277;  -10.419;11040.980
821.855; 7005.594;  -10.939;10357.100
822.421; 7594.843;  -12.539; 9978.918
822.987; 7449.550;  -13.259; 9754.177
823.553; 6734.607;  -15.369;10065.755
824.119; 6418.486;  -10.779;10036.294
824.685; 5940.559;   -9.999;10029.192
825.251; 5546.152;  -11.819;10199.230
825.816; 5333.610;  -13.369; 9820.189
826.382; 5508.591;  -12.679; 9297.248
826.948; 5769.904;  -11.199; 9381.347
827.513; 5599.792;  -11.179; 9450.726
828.079; 5522.840;  -13.489; 9472.444
828.645; 5791.505;  -12.500; 9292.643
829.210; 6050.468;  -15.120; 9065.341
829.776; 5917.045;  -12.590; 9132.620
830.341; 5710.713;  -11.540; 9092.878
830.906; 5685.571;  -12.400; 9078.557
831.472; 5553.117;  -12.720; 8534.535
832.037; 5091.089;  -11.490; 8677.874
832.602; 4606.792;  -14.380; 8628.692
833.167; 4772.376;  -12.780; 8879.031
833.733; 5040.679;  -11.100; 9189.790
834.298; 5277.649;  -12.080; 9052.608
834.863; 5236.649;  -13.910; 8895.087
835.428; 4948.490;  -13.470; 8824.266
835.993; 5213.412;  -11.760; 8845.385
836.558; 5658.754;  -12.731; 8888.563
837.123; 5805.618;  -12.431; 8966.582
837.688; 5596.638;  -11.241; 8617.860
838.253; 5253.381;  -13.681; 8590.699
838.817; 4961.845;  -12.531; 8443.797
839.382; 5098.833;  -12.671; 8799.356
839.947; 5051.685;  -11.541; 8810.595
840.511; 4851.580;  -12.021; 8796.394
841.076; 4832.972;  -13.071; 8347.231
841.641; 4740.015;  -11.411; 8224.330
842.205; 4593.629;  -13.671; 8223.349
842.770; 4594.026;  -11.291; 8622.107
843.334; 4696.644;  -12.951; 8410.386
843.898; 4749.396;  -11.221; 8337.465
844.463; 4696.969;  -11.322; 8506.283
845.027; 4462.346;  -11.412; 8280.962
845.591; 4162.909;  -11.512; 8231.141
846.156; 4244.668;  -14.042; 7969.179
846.720; 4469.324;  -12.152; 7768.278
847.284; 4502.759;  -10.922; 7630.957
847.848; 4265.597;  -10.962; 7472.395
848.412; 3957.193;  -14.612; 7437.394
848.976; 3937.147;  -11.492; 7674.592
849.540; 3986.820;   -9.172; 7836.011
850.104; 4350.758;  -11.232; 7913.669
850.668; 4708.551;  -15.182; 7694.508
851.232; 4393.195;  -15.332; 7756.887
851.796; 4114.725;  -13.703; 7926.545
852.359; 4173.056;  -11.113; 7827.844
852.923; 4101.811;  -11.843; 7641.163
853.487; 3951.985;  -11.173; 7342.501
854.050; 3752.816;  -13.443; 7042.820
854.614; 3616.225;  -13.823; 7151.338
855.177; 3677.996;  -16.393; 7105.077
855.741; 3773.687;  -11.693; 6989.675
856.304; 3751.659;  -10.843; 6596.634
856.868; 3628.729;  -13.783; 6356.272
857.431; 3387.846;  -11.953; 6468.571
857.995; 3236.019;  -13.683; 6373.210
858.558; 3226.862;  -11.433; 6324.448
859.121; 3216.371;  -12.493; 6408.327
859.684; 3256.425;  -12.384; 6347.886
860.247; 3263.764;  -14.774; 6321.264
860.810; 3109.937;  -13.154; 6301.903
861.374; 2977.958;  -11.264; 6607.881
861.937; 2923.758;  -15.424; 6408.200
862.500; 2946.580;  -12.854; 6572.639
863.062; 2985.741;  -12.344; 6387.297
863.625; 2979.496;  -13.314; 6190.836
864.188; 2825.560;  -14.724; 5807.254
864.751; 2757.266;  -13.464; 5682.413
865.314; 2756.837;  -11.684; 5547.492
865.876; 2846.305;  -11.104; 5500.150
866.439; 2981.433;  -12.344; 5415.909
867.002; 2980.503;  -13.494; 5501.567
867.564; 2965.080;  -10.935; 5413.946
868.127; 2823.694;  -12.665; 5160.325
868.689; 2648.213;  -14.515; 5133.183
869.252; 2666.284;  -13.425; 5252.382
869.814; 2726.666;  -11.595; 5297.141
870.377; 2752.483;  -12.175; 5390.919
870.939; 2643.912;  -10.265; 5599.898
871.501; 2550.648;  -12.375; 5248.336
872.063; 2510.645;  -14.355; 4854.235
872.626; 2539.264;  -14.435; 4817.074
873.188; 2453.129;  -12.415; 4987.732
873.750; 2393.152;  -14.555; 4868.651
874.312; 2431.282;  -11.185; 4779.330
874.874; 2407.521;  -12.715; 4866.348
875.436; 2268.672;  -13.196; 4718.887
875.998; 2150.866;  -11.426; 4660.005
876.560; 2065.554;   -9.786; 4462.964
877.122; 2031.119;  -12.796; 4145.042
877.683; 1962.485;  -13.226; 4056.481
878.245; 1844.597;  -12.036; 3950.740
878.807; 1752.115;  -11.536; 4058.958
879.369; 1757.570;  -10.806; 3954.677
879.930; 1880.341;  -13.946; 3941.495
880.492; 1977.211;  -11.876; 4067.014
881.053; 1868.568;  -13.216; 3859.633
881.615; 1738.084;  -12.226; 3776.071
882.176; 1677.876;  -12.946; 3734.750
882.738; 1662.966;  -10.736; 3678.489
883.299; 1609.210;  -12.057; 3405.407
883.860; 1506.368;  -12.677; 3351.106
884.422; 1449.574;  -14.097; 3394.044
884.983; 1394.382;  -13.667; 3166.443
885.544; 1324.421;  -10.717; 3189.802
886.105; 1258.247;  -14.357; 3160.360
886.666; 1186.943;  -14.287; 3093.059
887.227; 1115.036;  -14.297; 2941.957
887.788; 1062.051;  -13.137; 2974.836
888.349;  992.144;  -14.637; 2721.214
888.910;  925.852;  -12.247; 2696.493
889.471;  927.308;  -10.577; 2560.172
890.032;  935.022;  -12.937; 2558.190
890.593;  927.450;  -12.487; 2567.669
891.153;  905.563;  -11.898; 2460.307
891.714;  871.256;  -14.278; 2372.046
892.275;  846.385;  -13.308; 2309.505
892.835;  793.133;  -12.058; 2382.543
893.396;  704.703;  -15.268; 2295.502
893.956;  652.526;  -13.278; 2162.420
894.517;  629.394;  -11.968; 2125.439
895.077;  632.047;  -12.798; 2086.978
895.638;  608.461;  -11.908; 2126.316
896.198;  582.071;  -13.288; 1838.275
896.758;  554.967;  -12.198; 1892.813
897.319;  522.761;  -13.048; 1792.232
897.879;  488.562;  -13.718; 1762.751
898.439;  447.840;  -14.138; 1661.149
898.999;  412.780;  -13.659; 1781.468
899.559;  396.138;  -14.699; 1703.347
900.119;  379.779;  -14.339; 1537.525
900.679;  354.248;  -11.789; 1638.384
901.239;  326.169;  -13.629; 1527.902
901.799;  305.609;  -13.679; 1456.441
902.359;  293.434;  -13.679; 1357.140
902.919;  285.762;  -14.159; 1331.118
903.479;  271.711;  -13.419; 1317.257
904.038;  255.458;  -14.899; 1262.595
904.598;  240.989;  -14.339; 1152.034
905.158;  231.736;  -13.959; 1240.893
905.717;  224.857;  -12.749; 1233.691
906.277;  220.941;  -11.889; 1217.330
906.836;  214.231;  -12.870; 1222.408
907.396;  209.990;  -11.790; 1193.047
907.955;  202.307;  -13.750; 1182.526
908.515;  192.887;  -14.760; 1099.364
909.074;  187.274;  -12.540; 1092.863
909.633;  183.116;  -12.120; 1069.121
910.192;  177.285;  -12.550; 1196.460
910.752;  171.235;  -12.760; 1029.960
911.311;  167.511;  -14.750; 1009.780
911.870;  165.512;  -13.860;  971.460
912.429;  165.279;  -13.480; 1094.080
912.988;  164.562;  -12.370; 1081.060
913.547;  161.269;  -14.670;  940.380
914.106;  159.868;  -12.800;  999.420
914.665;  157.892;  -11.370;  984.020
915.224;  155.791;  -11.430; 1035.760
915.782;  152.533;  -12.260;  922.560
916.341;  151.755;  -12.540; 1049.840
916.900;  149.824;  -12.540;  925.260
917.458;  146.707;  -13.480;  884.220
918.017;  146.201;  -12.470;  942.600
918.576;  147.320;  -13.450;  904.440
919.134;  144.997;  -12.890;  837.980
919.693;  143.541;  -15.480;  893.060
920.251;  142.476;  -14.420;  876.500
920.809;  141.614;  -12.170;  839.580
921.368;  140.452;  -13.650;  885.360
921.926;  138.277;  -12.750;  842.940
922.484;  137.994;  -14.150;  903.360
923.042;  137.759;  -15.100;  880.340
923.601;  140.069;  -10.990;  998.680
924.159;  139.911;  -12.470;  935.560
924.717;  139.690;  -15.640;  841.080
925.275;  141.281;  -12.380;  903.240
925.833;  141.255;  -12.710;  779.320
926.391;  144.263;  -11.200;  938.380
926.949;  144.476;  -16.000;  857.680
927.506;  145.842;  -12.260;  903.500
928.064;  147.061;  -11.300;  877.580
928.622;  146.747;  -13.750;  880.100
929.180;  146.287;  -15.290;  814.180
929.737;  147.944;  -14.500;  808.540
930.295;  149.972;  -10.630;  928.480
930.853;  150.466;  -14.590;  849.100
931.410;  151.686;  -14.450;  821.120
931.968;  154.558;  -14.390;  940.660
932.525;  156.292;  -13.050;  909.380
933.082;  159.121;  -15.620;  811.440
933.640;  167.473;  -15.650;  925.900
934.197;  172.199;  -13.610;  886.360
934.754;  175.324;  -13.320;  897.780
935.312;  174.607;  -13.370;  863.340
935.869;  177.880;  -12.780; 1012.980
936.426;  179.101;  -14.480;  872.800
936.983;  181.851;  -13.180;  889.020
937.540;  182.540;  -15.710;  838.280
938.097;  182.798;  -14.980;  940.120
938.654;  181.743;  -13.060;  898.860
939.211;  179.953;  -12.760;  952.480
939.768;  179.461;  -16.230;  915.420
940.324;  185.074;  -10.940;  904.200
940.881;  191.009;  -12.570;  878.500
941.438;  195.167;  -13.650; 1021.200
941.995;  190.847;  -13.300;  992.560
942.551;  191.415;  -15.800;  875.620
943.108;  191.273;  -14.180;  937.920
943.664;  183.682;  -13.890;  869.340
944.221;  182.602;  -12.640; 1088.140
944.777;  182.632;  -14.700;  869.680
945.334;  185.797;  -13.010;  884.840
945.890;  185.161;  -13.480;  946.480
946.446;  183.733;  -14.920;  947.020
947.003;  184.637;  -13.860;  964.940
947.559;  185.144;  -12.000; 1063.040
948.115;  182.539;  -10.510; 1026.540
948.671;  179.911;  -12.760;  967.300
949.227;  177.930;  -15.390;  859.560
949.783;  174.266;  -15.570;  858.900
950.339;  174.349;  -12.800;  991.000
950.895;  172.242;  -13.780; 1023.840
951.451;  168.469;  -13.810;  925.280
952.007;  167.827;  -12.390;  998.540
952.563;  166.613;  -11.980;  937.780
953.118;  162.360;  -14.070;  904.940
953.674;  161.260;  -14.140;  935.780
954.230;  161.979;  -12.680;  949.640
954.785;  164.494;  -12.770;  936.640
955.341;  163.506;  -11.450;  998.160
955.897;  158.127;  -15.350;  834.660
956.452;  157.935;  -14.200;  953.840
957.008;  157.757;  -10.820; 1083.640
957.563;  152.913;  -13.200; 1009.540
958.118;  148.049;  -14.460;  877.700
958.674;  148.169;  -13.840;  946.780
959.229;  148.420;  -10.670; 1013.980
959.784;  145.973;  -17.040;  832.400
960.339;  142.560;  -12.970; 1001.280
960.894;  136.028;  -12.700;  963.760
961.449;  126.582;  -13.790;  859.960
962.004;  121.985;  -11.760; 1212.840
962.559;  113.038;  -14.840;  860.140
963.114;  109.392;  -14.530;  742.480
963.669;  111.091;  -12.780;  915.500
964.224;  115.288;  -14.330;  874.340
964.779;  118.859;  -14.380;  828.420
965.334;  122.437;  -12.460; 1017.860
965.888;  122.739;  -13.490;  875.360
966.443;  124.220;  -14.140;  972.380
966.998;  121.758;  -16.240;  819.460
967.552;  120.052;  -12.730;  908.380
968.107;  117.886;  -14.510;  868.300
968.661;  118.587;  -11.850;  922.440
969.216;  118.229;  -14.370;  856.280
969.770;  118.752;  -13.010;  917.200
970.324;  118.136;  -12.460;  923.140
970.879;  119.050;  -11.580;  947.180
971.433;  117.923;  -13.130;  952.720
971.987;  116.154;  -12.360;  895.340
972.541;  116.575;  -14.330;  917.100
973.095;  116.930;  -13.310; 1009.460
973.649;  115.461;  -15.830;  809.480
974.203;  117.381;  -15.830;  829.040
974.757;  121.736;  -13.480;  855.220
975.311;  120.330;  -13.720;  872.600
975.865;  117.064;  -15.780;  881.820
976.419;  114.770;  -14.290;  857.400
976.973;  113.289;  -13.210;  849.620
977.526;  111.918;  -12.300;  949.920
978.080;  107.151;  -14.840;  796.780
978.634;  108.343;  -13.100;  921.320
979.187;  104.609;  -12.300;  905.400
979.741;  102.501;  -12.020; 1018.380
980.294;   96.476;  -14.590;  789.160
980.848;   94.379;  -14.390;  717.220
981.401;   94.849;  -14.280;  816.540
981.955;   94.520;  -11.920;  844.300
982.508;   92.287;  -15.790;  746.340
983.061;   92.145;  -12.070;  915.260
983.615;   89.819;  -13.260;  798.800
984.168;   86.960;  -15.540;  770.080
984.721;   86.789;  -13.230;  880.760
985.274;   86.271;  -11.820;  867.500
985.827;   83.795;  -13.510;  834.220
986.380;   80.304;  -14.840;  721.340
986.933;   79.664;  -13.970;  864.800
987.486;   79.793;  -12.450;  861.920
988.039;   77.339;  -11.170;  863.100
988.591;   74.748;  -13.070;  893.260
989.144;   71.207;  -15.530;  737.260
989.697;   69.930;  -14.300;  758.740
990.250;   69.825;  -13.310;  858.100
990.802;   67.944;  -14.490;  755.860
991.355;   69.793;  -12.980;  974.880
991.907;   67.859;  -13.715;  864.320
992.460;   65.925;  -14.450;  753.760
993.012;   64.612;  -12.590;  749.540
993.565;   63.400;  -15.180;  711.360
994.117;   65.148;  -11.630;  950.780
994.669;   61.178;  -13.760;  701.320
995.221;   59.836;  -12.710;  791.920
995.774;   59.475;  -14.620;  787.580
996.326;   59.071;  -13.150;  740.220
996.878;   59.986;  -12.880;  838.420
997.430;   57.520;  -14.580;  699.860
997.982;   56.295;  -14.030;  750.140
998.534;   56.745;  -12.190;  739.060
999.086;   55.199;  -12.990;  738.220
999.638;   53.630;  -13.180;  661.380
1000.190;   52.741;  -14.970;  699.320
1000.741;   53.300;  -12.200;  742.700
1001.293;   52.262;  -13.400;  686.020
1001.845;   51.301;  -14.490;  676.640
1002.396;   52.593;  -15.280;  743.400
1002.948;   51.823;  -12.380;  737.400
1003.500;   50.519;  -13.260;  723.780
1004.051;   52.083;  -13.730;  907.580
1004.603;   51.143;  -12.300;  791.820
1005.154;   47.173;  -15.330;  608.980
1005.705;   46.628;  -12.800;  723.960
1006.257;   45.621;  -13.900;  707.220
1006.808;   44.390;  -14.430;  685.460
1007.359;   44.604;  -12.010;  763.240
1007.910;   42.917;  -12.690;  646.640
1008.461;   42.227;  -13.610;  732.940
1009.013;   40.842;  -14.990;  588.340
1009.564;   42.419;  -11.860;  793.520
1010.115;   40.212;  -12.640;  597.040
1010.665;   39.281;  -14.570;  602.160
1011.216;   39.741;  -15.190;  667.920
1011.767;   39.343;  -13.470;  697.920
1012.318;   39.276;  -13.760;  736.980
1012.869;   38.313;  -15.950;  679.000
1013.419;   37.942;  -15.880;  603.120
1013.970;   37.720;  -14.540;  666.640
1014.521;   37.293;  -13.220;  620.620
1015.071;   37.477;  -15.020;  670.380
1015.622;   37.134;  -17.510;  635.460
1016.172;   36.716;  -14.130;  596.820
1016.723;   36.162;  -14.220;  614.380
1017.273;   35.770;  -15.370;  604.160
1017.823;   37.207;  -15.290;  650.340
1018.374;   36.014;  -13.420;  611.760
1018.924;   35.845;  -11.740;  716.880
1019.474;   35.754;  -12.250;  718.880
1020.024;   34.336;  -15.850;  657.580
1020.574;   35.103;  -13.280;  726.160
1021.124;   35.006;  -13.560;  673.580
1021.674;   32.978;  -13.790;  559.120
1022.224;   34.507;  -14.610;  708.940
1022.774;   34.057;  -13.100;  668.820
1023.324;   34.210;  -11.470;  753.520
1023.874;   36.247;  -11.990;  875.760
1024.423;   33.355;  -14.550;  613.700
1024.973;   32.468;  -14.440;  610.760
1025.523;   32.117;  -13.250;  620.960
1026.072;   31.984;  -15.200;  606.420
1026.622;   32.062;  -14.590;  675.740
1027.172;   32.693;  -11.080;  715.660
1027.721;   30.890;  -14.010;  601.220
1028.270;   31.689;  -13.690;  663.400
1028.820;   31.327;  -15.380;  638.080
1029.369;   31.058;  -14.980;  612.700
1029.918;   31.377;  -13.100;  649.840
1030.468;   29.976;  -13.680;  564.780
1031.017;   30.973;  -13.770;  634.800
1031.566;   29.931;  -14.100;  608.900
1032.115;   30.498;  -11.770;  694.500
1032.664;   28.946;  -14.940;  596.480
1033.213;   30.186;  -13.370;  735.420
1033.762;   28.892;  -13.660;  635.620
1034.311;   29.210;  -13.650;  677.220
1034.860;   29.223;  -13.820;  691.000
1035.408;   29.406;  -12.860;  722.720
1035.957;   30.098;  -13.060;  719.540
1036.506;   26.868;  -14.510;  530.800
1037.055;   30.786;  -13.470;  844.320
1037.603;   27.826;  -14.800;  664.000
1038.152;   26.509;  -14.190;  534.760
1038.700;   27.444;  -11.810;  585.740
1039.249;   26.624;  -12.850;  681.220
1039.797;   26.538;  -14.610;  633.360
1040.345;   27.655;  -15.220;  705.420
1040.894;   27.290;  -13.480;  625.300
1041.442;   26.012;  -13.310;  632.200
1041.990;   25.718;  -14.510;  559.160
1042.538;   25.161;  -15.700;  536.180
1043.087;   25.829;  -13.910;  570.860
1043.635;   27.038;  -13.620;  670.500
1044.183;   25.108;  -14.230;  586.400
1044.731;   25.495;  -13.730;  576.000
1045.279;   25.195;  -13.970;  674.920
1045.827;   27.358;  -10.750;  892.400
1046.374;   23.678;  -15.230;  515.420
1046.922;   23.475;  -15.390;  590.580
1047.470;   25.446;  -12.320;  691.300
1048.018;   25.066;  -13.230;  647.960
1048.565;   25.753;  -13.390;  708.600
1049.113;   23.556;  -15.030;  557.000
1049.660;   23.320;  -12.540;  629.660
1050.208;   24.125;  -15.040;  675.640
1050.755;   23.100;  -14.680;  606.580
1051.303;   23.564;  -13.610;  686.820
1051.850;   23.467;  -14.340;  635.120
1052.397;   21.299;  -16.330;  473.960
1052.945;   22.402;  -15.710;  617.760
1053.492;   23.544;  -12.320;  741.840
1054.039;   23.851;  -13.730;  720.180
1054.586;   21.701;  -16.140;  557.240
1055.133;   22.467;  -14.020;  693.140
1055.680;   22.776;  -13.430;  646.620
1056.227;   21.571;  -14.570;  542.780
1056.774;   23.584;  -14.400;  794.980
1057.321;   20.985;  -14.230;  523.260
1057.868;   21.970;  -14.220;  651.320
1058.415;   22.027;  -14.060;  651.980
1058.961;   20.616;  -14.640;  678.940
1059.508;   21.506;  -13.970;  643.820
1060.055;   20.468;  -15.100;  581.780
1060.601;   20.952;  -12.180;  624.300
1061.148;   20.564;  -15.010;  616.820
1061.694;   19.760;  -14.750;  592.580
1062.241;   21.006;  -14.130;  596.320
1062.787;   21.138;  -14.770;  663.140
1063.334;   22.458;  -13.130;  808.560
1063.880;   20.220;  -14.420;  668.360
1064.426;   21.173;  -13.130;  706.820
1064.972;   18.964;  -13.960;  601.340
1065.518;   17.931;  -13.680;  566.640
1066.065;   19.534;  -15.720;  624.460
1066.611;   18.089;  -13.970;  598.800
1067.157;   20.219;  -13.920;  641.860
1067.703;   19.051;  -14.760;  668.480
1068.249;   18.898;  -14.490;  605.220
1068.794;   18.815;  -14.740;  626.880
1069.340;   17.421;  -13.220;  578.960
1069.886;   18.493;  -14.930;  590.700
1070.432;   17.633;  -14.700;  541.720
1070.977;   17.345;  -14.470;  601.080
1071.523;   17.822;  -14.330;  573.060
1072.068;   18.349;  -14.960;  582.000
1072.614;   17.436;  -16.220;  527.760
1073.160;   18.508;  -11.280;  687.040
1073.705;   16.806;  -15.990;  572.520
1074.250;   16.690;  -16.550;  559.900
1074.796;   17.740;  -14.600;  655.160
1075.341;   18.218;  -13.440;  664.100
1075.886;   16.854;  -14.450;  594.240
1076.431;   16.945;  -13.160;  649.880
1076.976;   16.440;  -14.710;  639.220
1077.521;   16.045;  -14.000;  583.080
1078.067;   15.811;  -14.470;  579.400
1078.612;   16.361;  -14.530;  661.620
1079.156;   15.426;  -15.660;  601.540
1079.701;   17.003;  -16.120;  693.260
1080.246;   16.845;  -12.960;  696.300
1080.791;   16.522;  -13.700;  625.020
1081.336;   16.328;  -15.540;  659.320
1081.880;   16.055;  -14.640;  649.680
1082.425;   14.936;  -14.220;  573.480
1082.970;   17.568;  -11.890;  717.040
1083.514;   15.145;  -13.820;  597.000
1084.059;   14.646;  -14.280;  586.720
1084.603;   14.067;  -12.890;  565.840
1085.147;   15.244;  -13.590;  645.220
1085.692;   15.875;  -14.050;  716.800
1086.236;   13.166;  -14.990;  503.140
1086.780;   16.304;  -12.640;  751.440
1087.325;   14.994;  -15.550;  654.620
1087.869;   14.546;  -14.980;  610.700
1088.413;   15.315;  -13.440;  705.040
1088.957;   12.970;  -12.170;  543.400
1089.501;   15.539;  -12.730;  766.640
1090.045;   14.558;  -14.650;  726.480
1090.589;   12.267;  -14.500;  569.920
1091.133;   13.873;  -12.320;  673.340
1091.676;   13.992;  -16.130;  591.940
1092.220;   13.258;  -13.930;  600.920
1092.764;   13.782;  -12.820;  706.960
1093.307;   13.037;  -11.700;  673.780
1093.851;   12.290;  -15.600;  556.540
1094.395;   12.886;  -13.920;  683.140
1094.938;   12.818;  -16.090;  632.520
1095.482;   12.360;  -13.820;  559.800
1096.025;   13.440;  -12.720;  710.880
1096.568;   13.795;  -12.100;  779.280
1097.112;    9.989;  -15.450;  508.180
1097.655;   12.847;  -14.310;  603.000
1098.198;   10.929;  -14.740;  600.180
1098.741;   11.068;  -15.550;  612.860
1099.285;   12.639;  -12.600;  657.300
1099.828;    9.392;  -15.050;  439.400
1100.371;   11.263;  -14.800;  608.160
1100.914;   11.980;  -16.480;  682.660
1101.457;   12.053;  -12.990;  679.900
1101.999;    9.737;  -14.110;  584.680
1102.542;   11.103;  -11.450;  641.440
1103.085;   10.932;  -13.350;  658.500
1103.628;   12.068;  -13.200;  762.060
1104.170;   10.117;  -12.310;  588.280
1104.713;   11.135;  -14.320;  646.700
1105.256;    9.165;  -16.110;  557.440
1105.798;    9.774;  -15.910;  499.980
1106.341;   11.266;  -12.200;  728.900
1106.883;   10.213;  -14.910;  521.340
1107.425;   10.458;  -14.960;  668.180
1107.968;   10.062;  -13.440;  612.380
1108.510;   11.497;  -14.010;  684.960
1109.052;    8.229;  -15.430;  612.620
1109.594;    9.289;  -15.290;  554.440
1110.136;    9.906;  -13.360;  643.220
1110.679;    8.737;  -13.820;  633.080
1111.221;   10.146;  -13.690;  604.460
1111.763;    8.317;  -14.890;  559.220
1112.304;    8.325;  -14.550;  547.140
1112.846;    9.187;  -12.760;  666.240
1113.388;   12.049;  -10.780;  942.180
1113.930;    8.886;  -12.690;  694.200
1114.472;    8.737;  -15.730;  606.540
1115.013;    7.355;  -14.620;  551.280
1115.555;    7.069;  -14.950;  587.100
1116.097;    7.164;  -16.460;  579.480
1116.638;    8.465;  -13.730;  684.600
1117.180;    9.023;  -13.810;  667.740
1117.721;    7.499;  -13.280;  568.580
1118.262;    8.497;  -15.080;  677.960
1118.804;    8.288;  -14.040;  637.340
1119.345;    7.430;  -15.430;  578.400
1119.886;    8.244;  -15.240;  704.040
1120.427;    7.360;  -15.820;  589.020
1120.969;    7.233;  -14.550;  597.920
1121.510;    6.771;  -14.030;  563.060
1122.051;    8.139;  -11.990;  723.580
1122.592;    6.752;  -16.490;  655.420
1123.133;    5.673;  -15.580;  547.940
1123.673;    7.307;  -12.850;  706.480
1124.214;    6.726;  -13.630;  612.460
1124.755;    7.163;  -14.830;  639.460
1125.296;    6.774;  -13.110;  627.320
1125.836;    7.897;  -11.320;  691.500
1126.377;    6.490;  -14.330;  599.660
1126.918;    6.998;  -12.800;  614.980
1127.458;    5.531;  -13.580;  622.220
1127.999;    7.127;  -10.330;  656.980
1128.539;    6.976;  -13.390;  694.240
1129.079;    5.648;  -16.420;  632.720
1129.620;    5.205;  -15.700;  558.100
1130.160;    4.782;  -14.790;  539.480
1130.700;    5.601;  -12.910;  640.840
1131.240;    6.359;  -15.610;  643.700
1131.781;    5.111;  -12.920;  619.680
1132.321;    5.548;  -15.300;  599.120
1132.861;    4.619;  -14.760;  564.200
1133.401;    4.617;  -15.470;  593.940
1133.941;    5.925;  -13.710;  626.280
1134.481;    4.567;  -11.820;  597.580
1135.020;    4.536;  -14.810;  609.160
1135.560;    4.986;  -13.660;  674.940
1136.100;    3.818;  -13.940;  501.160
1136.640;    3.570;  -15.410;  510.480
1137.179;    3.633;  -16.920;  537.960
1137.719;    4.449;  -16.430;  605.400
1138.258;    4.493;  -16.300;  587.360
1138.798;    5.044;  -13.710;  663.780
1139.337;    3.000;  -13.840;  482.840
1139.877;    4.185;  -16.140;  642.360
1140.416;    7.226;  -11.410;  878.060
1140.955;    3.503;  -12.820;  535.380
1141.494;    4.608;  -12.310;  669.280
1142.034;    3.012;  -16.280;  583.520
1142.573;    4.215;  -13.090;  646.280
1143.112;    3.566;  -13.770;  553.480
1143.651;    3.641;  -15.830;  536.480
1144.190;    4.371;  -15.010;  691.640
1144.729;    3.242;  -13.650;  607.420
1145.267;    3.718;  -13.670;  584.900
1145.806;    4.479;  -13.630;  637.040
1146.345;    2.842;  -14.160;  635.020
1146.884;    2.997;  -11.180;  622.500
1147.422;    3.341;  -15.890;  533.060
1147.961;    4.135;  -12.760;  708.460
1148.500;    3.186;  -15.220;  669.720
1149.038;    3.923;  -13.720;  632.500
1149.577;    3.011;  -13.250;  698.640
1150.115;    0.949;  -16.790;  452.280
1150.653;    2.143;  -15.810;  607.340
1151.192;    2.829;  -14.730;  552.920
1151.730;    2.848;  -13.660;  652.560
1152.268;    2.256;  -15.120;  589.520
1152.806;    1.609;  -15.580;  571.180
1153.344;    1.281;  -16.210;  577.640
1153.882;    2.832;  -12.810;  600.060
1154.421;    0.216;  -14.150;  470.620
1154.958;    2.360;  -15.360;  595.240
1155.496;    2.859;  -14.710;  645.280
1156.034;    1.994;  -13.640;  721.880
1156.572;    2.380;  -13.740;  667.060
1157.110;    0.065;  -16.960;  473.940
1157.647;    3.124;  -11.940;  676.960
1158.185;    0.688;  -14.090;  564.320
1158.723;    0.597;  -13.610;  509.200
1159.260;    2.166;  -14.760;  701.700
1159.798;    2.325;  -13.700;  658.160
1160.335;    1.795;  -13.820;  631.820

