
Integration time [ms]:   3.882
Averaging Nr. [scans]: 1000
Smoothing Nr. [pixels]: 0
Data measured with spectrometer [name]: 7414430SP
Wave   ;Sample   ;Dark     ;Reference
[nm]   ;[counts] ;[counts] ;[counts] 

288.544;  127.454;   10.292;  793.890
289.143;  129.527;    4.564;  681.602
289.742;  131.419;    6.144;  828.814
290.341;  119.072;    4.396;  789.841
290.940;  110.111;    0.938;  730.702
291.538;  111.231;   -0.684;  881.108
292.137;  109.138;   -2.845;  792.581
292.736;  113.162;   -0.144;  975.101
293.335;  108.716;   -6.352;  735.086
293.934;  109.094;   -7.642;  781.677
294.532;  109.800;   -4.992; 1031.958
295.131;   96.784;   -5.478;  834.394
295.730;   96.443;   -6.549;  809.588
296.328;   94.609;   -9.558;  783.442
296.927;   94.264;   -8.118;  779.652
297.525;   95.267;   -6.908;  781.236
298.124;   86.441;   -9.195;  654.009
298.722;   91.110;   -8.198;  761.933
299.321;   89.322;   -8.817;  708.597
299.919;   86.289;   -7.716;  751.918
300.518;   83.214;  -10.745;  689.338
301.116;   83.687;   -9.647;  691.381
301.715;   85.034;  -10.828;  730.222
302.313;   84.499;   -6.087;  704.943
302.911;   79.245;   -6.824;  733.830
303.509;   85.010;   -8.807;  925.627
304.108;   81.331;   -8.198;  760.383
304.706;   81.974;   -6.218;  801.664
305.304;   77.302;   -7.185;  796.707
305.902;   82.860;   -8.568;  784.484
306.500;   77.432;   -7.737;  728.200
307.098;   76.957;   -6.026;  746.560
307.696;   74.924;   -7.176;  780.432
308.294;   74.726;   -8.656;  731.359
308.892;   77.570;   -6.838;  759.769
309.490;   73.333;   -2.596;  712.161
310.088;   71.353;   -4.485;  788.444
310.686;   76.267;   -3.907;  821.749
311.284;   72.142;   -2.806;  766.040
311.882;   70.166;   -2.845;  731.225
312.480;   67.092;   -3.274;  697.167
313.078;   68.911;   -3.645;  808.331
313.675;   70.063;   -4.997;  691.600
314.273;   65.345;   -0.894;  797.837
314.871;   63.862;   -2.854;  589.829
315.468;   62.154;   -3.644;  652.090
316.066;   65.891;   -3.947;  694.427
316.664;   58.215;   -1.824;  656.351
317.261;   63.555;    1.565;  910.128
317.859;   58.639;   -3.955;  768.735
318.456;   60.114;   -2.886;  830.096
319.054;   55.418;   -0.995;  787.828
319.651;   55.064;   -1.765;  759.928
320.249;   54.224;   -3.685;  810.188
320.846;   51.907;   -3.736;  714.286
321.443;   50.213;   -2.065;  832.135
322.041;   47.730;   -5.635;  812.315
322.638;   45.665;   -5.985;  701.456
323.235;   47.973;   -6.677;  665.683
323.833;   45.062;   -3.497;  740.354
324.430;   41.602;   -6.756;  615.900
325.027;   43.243;   -7.647;  876.855
325.624;   43.265;   -7.598;  644.532
326.221;   40.514;   -5.848;  689.717
326.818;   40.903;   -5.777;  818.332
327.415;   43.064;   -8.769;  748.828
328.012;   42.604;   -6.299;  690.585
328.609;   41.177;   -6.639;  731.389
329.206;   38.634;   -6.358;  778.621
329.803;   37.661;   -8.698;  737.841
330.400;   39.798;   -8.379;  704.260
330.997;   40.413;   -6.178;  817.147
331.594;   38.374;   -5.646;  788.185
332.191;   41.776;   -6.928;  728.722
332.787;   43.386;   -6.057;  844.463
333.384;   42.622;   -6.445;  763.093
333.981;   39.829;   -8.002;  815.687
334.578;   41.857;   -8.443;  708.378
335.174;   43.760;   -6.053;  731.469
335.771;   43.444;   -5.791;  836.456
336.367;   40.472;   -6.570;  710.631
336.964;   43.514;   -6.741;  793.266
337.561;   41.956;   -5.710;  731.112
338.157;   39.334;   -3.928;  911.916
338.754;   36.260;   -5.577;  796.589
339.350;   34.134;   -9.667;  722.493
339.946;   38.540;   -5.269;  773.135
340.543;   30.444;   -4.485;  846.136
341.139;   25.483;   -7.584;  720.836
341.735;   23.296;   -8.553;  772.593
342.332;   23.484;   -4.984;  691.472
342.928;   23.307;   -3.475;  795.394
343.524;   17.475;   -6.653;  761.684
344.120;   15.765;   -7.173;  738.562
344.716;   18.915;   -4.385;  723.717
345.313;   16.046;   -3.565;  795.342
345.909;   12.379;   -7.495;  627.336
346.505;   13.887;   -8.276;  740.247
347.101;   15.435;   -5.697;  827.864
347.697;   15.497;   -4.767;  785.398
348.293;    9.403;   -7.226;  627.244
348.889;   10.975;   -7.547;  745.914
349.485;    9.583;   -9.147;  688.205
350.081;   11.561;   -6.568;  772.592
350.676;    6.847;   -6.516;  691.606
351.272;   11.080;   -7.378;  809.530
351.868;   10.279;   -6.759;  780.497
352.464;    8.391;   -4.798;  723.932
353.059;    4.635;   -7.977;  646.017
353.655;    8.535;   -8.769;  777.063
354.251;    9.187;   -5.920;  759.845
354.846;    4.321;   -7.647;  740.646
355.442;    1.391;   -6.956;  753.071
356.038;    4.030;   -9.928;  751.708
356.633;    4.676;   -7.698;  728.594
357.229;    2.866;   -6.307;  724.757
357.824;    0.598;   -7.647;  703.600
358.420;    0.170;  -10.047;  679.726
359.015;    0.644;   -7.458;  695.357
359.610;    2.103;   -5.748;  763.920
360.206;   -3.896;   -9.346;  603.240
360.801;   -1.989;  -11.268;  646.503
361.396;    0.525;   -8.789;  725.975
361.992;   -3.261;   -6.347;  668.220
362.587;   -5.837;   -6.476;  670.160
363.182;   -4.037;   -9.457;  689.631
363.777;   -3.221;   -7.147;  738.242
364.372;   -3.026;   -5.507;  737.314
364.967;   -6.621;   -6.386;  680.744
365.563;   -2.154;   -7.858;  815.567
366.158;   -5.686;   -8.517;  685.161
366.753;   -5.237;   -8.728;  649.263
367.348;   -5.868;   -7.677;  746.056
367.942;   -6.377;  -10.387;  697.298
368.537;   -7.930;   -7.187;  754.245
369.132;   -6.621;   -8.587;  703.428
369.727;  -10.914;   -8.606;  638.079
370.322;  -10.060;  -10.426;  580.186
370.917;   -9.410;   -5.776;  710.646
371.511;   -5.523;   -6.007;  861.834
372.106;  -10.071;   -6.686;  776.964
372.701;  -13.577;   -9.335;  585.988
373.296;   -6.425;   -6.777;  863.135
373.890;  -12.396;   -7.546;  647.840
374.485;  -13.846;   -8.755;  691.199
375.079;   -9.766;   -9.797;  738.685
375.674;   -8.525;   -6.327;  812.970
376.268;  -13.202;   -9.046;  691.759
376.863;  -18.507;   -7.993;  580.327
377.457;  -12.282;   -9.206;  662.490
378.052;  -14.342;   -5.345;  764.884
378.646;  -14.671;   -5.605;  741.167
379.240;  -15.028;   -6.825;  721.176
379.835;  -14.011;  -10.476;  636.978
380.429;  -16.555;   -8.676;  562.557
381.023;  -15.454;   -4.945;  779.205
381.617;  -18.606;   -8.094;  680.106
382.212;  -14.934;  -10.646;  685.303
382.806;  -14.372;   -8.136;  760.690
383.400;  -17.634;   -7.855;  672.281
383.994;  -18.559;   -8.125;  664.870
384.588;  -14.889;   -7.637;  697.701
385.182;  -12.882;   -7.458;  726.624
385.776;  -14.377;   -6.277;  706.875
386.370;  -18.092;   -7.485;  681.968
386.964;  -16.441;   -9.416;  684.155
387.558;  -14.412;   -8.518;  598.360
388.152;  -18.524;   -7.096;  681.959
388.745;  -15.324;   -7.656;  814.707
389.339;  -14.660;   -8.927;  747.642
389.933;  -14.048;   -9.538;  695.370
390.527;  -14.390;   -5.857;  859.029
391.120;  -21.119;   -9.455;  595.318
391.714;  -17.485;   -9.746;  711.633
392.308;  -15.394;   -7.857;  780.253
392.901;  -18.603;   -9.106;  642.460
393.495;  -20.564;  -10.365;  595.414
394.089;  -17.751;   -9.696;  760.452
394.682;  -18.950;   -7.016;  697.188
395.275;  -19.175;   -8.466;  719.927
395.869;  -20.401;   -8.985;  667.314
396.462;  -18.603;  -11.496;  616.609
397.056;  -14.585;   -7.838;  776.621
397.649;  -19.110;   -6.895;  731.575
398.242;  -16.386;   -5.017;  712.645
398.836;  -15.169;   -8.787;  766.408
399.429;  -17.025;   -8.967;  631.041
400.022;  -20.409;   -8.815;  665.902
400.615;  -17.167;   -6.276;  805.609
401.208;  -15.493;   -8.407;  691.451
401.802;  -18.261;   -7.296;  699.329
402.395;  -19.372;   -7.585;  683.502
402.988;  -19.374;   -8.015;  696.627
403.581;  -16.863;   -9.577;  646.878
404.174;  -14.348;   -7.588;  686.568
404.767;  -17.088;   -7.906;  638.583
405.360;  -19.595;   -7.875;  621.445
405.953;  -14.115;   -8.127;  759.034
406.545;  -12.995;   -7.198;  725.342
407.138;  -17.263;   -8.916;  618.350
407.731;  -17.051;   -9.767;  613.303
408.324;  -12.688;  -10.659;  660.554
408.917;  -13.660;   -8.068;  681.864
409.509;  -15.173;   -9.837;  740.396
410.102;  -17.171;   -8.146;  643.948
410.695;  -11.048;   -7.969;  665.758
411.287;  -12.175;   -8.579;  599.821
411.880;  -12.952;   -6.968;  585.421
412.472;  -16.524;   -9.487;  613.092
413.065;  -13.109;  -10.338;  629.408
413.657;  -11.152;   -9.169;  576.678
414.250;  -10.286;  -10.119;  646.681
414.842;  -13.348;   -9.938;  676.353
415.434;   -9.834;  -10.409;  570.463
416.027;   -6.150;   -9.591;  652.196
416.619;   -8.299;   -7.379;  713.400
417.211;   -8.751;   -9.159;  599.352
417.804;   -4.868;   -9.191;  628.499
418.396;   -8.471;   -8.159;  607.643
418.988;   -5.723;   -6.960;  659.238
419.580;   -9.311;  -11.389;  568.276
420.172;   -7.481;  -13.460;  536.196
420.764;   -2.955;  -10.701;  672.482
421.356;   -4.553;   -8.961;  636.898
421.948;   -4.882;   -9.770;  677.661
422.540;    0.242;   -8.832;  680.027
423.132;   -0.589;   -8.153;  600.641
423.724;   -4.288;   -8.481;  561.267
424.316;   -2.038;   -9.261;  621.345
424.908;    1.393;   -9.643;  591.517
425.500;    2.221;   -8.663;  647.978
426.092;    2.956;   -8.503;  648.268
426.683;    1.822;  -10.522;  684.836
427.275;    5.213;  -11.734;  641.471
427.867;    5.702;  -10.264;  668.948
428.458;    7.100;   -7.644;  732.344
429.050;    4.755;   -7.853;  680.749
429.642;    7.089;   -8.904;  743.124
430.233;    8.188;  -10.795;  569.356
430.825;    9.083;   -7.665;  724.809
431.416;    6.680;   -8.843;  698.241
432.008;   10.475;   -9.885;  651.723
432.599;   11.300;   -9.966;  656.073
433.190;    8.041;   -9.164;  637.670
433.782;    7.378;   -8.584;  590.395
434.373;   14.717;   -8.296;  884.765
434.964;   12.950;   -9.896;  602.920
435.556;   11.365;   -8.255;  634.537
436.147;   14.748;   -8.075;  758.490
436.738;   14.563;   -9.716;  701.099
437.329;   19.755;   -7.318;  721.723
437.920;   12.326;   -6.694;  666.688
438.511;   11.755;   -9.644;  564.526
439.103;   18.569;   -9.427;  623.998
439.694;   20.652;  -10.748;  681.583
440.285;   22.420;   -7.997;  764.432
440.876;   20.697;  -10.046;  845.738
441.466;   18.830;  -13.467;  575.162
442.057;   25.304;   -9.329;  665.814
442.648;   23.357;   -7.707;  746.255
443.239;   21.337;   -9.017;  620.477
443.830;   26.795;  -10.279;  704.958
444.421;   28.491;  -12.630;  655.474
445.011;   25.072;   -8.697;  693.619
445.602;   25.115;   -7.787;  743.126
446.193;   27.007;  -13.329;  488.117
446.783;   31.276;   -9.171;  640.397
447.374;   27.253;   -7.457;  692.759
447.964;   27.827;   -9.277;  713.770
448.555;   36.562;   -9.041;  822.742
449.145;   32.310;   -8.969;  662.853
449.736;   33.606;   -6.809;  803.179
450.326;   33.428;   -7.229;  713.626
450.917;   38.648;  -11.391;  675.324
451.507;   37.309;   -9.501;  600.661
452.097;   38.085;   -8.460;  746.267
452.688;   39.216;  -10.080;  742.160
453.278;   39.103;  -12.861;  566.840
453.868;   43.156;   -8.372;  793.550
454.458;   41.492;   -8.131;  651.141
455.048;   41.702;   -8.520;  711.783
455.639;   43.927;  -13.632;  567.096
456.229;   47.137;  -10.143;  710.694
456.819;   48.489;   -9.163;  751.158
457.409;   48.954;   -8.652;  773.993
457.999;   52.785;   -9.933;  737.505
458.589;   51.749;  -10.363;  686.606
459.179;   52.619;  -10.633;  717.658
459.769;   49.450;  -12.442;  627.099
460.358;   55.014;   -9.844;  797.262
460.948;   54.052;   -9.924;  689.503
461.538;   56.469;  -10.484;  660.677
462.128;   54.078;  -10.703;  664.934
462.717;   61.477;  -11.486;  710.326
463.307;   63.932;  -10.767;  705.846
463.897;   60.329;   -8.814;  656.942
464.486;   59.822;   -8.182;  837.128
465.076;   63.650;   -9.985;  733.776
465.666;   67.217;  -10.447;  652.900
466.255;   65.568;   -7.754;  785.651
466.845;   63.821;  -10.884;  666.749
467.434;   67.343;  -12.525;  725.873
468.023;   68.823;  -11.456;  658.357
468.613;   65.895;   -9.173;  713.946
469.202;   70.025;   -9.306;  646.507
469.791;   74.812;   -8.917;  737.811
470.381;   77.163;   -9.657;  742.813
470.970;   75.994;   -9.947;  711.099
471.559;   76.348;   -9.256;  733.291
472.148;   79.126;  -13.397;  675.737
472.738;   81.676;   -9.928;  765.466
473.327;   81.059;  -10.897;  637.529
473.916;   80.630;   -8.526;  737.446
474.505;   85.308;  -11.078;  751.703
475.094;   88.145;   -9.559;  806.570
475.683;   87.883;   -8.838;  797.699
476.272;   88.030;  -10.198;  730.632
476.861;   91.582;  -11.489;  706.754
477.449;   97.861;  -10.721;  728.487
478.038;   91.592;   -9.818;  692.513
478.627;   93.182;   -9.887;  714.852
479.216;   99.625;  -10.030;  769.441
479.805;  103.013;   -9.401;  783.375
480.393;  102.926;   -5.739; 1008.945
480.982;  101.752;   -7.838;  874.501
481.571;  109.034;   -9.111;  858.333
482.159;  108.867;  -10.601;  705.386
482.748;  108.982;   -8.500;  821.385
483.336;  113.047;   -9.241;  858.209
483.925;  114.285;  -10.440;  774.373
484.513;  120.586;  -11.063;  758.962
485.102;  117.553;   -9.540;  810.965
485.690;  125.902;   -6.742; 1011.050
486.278;  128.441;   -8.442;  979.329
486.867;  127.864;  -10.472;  809.662
487.455;  129.781;   -8.811;  898.229
488.043;  131.083;  -10.721;  748.361
488.631;  140.769;  -10.393; 1005.079
489.220;  144.633;  -10.843;  908.626
489.808;  143.796;  -10.572;  741.415
490.396;  152.102;  -10.482;  914.645
490.984;  158.652;  -11.542;  830.161
491.572;  167.627;   -8.463;  940.315
492.160;  175.535;   -8.491;  919.081
492.748;  185.482;   -9.681;  884.341
493.336;  206.704;  -10.493; 1019.693
493.924;  234.525;   -9.354;  958.077
494.512;  264.932;   -9.132; 1066.638
495.100;  304.358;   -9.001; 1103.280
495.687;  358.005;  -11.924; 1206.373
496.275;  431.265;  -11.193; 1150.796
496.863;  509.746;   -9.241; 1281.171
497.451;  613.080;  -11.341; 1386.805
498.038;  734.531;  -11.364; 1556.729
498.626;  837.277;   -8.104; 1741.407
499.214; 1009.581;   -8.842; 2016.609
499.801; 1246.883;  -10.112; 2220.633
500.389; 1452.205;  -11.953; 2312.494
500.976; 1615.613;  -10.023; 2744.849
501.564; 1841.365;   -8.662; 3148.565
502.151; 2181.119;  -10.531; 3515.999
502.738; 2586.132;  -13.853; 3971.274
503.326; 3087.095;  -10.794; 4403.796
503.913; 3526.590;   -8.663; 5161.749
504.500; 3987.411;  -10.172; 5986.420
505.088; 4787.875;  -13.472; 6381.201
505.675; 5365.416;  -10.924; 6925.547
506.262; 5496.674;   -8.551; 7619.060
506.849; 6126.252;  -10.523; 8733.969
507.436; 7074.127;  -10.834; 9790.121
508.023; 7500.453;   -9.093; 9985.472
508.610; 7866.890;  -10.073;10434.618
509.197; 8900.974;   -9.500;11198.435
509.784;10504.255;  -13.242;12391.194
510.371;11391.427;  -10.964;13603.713
510.958;11846.753;   -9.772;14426.586
511.545;12336.652;   -7.842;15243.775
512.132;12504.850;  -12.184;15945.876
512.719;13807.070;   -9.733;16340.369
513.305;16523.973;   -9.172;18011.766
513.892;17890.895;   -9.581;19754.971
514.479;18810.383;  -10.253;20967.805
515.066;19358.100;   -8.183;22299.793
515.652;20383.156;   -9.253;22908.660
516.239;22024.568;   -9.412;23798.875
516.825;23522.633;  -11.153;25567.275
517.412;23368.236;  -10.263;28154.959
517.998;22835.740;   -8.802;28344.111
518.585;22916.697;  -10.401;27134.219
519.171;22996.477;  -12.744;27268.576
519.758;24511.395;  -11.793;28964.129
520.344;27175.709;   -8.912;30664.494
520.930;29696.295;  -10.901;32550.605
521.516;29083.289;  -12.034;35422.895
522.103;28954.729;  -10.473;38280.004
522.689;29660.439;   -8.311;37835.117
523.275;30096.029;  -10.691;37288.613
523.861;30610.354;  -11.193;37281.395
524.447;29867.373;  -11.484;37846.949
525.033;32035.902;   -7.702;38321.949
525.619;34041.547;  -11.241;38579.285
526.205;35364.422;  -12.152;40622.875
526.791;36800.773;  -11.423;42258.836
527.377;37607.156;   -7.981;42966.902
527.963;37807.297;   -9.450;42018.949
528.549;38126.496;  -11.351;42476.828
529.135;38811.430;  -10.202;41854.852
529.721;39848.184;   -8.672;41237.711
530.306;39574.445;   -9.111;41259.445
530.892;40998.645;  -11.252;41506.047
531.478;43509.180;  -10.432;43559.613
532.063;45382.992;  -10.721;47695.563
532.649;46674.246;   -7.450;50808.324
533.235;48223.051;  -11.811;51787.500
533.820;47779.203;   -9.383;52145.035
534.406;45357.656;   -9.400;51133.488
534.991;44089.781;   -8.861;49996.805
535.576;45276.047;  -10.612;48882.852
536.162;42811.098;   -7.322;46942.285
536.747;42587.500;   -9.360;45711.746
537.333;44523.766;  -10.450;48510.180
537.918;47618.457;  -12.610;50439.891
538.503;47925.918;  -12.132;50863.711
539.088;45203.898;  -10.831;50906.922
539.673;44954.102;  -11.220;52621.965
540.259;48164.262;  -11.481;52368.094
540.844;47669.703;  -11.462;50879.109
541.429;48388.793;   -7.869;52077.777
542.014;46186.090;  -11.859;52716.695
542.599;42726.758;  -11.061;52363.281
543.184;39950.391;  -12.300;53187.137
543.769;38458.254;   -9.369;54697.605
544.354;40379.234;  -12.020;53913.914
544.938;41131.063;  -10.350;49680.164
545.523;41330.781;  -10.841;47386.277
546.108;46204.223;   -8.579;49151.949
546.693;49454.895;   -8.818;51384.637
547.278;50376.227;  -11.331;51853.254
547.862;49758.938;  -10.292;51173.750
548.447;48202.859;   -8.349;51691.395
549.031;47658.219;  -10.838;52456.703
549.616;48836.551;  -11.681;52714.516
550.201;51182.023;  -11.140;52414.598
550.785;48989.656;   -8.649;52355.059
551.370;49382.258;  -11.889;54589.453
551.954;50216.004;  -11.239;58267.348
552.538;52015.266;   -8.850;59062.176
553.123;54362.293;  -10.829;58115.285
553.707;54843.781;   -8.887;56556.285
554.291;51837.227;  -10.430;56201.668
554.876;50803.355;   -9.799;55335.762
555.460;47815.688;  -10.018;54155.703
556.044;46612.020;   -7.307;53721.484
556.628;49892.277;  -12.229;53731.016
557.212;50880.082;   -9.820;54312.531
557.796;49080.727;   -9.109;53797.773
558.380;45769.414;   -9.707;56145.984
558.964;47228.605;  -10.980;57277.930
559.548;50494.871;  -12.010;56459.641
560.132;51355.207;   -7.928;54434.543
560.716;54727.199;  -10.247;54800.617
561.300;56093.465;  -11.250;57606.945
561.884;54177.234;  -10.568;58972.445
562.467;52407.504;   -9.727;57327.570
563.051;48538.605;  -11.847;54962.434
563.635;47386.449;  -10.747;52594.473
564.219;46141.539;  -13.108;50610.410
564.802;43930.953;  -11.417;49551.180
565.386;41459.938;  -10.457;48370.953
565.969;43931.840;   -8.959;48178.871
566.553;44804.457;  -10.328;49957.305
567.136;44288.832;  -10.257;50369.594
567.720;43555.234;  -10.186;49492.004
568.303;42947.027;  -10.027;50616.352
568.887;43645.559;  -10.397;50727.148
569.470;44842.496;   -8.185;51698.379
570.053;43242.094;  -11.596;52122.078
570.637;40992.125;  -11.378;52536.438
571.220;40532.836;   -9.138;51186.098
571.803;39965.148;   -7.675;51032.762
572.386;38994.051;   -8.976;49609.887
572.969;40072.293;  -12.477;48285.926
573.552;40131.602;   -9.767;47624.285
574.135;38573.098;   -8.175;45498.641
574.718;34283.426;  -11.096;41970.434
575.301;33030.434;  -11.966;41447.137
575.884;31777.443;  -12.836;40923.836
576.467;37001.742;   -9.116;45267.723
577.050;39485.266;  -10.536;48175.543
577.633;39370.238;  -11.027;47729.328
578.216;37641.207;   -9.946;47579.793
578.799;37180.078;   -9.645;47820.996
579.381;36996.820;   -9.446;48115.551
579.964;37077.023;  -12.217;47333.766
580.547;37926.867;  -10.586;46668.969
581.129;37473.086;   -8.374;44466.141
581.712;36427.441;  -10.434;44164.922
582.294;35834.219;  -10.896;46477.855
582.877;36522.160;   -8.906;48244.254
583.459;36814.277;   -9.994;47437.895
584.042;36050.609;  -10.084;46943.219
584.624;34998.277;  -13.534;46792.227
585.206;34609.855;  -12.716;46557.250
585.789;34864.109;  -11.614;45793.773
586.371;34774.523;  -10.203;43836.391
586.953;33521.273;  -10.314;42972.492
587.536;31791.426;   -9.776;42487.211
588.118;31974.354;   -9.821;42086.414
588.700;32775.539;  -10.073;43389.930
589.282;34222.313;  -12.395;43646.039
589.864;33921.461;  -11.514;43438.109
590.446;34229.785;  -10.803;43151.926
591.028;35894.527;  -11.043;42781.867
591.610;36035.531;  -13.244;42839.098
592.192;32866.805;  -11.095;42820.402
592.774;30277.361;  -10.823;40724.277
593.356;29684.930;  -11.052;39874.789
593.937;31466.430;  -11.664;39980.648
594.519;33804.547;  -10.454;42069.633
595.101;34235.164;  -10.322;42976.031
595.683;33248.625;  -10.042;44084.441
596.264;31827.764;  -14.334;43478.797
596.846;31824.045;  -10.863;43803.672
597.427;32799.105;   -9.901;42986.934
598.009;33050.277;  -10.911;42832.219
598.591;32814.828;  -10.483;42580.086
599.172;31608.916;   -9.663;43061.805
599.753;30641.027;  -10.631;41691.469
600.335;30504.127;   -9.371;40692.520
600.916;31922.270;  -13.992;39982.422
601.498;33226.320;   -8.352;40318.617
602.079;31572.486;   -8.411;40670.609
602.660;33775.773;  -10.841;41450.898
603.241;34419.730;  -12.963;41137.738
603.823;31990.271;  -11.523;38868.797
604.404;30035.682;  -11.881;38182.785
604.985;31213.125;  -11.721;38078.047
605.566;32604.756;   -9.293;38056.633
606.147;31684.176;  -10.940;37020.418
606.728;30631.744;  -11.840;37883.359
607.309;30027.873;  -11.781;38748.273
607.890;30247.586;  -11.262;38850.230
608.471;29053.824;  -10.111;37457.918
609.051;28750.043;   -7.709;36066.457
609.632;29229.104;  -12.409;35991.074
610.213;28194.576;  -10.811;37402.641
610.794;28240.813;  -11.630;38383.363
611.374;29537.723;   -8.030;40562.387
611.955;30850.846;  -10.809;38533.727
612.536;32380.236;  -10.531;36951.789
613.116;32382.191;  -12.820;37197.891
613.697;31551.939;  -11.419;38411.125
614.277;30770.197;   -9.768;38673.938
614.858;30207.848;  -10.251;37075.863
615.438;26648.635;  -11.981;35092.906
616.019;25350.004;   -8.978;33666.301
616.599;28340.543;  -12.219;34189.023
617.179;30909.301;  -14.170;36952.047
617.760;32654.051;   -9.211;39582.574
618.340;33060.629;   -9.018;38943.977
618.920;31280.988;   -9.249;37594.156
619.500;31113.762;  -12.728;37866.938
620.080;33408.383;  -12.939;37869.043
620.660;32325.551;  -11.586;36868.617
621.241;31161.631;  -11.538;36352.309
621.821;31454.959;  -11.398;35459.520
622.401;32463.553;  -10.179;35207.414
622.980;32589.568;  -11.587;35980.422
623.560;31447.037;  -12.888;37351.328
624.140;29196.396;  -13.149;34388.582
624.720;24728.578;   -9.928;32368.764
625.300;24718.531;  -10.869;32638.629
625.880;29030.146;   -8.617;34599.035
626.459;33147.418;  -12.138;36831.738
627.039;34496.715;  -12.267;38299.098
627.619;34517.074;   -7.476;38289.574
628.198;35054.688;  -11.347;37220.695
628.778;34257.215;  -11.678;37632.563
629.357;32030.900;  -12.438;38003.012
629.937;30075.385;   -9.576;38402.039
630.516;29026.365;  -11.096;37868.801
631.096;28799.518;  -11.828;35760.410
631.675;29616.066;  -11.565;35225.219
632.254;30278.049;  -11.845;35130.289
632.834;31101.617;  -11.545;35794.570
633.413;31752.559;  -10.887;35788.922
633.992;33312.477;  -10.175;34532.863
634.571;32505.707;   -9.704;33590.113
635.151;30011.012;  -10.815;34943.863
635.730;29690.936;  -11.617;35352.523
636.309;29446.348;  -10.836;35366.605
636.888;30303.781;   -9.755;36165.637
637.467;31002.977;  -11.684;37515.902
638.046;32940.922;  -11.987;39288.695
638.625;33842.453;  -10.455;38279.699
639.204;32917.926;  -11.234;37741.598
639.782;29972.006;  -12.023;38364.551
640.361;27976.309;  -11.506;36740.621
640.940;27636.076;  -12.316;34950.082
641.519;29355.137;  -11.616;34137.398
642.097;32945.082;   -9.266;35654.258
642.676;33329.227;  -12.936;35637.957
643.255;32548.920;   -9.966;36567.074
643.833;32896.734;   -8.916;37809.434
644.412;34360.508;  -10.936;37337.293
644.990;36251.344;  -12.176;37018.531
645.569;36290.496;  -12.246;36518.469
646.147;35494.820;  -12.107;36186.430
646.726;35064.707;  -12.937;36267.688
647.304;38034.781;  -12.547;36647.625
647.882;38698.336;  -12.597;39286.742
648.461;36579.250;   -9.427;39157.703
649.039;34377.516;   -8.937;35412.883
649.617;32843.559;  -11.067;34744.918
650.195;32911.020;  -10.657;35403.098
650.773;32359.746;  -10.097;35053.797
651.352;30167.223;  -11.887;33756.816
651.930;25741.430;  -13.557;31868.773
652.508;23014.967;  -11.767;33121.551
653.086;24286.744;  -10.777;33564.793
653.663;27950.260;  -12.067;34054.668
654.241;31011.596;  -14.918;35693.309
654.819;32250.256;  -11.788;36422.906
655.397;31771.832;  -11.268;38213.484
655.975;32723.004;  -11.738;39507.625
656.553;32499.760;  -11.018;39498.223
657.130;31504.982;  -12.848;40395.480
657.708;31067.010;  -10.098;39242.020
658.286;32112.020;  -11.678;38920.020
658.863;33893.574;  -11.498;40202.898
659.441;35160.543;  -11.008;39677.938
660.018;35680.367;  -11.048;40413.355
660.596;35340.570;  -12.058;39931.414
661.173;35014.570;  -14.158;39604.531
661.750;34420.109;  -12.298;39700.070
662.328;33676.797;  -10.699;39292.809
662.905;32086.031;  -12.119;38235.648
663.482;27869.072;  -11.829;36212.305
664.060;26929.531;  -11.009;35944.945
664.637;29469.803;  -10.369;35170.785
665.214;29782.275;  -10.459;34197.523
665.791;28376.365;  -12.599;34549.520
666.368;28112.057;  -12.919;35118.578
666.945;30251.143;  -10.699;36019.418
667.522;31248.418;  -11.359;36048.438
668.099;31483.508;  -13.529;36243.914
668.676;31435.373;  -10.229;35958.875
669.253;31101.213;   -9.279;37384.730
669.830;30188.324;  -11.370;36779.629
670.407;31289.270;  -10.950;35231.289
670.984;32650.832;  -12.850;35544.270
671.560;32396.973;   -8.440;35466.867
672.137;30544.902;  -13.520;34280.863
672.714;29150.834;  -13.620;34632.863
673.290;29246.791;  -10.450;35135.422
673.867;28584.379;  -10.960;36114.480
674.443;27005.266;  -13.300;36152.859
675.020;27554.021;  -12.370;35327.238
675.596;28035.494;  -11.250;35795.176
676.173;28535.666;  -11.080;35430.355
676.749;28775.713;  -13.220;33549.516
677.326;31986.984;  -13.000;32210.012
677.902;33553.074;  -12.701;32068.871
678.478;33081.906;  -12.801;32583.891
679.054;32269.725;   -8.601;32088.928
679.631;33636.836;  -12.631;30978.848
680.207;33612.074;   -9.451;33160.887
680.783;31655.660;  -11.701;35570.363
681.359;31305.453;  -12.701;36125.184
681.935;31079.619;  -13.271;35240.922
682.511;29936.277;  -10.791;34429.961
683.087;30342.529;  -10.791;34463.680
683.663;30587.318;   -8.121;34648.898
684.239;32358.313;  -13.261;34546.457
684.815;31597.666;  -10.581;35586.375
685.390;28852.045;   -9.961;35821.895
685.966;27733.686;  -11.182;35085.871
686.542;27263.543;  -13.512;34198.230
687.118;27640.725;  -11.472;32847.707
687.693;27936.721;  -10.152;32794.027
688.269;29302.029;  -14.442;33072.367
688.844;30692.998;  -11.852;33141.664
689.420;28696.053;  -13.942;33965.742
689.995;27049.215;   -9.702;34655.523
690.571;27075.605;  -11.312;33576.742
691.146;26496.727;  -14.332;32657.219
691.722;28018.916;  -11.192;32526.979
692.297;30350.857;  -10.962;33014.617
692.872;29398.023;  -11.082;34012.254
693.448;28603.314;  -14.732;34237.434
694.023;27950.672;  -12.363;34142.672
694.598;28145.246;  -12.393;34132.031
695.173;27337.078;  -11.023;34205.250
695.748;26930.035;  -12.743;32882.488
696.323;28256.098;  -11.103;32864.906
696.898;29566.893;   -8.123;33170.004
697.473;29513.650;  -12.603;32432.984
698.048;28893.902;  -12.553;31649.303
698.623;30269.723;  -12.573;30778.141
699.198;33325.367;  -12.743;31140.119
699.773;30989.359;  -12.843;31764.299
700.348;29799.521;  -16.683;31780.816
700.922;30227.258;  -11.403;32046.375
701.497;31097.516;  -11.253;32603.574
702.072;31542.641;  -10.044;34799.871
702.646;30639.941;  -13.054;35793.172
703.221;29048.363;  -11.414;35201.590
703.795;29320.166;  -10.644;34764.527
704.370;30896.672;  -13.484;34307.367
704.944;30738.314;  -12.144;33509.887
705.519;29550.281;  -12.024;31388.584
706.093;28170.842;  -11.234;31340.104
706.668;26649.137;   -9.874;32630.281
707.242;26042.844;  -12.404;32728.779
707.816;26053.705;  -10.644;32947.238
708.390;25756.357;  -11.174;33277.855
708.965;26389.965;  -10.324;33834.336
709.539;25811.344;  -12.014;33709.273
710.113;25573.553;  -12.295;33044.313
710.687;26233.547;  -10.965;31953.992
711.261;26609.080;  -13.685;30505.949
711.835;25802.160;  -15.335;30262.369
712.409;24872.363;  -13.785;31254.447
712.983;25922.719;  -10.525;32754.986
713.557;27714.982;  -13.175;34018.824
714.131;28904.141;  -13.245;34579.625
714.704;30422.037;  -13.175;33890.262
715.278;32520.711;  -11.545;33531.102
715.852;32017.623;  -10.975;33601.660
716.425;31329.639;  -10.075;33515.117
716.999;31176.932;  -12.185;33185.555
717.573;31708.154;   -9.685;33905.996
718.146;33587.637;  -10.516;35199.293
718.720;30539.105;  -12.106;35060.551
719.293;29550.605;  -12.386;34973.230
719.867;32529.113;  -12.456;36394.449
720.440;32483.264;  -10.686;36663.008
721.013;32065.389;  -12.596;35102.426
721.587;32067.438;  -13.956;33985.266
722.160;31434.293;   -9.806;33524.965
722.733;31350.316;  -11.676;32987.043
723.306;30895.797;  -14.276;33066.301
723.880;30755.104;  -12.126;33399.500
724.453;31823.701;  -10.156;33468.297
725.026;30693.055;  -12.956;33816.637
725.599;28842.977;  -11.676;32797.996
726.172;27728.139;  -12.337;33187.434
726.745;28481.844;  -11.277;35136.613
727.318;27927.840;  -11.927;35751.730
727.891;26735.096;  -13.607;35890.430
728.463;26815.201;  -11.327;34822.090
729.036;26223.936;  -11.917;32895.086
729.609;26761.842;  -12.697;31823.225
730.182;27848.395;  -11.787;31445.283
730.754;28639.484;  -12.957;32373.223
731.327;29339.939;  -11.017;33676.820
731.900;28004.645;  -12.797;33417.000
732.472;25941.756;  -10.677;31978.498
733.045;25151.500;  -12.797;30368.777
733.617;25762.559;  -13.908;30574.215
734.190;25793.467;  -12.258;31280.975
734.762;26862.824;  -13.438;31674.412
735.334;27531.621;  -11.758;31247.291
735.907;27494.910;  -11.158;29876.211
736.479;28217.895;  -11.258;29808.488
737.051;29921.373;  -10.918;30233.547
737.623;31105.924;  -11.038;31469.086
738.195;30921.904;  -12.188;31784.225
738.768;27884.311;  -11.378;32120.523
739.340;26705.898;  -12.598;32094.342
739.912;27913.035;  -11.568;31312.680
740.484;28140.225;   -9.348;31946.238
741.056;27497.982;  -12.628;32984.059
741.628;27730.076;  -13.349;33897.715
742.199;28154.156;  -11.309;33213.016
742.771;27875.340;  -12.699;31369.113
743.343;29511.703;  -11.919;31865.473
743.915;29876.438;  -11.679;32388.631
744.487;28404.336;  -12.249;31079.568
745.058;26595.486;  -11.119;30570.107
745.630;25236.270;   -9.439;29970.127
746.201;25072.563;  -11.949;29186.766
746.773;25055.242;  -12.639;28805.723
747.344;24583.070;  -11.039;29591.223
747.916;23549.328;  -12.549;31412.201
748.487;22515.941;  -12.659;32194.898
749.059;22152.859;  -13.059;32533.719
749.630;23471.967;  -12.080;32158.518
750.201;22914.576;  -13.100;30855.395
750.773;21412.061;  -15.310;28622.555
751.344;20980.508;  -12.240;28405.732
751.915;20967.813;  -11.960;28461.551
752.486;20760.020;  -13.200;27842.850
753.057;20771.043;  -15.230;27845.008
753.628;20929.291;  -13.130;27728.107
754.199;21118.707;  -12.720;27381.086
754.770;20906.877;  -10.680;25882.203
755.341;20917.467;  -11.010;25886.184
755.912;20299.559;  -12.990;26050.861
756.483;19045.926;  -11.110;26798.779
757.054;18244.668;  -12.190;27048.238
757.625;18339.641;  -13.981;26294.838
758.195;18490.516;  -11.041;26142.076
758.766;19791.977;  -11.861;26392.234
759.337;20909.510;  -11.461;26334.594
759.907;21395.688;  -15.001;27579.652
760.478;21055.188;   -9.681;28352.770
761.048;20309.043;  -12.421;27325.088
761.619;19462.904;  -11.761;26460.428
762.189;18004.025;  -12.391;26029.826
762.760;17606.715;  -10.201;26430.145
763.330;18678.029;  -10.811;26670.902
763.900;21248.932;  -10.261;26603.021
764.471;21183.209;  -13.061;25542.740
765.041;19438.801;  -11.051;24358.459
765.611;19325.885;  -11.032;23991.297
766.181;19285.783;  -10.532;24470.236
766.751;19189.775;  -13.502;24845.975
767.321;19446.080;  -11.392;24533.633
767.891;19702.531;  -11.522;24916.492
768.461;20141.516;  -13.672;24776.771
769.031;19619.801;  -14.652;24757.988
769.601;18643.791;  -10.182;24181.088
770.171;17020.170;  -11.752;23670.387
770.741;15507.575;  -12.272;22960.045
771.311;15475.176;  -13.112;22917.523
771.880;15661.454;  -14.122;23562.941
772.450;16685.111;  -11.782;24216.500
773.020;18531.088;  -12.642;24140.398
773.589;18129.268;  -13.043;24414.857
774.159;16211.506;  -11.783;23858.717
774.729;15214.174;  -13.473;22942.135
775.298;16176.218;  -14.523;22324.033
775.867;17146.900;  -12.013;21140.313
776.437;16287.229;  -12.113;20838.092
777.006;14707.105;  -13.543;20599.510
777.576;13199.509;  -12.523;20508.809
778.145;12803.120;  -12.173;20732.947
778.714;14024.496;  -12.153;21062.465
779.283;14557.367;  -11.833;20949.664
779.853;15111.554;  -13.483;20508.623
780.422;15806.202;  -12.933;20649.082
780.991;15280.219;  -13.173;21527.520
781.560;13619.123;  -10.224;22632.658
782.129;13071.292;  -12.684;23048.277
782.698;14269.145;  -11.284;23438.555
783.267;15386.911;  -11.684;23267.734
783.836;14562.355;  -10.974;22415.133
784.404;13278.975;  -13.534;20443.152
784.973;13203.512;  -16.734;19699.150
785.542;13248.925;  -12.594;19763.828
786.111;12927.321;  -11.644;20341.408
786.679;13410.299;  -11.384;20207.967
787.248;14262.027;  -12.014;19516.465
787.817;13335.670;  -12.804;18900.363
788.385;12210.731;  -11.994;17879.121
788.954;12279.669;  -12.564;17658.301
789.522;13626.636;  -12.225;17788.879
790.090;13904.663;  -13.775;18118.277
790.659;12880.887;  -12.485;18338.736
791.227;12233.620;  -12.295;18508.615
791.795;12276.420;  -13.415;17898.254
792.364;11762.149;  -12.995;17295.133
792.932;11306.047;   -8.365;16822.051
793.500;11452.257;  -11.925;17040.148
794.068;11638.053;  -13.245;17179.787
794.636;11680.595;  -13.815;16664.246
795.204;11108.359;  -13.375;16524.545
795.772;10987.773;  -12.125;17274.564
796.340;11375.237;  -13.855;17891.002
796.908;11691.733;  -13.456;17648.561
797.476;11179.921;  -13.116;17064.080
798.044;10720.103;  -13.226;16672.777
798.612;11450.045;  -11.236;17023.996
799.180;12493.771;  -10.476;16561.615
799.747;12647.885;  -11.746;15962.773
800.315;11731.539;  -12.366;15296.992
800.883;10796.824;  -14.616;14801.771
801.450;10380.235;  -11.996;14534.430
802.018;10988.172;  -11.206;14173.248
802.585;10608.990;  -12.466;14029.547
803.153; 9558.585;  -12.846;13836.846
803.720; 9188.914;  -12.136;13567.324
804.287; 9101.653;  -10.966;13360.622
804.855; 9401.450;   -9.797;13681.981
805.422; 9294.463;  -13.037;13536.560
805.989; 8923.308;  -12.697;13355.958
806.556; 9126.783;  -11.737;13747.896
807.124; 9515.678;  -11.997;13987.376
807.691; 9080.523;  -13.997;14038.674
808.258; 8827.184;  -10.927;14120.152
808.825; 9298.630;  -13.727;13860.111
809.392; 9756.696;  -11.847;13268.790
809.959; 9108.878;  -14.217;12680.389
810.526; 8227.333;   -8.277;12427.308
811.093; 8084.859;   -9.647;12030.105
811.659; 7994.143;  -10.987;11653.664
812.226; 7510.857;  -13.447;11637.183
812.793; 7563.735;  -14.418;11611.521
813.360; 8061.686;  -13.908;11885.181
813.926; 8182.900;  -12.918;12770.539
814.493; 8023.529;  -14.888;12677.638
815.060; 8077.016;  -12.758;11974.336
815.626; 8366.185;  -13.478;11594.715
816.193; 8392.628;  -13.898;11579.474
816.759; 8165.282;  -13.588;11666.972
817.325; 8154.730;  -12.018;11325.530
817.892; 7786.386;  -14.068;11105.369
818.458; 6978.236;  -13.458;10843.928
819.024; 6601.919;  -11.968;10714.406
819.591; 6260.702;  -11.028;10469.165
820.157; 6014.227;  -12.088;10235.523
820.723; 5923.216;  -12.599;10847.563
821.289; 6153.413;  -10.419;11040.980
821.855; 6886.542;  -10.939;10357.100
822.421; 7508.695;  -12.539; 9978.918
822.987; 7413.490;  -13.259; 9754.177
823.553; 6695.960;  -15.369;10065.755
824.119; 6370.247;  -10.779;10036.294
824.685; 5919.503;   -9.999;10029.192
825.251; 5520.492;  -11.819;10199.230
825.816; 5282.393;  -13.369; 9820.189
826.382; 5415.248;  -12.679; 9297.248
826.948; 5688.254;  -11.199; 9381.347
827.513; 5566.336;  -11.179; 9450.726
828.079; 5454.284;  -13.489; 9472.444
828.645; 5701.306;  -12.500; 9292.643
829.210; 6011.437;  -15.120; 9065.341
829.776; 5921.986;  -12.590; 9132.620
830.341; 5711.099;  -11.540; 9092.878
830.906; 5650.517;  -12.400; 9078.557
831.472; 5507.728;  -12.720; 8534.535
832.037; 5092.949;  -11.490; 8677.874
832.602; 4623.334;  -14.380; 8628.692
833.167; 4750.236;  -12.780; 8879.031
833.733; 5001.393;  -11.100; 9189.790
834.298; 5238.160;  -12.080; 9052.608
834.863; 5242.313;  -13.910; 8895.087
835.428; 4973.707;  -13.470; 8824.266
835.993; 5223.453;  -11.760; 8845.385
836.558; 5660.908;  -12.731; 8888.563
837.123; 5800.997;  -12.431; 8966.582
837.688; 5561.823;  -11.241; 8617.860
838.253; 5222.599;  -13.681; 8590.699
838.817; 4918.083;  -12.531; 8443.797
839.382; 5033.577;  -12.671; 8799.356
839.947; 5022.379;  -11.541; 8810.595
840.511; 4814.882;  -12.021; 8796.394
841.076; 4766.678;  -13.071; 8347.231
841.641; 4682.457;  -11.411; 8224.330
842.205; 4527.518;  -13.671; 8223.349
842.770; 4510.505;  -11.291; 8622.107
843.334; 4618.516;  -12.951; 8410.386
843.898; 4695.506;  -11.221; 8337.465
844.463; 4652.689;  -11.322; 8506.283
845.027; 4428.517;  -11.412; 8280.962
845.591; 4125.442;  -11.512; 8231.141
846.156; 4183.304;  -14.042; 7969.179
846.720; 4400.735;  -12.152; 7768.278
847.284; 4439.310;  -10.922; 7630.957
847.848; 4211.646;  -10.962; 7472.395
848.412; 3886.373;  -14.612; 7437.394
848.976; 3848.904;  -11.492; 7674.592
849.540; 3897.791;   -9.172; 7836.011
850.104; 4231.632;  -11.232; 7913.669
850.668; 4615.949;  -15.182; 7694.508
851.232; 4349.201;  -15.332; 7756.887
851.796; 4054.010;  -13.703; 7926.545
852.359; 4091.254;  -11.113; 7827.844
852.923; 4045.948;  -11.843; 7641.163
853.487; 3908.297;  -11.173; 7342.501
854.050; 3717.293;  -13.443; 7042.820
854.614; 3571.103;  -13.823; 7151.338
855.177; 3602.839;  -16.393; 7105.077
855.741; 3720.189;  -11.693; 6989.675
856.304; 3739.855;  -10.843; 6596.634
856.868; 3651.278;  -13.783; 6356.272
857.431; 3438.441;  -11.953; 6468.571
857.995; 3285.761;  -13.683; 6373.210
858.558; 3274.703;  -11.433; 6324.448
859.121; 3251.094;  -12.493; 6408.327
859.684; 3263.077;  -12.384; 6347.886
860.247; 3269.263;  -14.774; 6321.264
860.810; 3135.774;  -13.154; 6301.903
861.374; 2995.201;  -11.264; 6607.881
861.937; 2926.724;  -15.424; 6408.200
862.500; 2944.585;  -12.854; 6572.639
863.062; 2986.143;  -12.344; 6387.297
863.625; 2984.815;  -13.314; 6190.836
864.188; 2840.605;  -14.724; 5807.254
864.751; 2775.007;  -13.464; 5682.413
865.314; 2775.159;  -11.684; 5547.492
865.876; 2853.642;  -11.104; 5500.150
866.439; 2989.425;  -12.344; 5415.909
867.002; 3001.467;  -13.494; 5501.567
867.564; 3008.727;  -10.935; 5413.946
868.127; 2904.034;  -12.665; 5160.325
868.689; 2739.264;  -14.515; 5133.183
869.252; 2768.368;  -13.425; 5252.382
869.814; 2836.717;  -11.595; 5297.141
870.377; 2870.750;  -12.175; 5390.919
870.939; 2748.162;  -10.265; 5599.898
871.501; 2638.754;  -12.375; 5248.336
872.063; 2595.454;  -14.355; 4854.235
872.626; 2617.340;  -14.435; 4817.074
873.188; 2465.413;  -12.415; 4987.732
873.750; 2255.716;  -14.555; 4868.651
874.312; 2054.431;  -11.185; 4779.330
874.874; 1785.318;  -12.715; 4866.348
875.436; 1497.122;  -13.196; 4718.887
875.998; 1365.111;  -11.426; 4660.005
876.560; 1364.473;   -9.786; 4462.964
877.122; 1436.255;  -12.796; 4145.042
877.683; 1463.364;  -13.226; 4056.481
878.245; 1420.178;  -12.036; 3950.740
878.807; 1376.619;  -11.536; 4058.958
879.369; 1413.108;  -10.806; 3954.677
879.930; 1560.203;  -13.946; 3941.495
880.492; 1705.054;  -11.876; 4067.014
881.053; 1659.614;  -13.216; 3859.633
881.615; 1564.735;  -12.226; 3776.071
882.176; 1515.545;  -12.946; 3734.750
882.738; 1517.963;  -10.736; 3678.489
883.299; 1482.624;  -12.057; 3405.407
883.860; 1388.661;  -12.677; 3351.106
884.422; 1332.337;  -14.097; 3394.044
884.983; 1279.956;  -13.667; 3166.443
885.544; 1220.901;  -10.717; 3189.802
886.105; 1171.553;  -14.357; 3160.360
886.666; 1113.807;  -14.287; 3093.059
887.227; 1051.027;  -14.297; 2941.957
887.788; 1006.875;  -13.137; 2974.836
888.349;  945.331;  -14.637; 2721.214
888.910;  880.631;  -12.247; 2696.493
889.471;  877.905;  -10.577; 2560.172
890.032;  882.038;  -12.937; 2558.190
890.593;  874.893;  -12.487; 2567.669
891.153;  853.994;  -11.898; 2460.307
891.714;  822.735;  -14.278; 2372.046
892.275;  802.905;  -13.308; 2309.505
892.835;  755.305;  -12.058; 2382.543
893.396;  670.867;  -15.268; 2295.502
893.956;  617.635;  -13.278; 2162.420
894.517;  597.215;  -11.968; 2125.439
895.077;  600.628;  -12.798; 2086.978
895.638;  581.952;  -11.908; 2126.316
896.198;  559.248;  -13.288; 1838.275
896.758;  534.622;  -12.198; 1892.813
897.319;  504.195;  -13.048; 1792.232
897.879;  473.123;  -13.718; 1762.751
898.439;  433.984;  -14.138; 1661.149
898.999;  401.224;  -13.659; 1781.468
899.559;  385.573;  -14.699; 1703.347
900.119;  368.976;  -14.339; 1537.525
900.679;  345.139;  -11.789; 1638.384
901.239;  316.821;  -13.629; 1527.902
901.799;  297.258;  -13.679; 1456.441
902.359;  286.912;  -13.679; 1357.140
902.919;  278.321;  -14.159; 1331.118
903.479;  266.519;  -13.419; 1317.257
904.038;  249.833;  -14.899; 1262.595
904.598;  236.039;  -14.339; 1152.034
905.158;  226.670;  -13.959; 1240.893
905.717;  222.338;  -12.749; 1233.691
906.277;  216.602;  -11.889; 1217.330
906.836;  211.815;  -12.870; 1222.408
907.396;  206.963;  -11.790; 1193.047
907.955;  198.699;  -13.750; 1182.526
908.515;  189.638;  -14.760; 1099.364
909.074;  184.484;  -12.540; 1092.863
909.633;  179.533;  -12.120; 1069.121
910.192;  175.732;  -12.550; 1196.460
910.752;  168.344;  -12.760; 1029.960
911.311;  165.520;  -14.750; 1009.780
911.870;  162.588;  -13.860;  971.460
912.429;  163.551;  -13.480; 1094.080
912.988;  162.487;  -12.370; 1081.060
913.547;  159.157;  -14.670;  940.380
914.106;  157.528;  -12.800;  999.420
914.665;  155.793;  -11.370;  984.020
915.224;  154.090;  -11.430; 1035.760
915.782;  151.153;  -12.260;  922.560
916.341;  150.426;  -12.540; 1049.840
916.900;  147.906;  -12.540;  925.260
917.458;  146.702;  -13.480;  884.220
918.017;  146.673;  -12.470;  942.600
918.576;  146.568;  -13.450;  904.440
919.134;  142.769;  -12.890;  837.980
919.693;  139.408;  -15.480;  893.060
920.251;  136.321;  -14.420;  876.500
920.809;  134.672;  -12.170;  839.580
921.368;  135.587;  -13.650;  885.360
921.926;  134.347;  -12.750;  842.940
922.484;  133.974;  -14.150;  903.360
923.042;  134.756;  -15.100;  880.340
923.601;  136.722;  -10.990;  998.680
924.159;  136.987;  -12.470;  935.560
924.717;  136.660;  -15.640;  841.080
925.275;  138.484;  -12.380;  903.240
925.833;  138.730;  -12.710;  779.320
926.391;  140.756;  -11.200;  938.380
926.949;  141.179;  -16.000;  857.680
927.506;  142.288;  -12.260;  903.500
928.064;  143.578;  -11.300;  877.580
928.622;  143.118;  -13.750;  880.100
929.180;  142.489;  -15.290;  814.180
929.737;  142.928;  -14.500;  808.540
930.295;  146.202;  -10.630;  928.480
930.853;  146.805;  -14.590;  849.100
931.410;  147.628;  -14.450;  821.120
931.968;  149.308;  -14.390;  940.660
932.525;  151.072;  -13.050;  909.380
933.082;  154.628;  -15.620;  811.440
933.640;  162.218;  -15.650;  925.900
934.197;  165.467;  -13.610;  886.360
934.754;  169.621;  -13.320;  897.780
935.312;  169.652;  -13.370;  863.340
935.869;  172.170;  -12.780; 1012.980
936.426;  172.562;  -14.480;  872.800
936.983;  174.861;  -13.180;  889.020
937.540;  175.231;  -15.710;  838.280
938.097;  175.242;  -14.980;  940.120
938.654;  174.513;  -13.060;  898.860
939.211;  173.216;  -12.760;  952.480
939.768;  172.757;  -16.230;  915.420
940.324;  177.915;  -10.940;  904.200
940.881;  183.590;  -12.570;  878.500
941.438;  187.754;  -13.650; 1021.200
941.995;  184.277;  -13.300;  992.560
942.551;  183.641;  -15.800;  875.620
943.108;  182.419;  -14.180;  937.920
943.664;  176.845;  -13.890;  869.340
944.221;  176.375;  -12.640; 1088.140
944.777;  174.960;  -14.700;  869.680
945.334;  176.927;  -13.010;  884.840
945.890;  176.159;  -13.480;  946.480
946.446;  175.000;  -14.920;  947.020
947.003;  175.682;  -13.860;  964.940
947.559;  176.863;  -12.000; 1063.040
948.115;  173.694;  -10.510; 1026.540
948.671;  172.238;  -12.760;  967.300
949.227;  167.368;  -15.390;  859.560
949.783;  164.948;  -15.570;  858.900
950.339;  165.527;  -12.800;  991.000
950.895;  164.303;  -13.780; 1023.840
951.451;  160.406;  -13.810;  925.280
952.007;  159.530;  -12.390;  998.540
952.563;  157.943;  -11.980;  937.780
953.118;  154.747;  -14.070;  904.940
953.674;  152.720;  -14.140;  935.780
954.230;  152.785;  -12.680;  949.640
954.785;  155.042;  -12.770;  936.640
955.341;  154.790;  -11.450;  998.160
955.897;  149.405;  -15.350;  834.660
956.452;  147.595;  -14.200;  953.840
957.008;  147.652;  -10.820; 1083.640
957.563;  143.635;  -13.200; 1009.540
958.118;  138.565;  -14.460;  877.700
958.674;  139.119;  -13.840;  946.780
959.229;  139.714;  -10.670; 1013.980
959.784;  141.573;  -17.040;  832.400
960.339;  143.841;  -12.970; 1001.280
960.894;  144.247;  -12.700;  963.760
961.449;  142.812;  -13.790;  859.960
962.004;  147.553;  -11.760; 1212.840
962.559;  148.520;  -14.840;  860.140
963.114;  147.268;  -14.530;  742.480
963.669;  149.659;  -12.780;  915.500
964.224;  148.372;  -14.330;  874.340
964.779;  145.021;  -14.380;  828.420
965.334;  140.248;  -12.460; 1017.860
965.888;  134.663;  -13.490;  875.360
966.443;  135.129;  -14.140;  972.380
966.998;  131.630;  -16.240;  819.460
967.552;  128.809;  -12.730;  908.380
968.107;  125.711;  -14.510;  868.300
968.661;  126.328;  -11.850;  922.440
969.216;  123.827;  -14.370;  856.280
969.770;  122.775;  -13.010;  917.200
970.324;  123.247;  -12.460;  923.140
970.879;  123.296;  -11.580;  947.180
971.433;  121.758;  -13.130;  952.720
971.987;  119.241;  -12.360;  895.340
972.541;  119.519;  -14.330;  917.100
973.095;  119.118;  -13.310; 1009.460
973.649;  117.618;  -15.830;  809.480
974.203;  120.595;  -15.830;  829.040
974.757;  124.004;  -13.480;  855.220
975.311;  121.995;  -13.720;  872.600
975.865;  117.573;  -15.780;  881.820
976.419;  114.887;  -14.290;  857.400
976.973;  112.876;  -13.210;  849.620
977.526;  111.994;  -12.300;  949.920
978.080;  108.262;  -14.840;  796.780
978.634;  109.145;  -13.100;  921.320
979.187;  106.033;  -12.300;  905.400
979.741;  103.689;  -12.020; 1018.380
980.294;   96.995;  -14.590;  789.160
980.848;   94.367;  -14.390;  717.220
981.401;   94.733;  -14.280;  816.540
981.955;   94.989;  -11.920;  844.300
982.508;   92.168;  -15.790;  746.340
983.061;   92.278;  -12.070;  915.260
983.615;   89.428;  -13.260;  798.800
984.168;   86.773;  -15.540;  770.080
984.721;   86.754;  -13.230;  880.760
985.274;   84.309;  -11.820;  867.500
985.827;   83.072;  -13.510;  834.220
986.380;   80.181;  -14.840;  721.340
986.933;   79.975;  -13.970;  864.800
987.486;   79.376;  -12.450;  861.920
988.039;   77.121;  -11.170;  863.100
988.591;   74.314;  -13.070;  893.260
989.144;   70.650;  -15.530;  737.260
989.697;   69.456;  -14.300;  758.740
990.250;   69.432;  -13.310;  858.100
990.802;   67.554;  -14.490;  755.860
991.355;   69.210;  -12.980;  974.880
991.907;   67.396;  -13.715;  864.320
992.460;   65.583;  -14.450;  753.760
993.012;   64.771;  -12.590;  749.540
993.565;   63.213;  -15.180;  711.360
994.117;   64.023;  -11.630;  950.780
994.669;   60.706;  -13.760;  701.320
995.221;   59.624;  -12.710;  791.920
995.774;   59.746;  -14.620;  787.580
996.326;   57.548;  -13.150;  740.220
996.878;   58.899;  -12.880;  838.420
997.430;   57.052;  -14.580;  699.860
997.982;   56.022;  -14.030;  750.140
998.534;   56.016;  -12.190;  739.060
999.086;   53.679;  -12.990;  738.220
999.638;   53.667;  -13.180;  661.380
1000.190;   52.217;  -14.970;  699.320
1000.741;   52.312;  -12.200;  742.700
1001.293;   52.969;  -13.400;  686.020
1001.845;   51.436;  -14.490;  676.640
1002.396;   52.621;  -15.280;  743.400
1002.948;   51.703;  -12.380;  737.400
1003.500;   50.691;  -13.260;  723.780
1004.051;   51.713;  -13.730;  907.580
1004.603;   50.036;  -12.300;  791.820
1005.154;   46.440;  -15.330;  608.980
1005.705;   45.746;  -12.800;  723.960
1006.257;   44.917;  -13.900;  707.220
1006.808;   44.204;  -14.430;  685.460
1007.359;   43.172;  -12.010;  763.240
1007.910;   42.068;  -12.690;  646.640
1008.461;   42.319;  -13.610;  732.940
1009.013;   40.024;  -14.990;  588.340
1009.564;   41.907;  -11.860;  793.520
1010.115;   39.325;  -12.640;  597.040
1010.665;   39.836;  -14.570;  602.160
1011.216;   39.660;  -15.190;  667.920
1011.767;   39.354;  -13.470;  697.920
1012.318;   39.600;  -13.760;  736.980
1012.869;   39.162;  -15.950;  679.000
1013.419;   37.845;  -15.880;  603.120
1013.970;   38.150;  -14.540;  666.640
1014.521;   37.608;  -13.220;  620.620
1015.071;   37.745;  -15.020;  670.380
1015.622;   37.208;  -17.510;  635.460
1016.172;   36.397;  -14.130;  596.820
1016.723;   36.898;  -14.220;  614.380
1017.273;   35.280;  -15.370;  604.160
1017.823;   35.620;  -15.290;  650.340
1018.374;   35.570;  -13.420;  611.760
1018.924;   35.897;  -11.740;  716.880
1019.474;   36.771;  -12.250;  718.880
1020.024;   34.932;  -15.850;  657.580
1020.574;   34.778;  -13.280;  726.160
1021.124;   35.211;  -13.560;  673.580
1021.674;   33.338;  -13.790;  559.120
1022.224;   34.931;  -14.610;  708.940
1022.774;   33.903;  -13.100;  668.820
1023.324;   34.722;  -11.470;  753.520
1023.874;   36.076;  -11.990;  875.760
1024.423;   32.055;  -14.550;  613.700
1024.973;   31.841;  -14.440;  610.760
1025.523;   32.152;  -13.250;  620.960
1026.072;   32.197;  -15.200;  606.420
1026.622;   32.033;  -14.590;  675.740
1027.172;   32.727;  -11.080;  715.660
1027.721;   30.459;  -14.010;  601.220
1028.270;   31.492;  -13.690;  663.400
1028.820;   31.584;  -15.380;  638.080
1029.369;   30.863;  -14.980;  612.700
1029.918;   31.952;  -13.100;  649.840
1030.468;   30.601;  -13.680;  564.780
1031.017;   30.950;  -13.770;  634.800
1031.566;   29.610;  -14.100;  608.900
1032.115;   30.333;  -11.770;  694.500
1032.664;   29.014;  -14.940;  596.480
1033.213;   30.757;  -13.370;  735.420
1033.762;   28.857;  -13.660;  635.620
1034.311;   28.880;  -13.650;  677.220
1034.860;   28.933;  -13.820;  691.000
1035.408;   29.827;  -12.860;  722.720
1035.957;   29.524;  -13.060;  719.540
1036.506;   26.911;  -14.510;  530.800
1037.055;   30.436;  -13.470;  844.320
1037.603;   28.263;  -14.800;  664.000
1038.152;   26.585;  -14.190;  534.760
1038.700;   27.353;  -11.810;  585.740
1039.249;   26.950;  -12.850;  681.220
1039.797;   27.393;  -14.610;  633.360
1040.345;   27.496;  -15.220;  705.420
1040.894;   26.494;  -13.480;  625.300
1041.442;   26.897;  -13.310;  632.200
1041.990;   25.509;  -14.510;  559.160
1042.538;   25.396;  -15.700;  536.180
1043.087;   25.144;  -13.910;  570.860
1043.635;   27.167;  -13.620;  670.500
1044.183;   25.997;  -14.230;  586.400
1044.731;   25.803;  -13.730;  576.000
1045.279;   25.716;  -13.970;  674.920
1045.827;   27.865;  -10.750;  892.400
1046.374;   23.307;  -15.230;  515.420
1046.922;   23.565;  -15.390;  590.580
1047.470;   25.589;  -12.320;  691.300
1048.018;   25.161;  -13.230;  647.960
1048.565;   25.441;  -13.390;  708.600
1049.113;   22.658;  -15.030;  557.000
1049.660;   23.482;  -12.540;  629.660
1050.208;   23.937;  -15.040;  675.640
1050.755;   22.700;  -14.680;  606.580
1051.303;   24.502;  -13.610;  686.820
1051.850;   23.651;  -14.340;  635.120
1052.397;   21.354;  -16.330;  473.960
1052.945;   22.263;  -15.710;  617.760
1053.492;   23.771;  -12.320;  741.840
1054.039;   23.452;  -13.730;  720.180
1054.586;   22.067;  -16.140;  557.240
1055.133;   23.114;  -14.020;  693.140
1055.680;   22.935;  -13.430;  646.620
1056.227;   20.978;  -14.570;  542.780
1056.774;   24.092;  -14.400;  794.980
1057.321;   21.148;  -14.230;  523.260
1057.868;   22.001;  -14.220;  651.320
1058.415;   21.391;  -14.060;  651.980
1058.961;   21.758;  -14.640;  678.940
1059.508;   21.691;  -13.970;  643.820
1060.055;   20.977;  -15.100;  581.780
1060.601;   21.611;  -12.180;  624.300
1061.148;   21.142;  -15.010;  616.820
1061.694;   20.384;  -14.750;  592.580
1062.241;   20.193;  -14.130;  596.320
1062.787;   20.357;  -14.770;  663.140
1063.334;   22.477;  -13.130;  808.560
1063.880;   21.281;  -14.420;  668.360
1064.426;   20.649;  -13.130;  706.820
1064.972;   18.774;  -13.960;  601.340
1065.518;   17.951;  -13.680;  566.640
1066.065;   19.709;  -15.720;  624.460
1066.611;   18.443;  -13.970;  598.800
1067.157;   19.018;  -13.920;  641.860
1067.703;   19.468;  -14.760;  668.480
1068.249;   19.278;  -14.490;  605.220
1068.794;   18.725;  -14.740;  626.880
1069.340;   18.442;  -13.220;  578.960
1069.886;   18.608;  -14.930;  590.700
1070.432;   17.460;  -14.700;  541.720
1070.977;   17.639;  -14.470;  601.080
1071.523;   17.801;  -14.330;  573.060
1072.068;   18.257;  -14.960;  582.000
1072.614;   17.076;  -16.220;  527.760
1073.160;   17.952;  -11.280;  687.040
1073.705;   16.544;  -15.990;  572.520
1074.250;   16.755;  -16.550;  559.900
1074.796;   18.608;  -14.600;  655.160
1075.341;   18.224;  -13.440;  664.100
1075.886;   16.975;  -14.450;  594.240
1076.431;   17.531;  -13.160;  649.880
1076.976;   16.232;  -14.710;  639.220
1077.521;   16.383;  -14.000;  583.080
1078.067;   16.267;  -14.470;  579.400
1078.612;   16.630;  -14.530;  661.620
1079.156;   16.180;  -15.660;  601.540
1079.701;   16.574;  -16.120;  693.260
1080.246;   16.540;  -12.960;  696.300
1080.791;   16.698;  -13.700;  625.020
1081.336;   16.885;  -15.540;  659.320
1081.880;   15.797;  -14.640;  649.680
1082.425;   14.988;  -14.220;  573.480
1082.970;   17.108;  -11.890;  717.040
1083.514;   15.398;  -13.820;  597.000
1084.059;   14.112;  -14.280;  586.720
1084.603;   14.028;  -12.890;  565.840
1085.147;   15.118;  -13.590;  645.220
1085.692;   15.622;  -14.050;  716.800
1086.236;   12.972;  -14.990;  503.140
1086.780;   16.037;  -12.640;  751.440
1087.325;   14.621;  -15.550;  654.620
1087.869;   14.879;  -14.980;  610.700
1088.413;   15.328;  -13.440;  705.040
1088.957;   13.101;  -12.170;  543.400
1089.501;   15.083;  -12.730;  766.640
1090.045;   14.223;  -14.650;  726.480
1090.589;   12.055;  -14.500;  569.920
1091.133;   14.550;  -12.320;  673.340
1091.676;   13.606;  -16.130;  591.940
1092.220;   13.251;  -13.930;  600.920
1092.764;   13.931;  -12.820;  706.960
1093.307;   13.038;  -11.700;  673.780
1093.851;   12.708;  -15.600;  556.540
1094.395;   13.493;  -13.920;  683.140
1094.938;   12.250;  -16.090;  632.520
1095.482;   12.084;  -13.820;  559.800
1096.025;   13.705;  -12.720;  710.880
1096.568;   13.843;  -12.100;  779.280
1097.112;   10.401;  -15.450;  508.180
1097.655;   12.751;  -14.310;  603.000
1098.198;   11.393;  -14.740;  600.180
1098.741;   11.860;  -15.550;  612.860
1099.285;   11.962;  -12.600;  657.300
1099.828;   10.326;  -15.050;  439.400
1100.371;   12.054;  -14.800;  608.160
1100.914;   12.095;  -16.480;  682.660
1101.457;   11.255;  -12.990;  679.900
1101.999;   10.896;  -14.110;  584.680
1102.542;   12.087;  -11.450;  641.440
1103.085;   11.234;  -13.350;  658.500
1103.628;   10.978;  -13.200;  762.060
1104.170;   10.543;  -12.310;  588.280
1104.713;   11.006;  -14.320;  646.700
1105.256;   10.287;  -16.110;  557.440
1105.798;    9.210;  -15.910;  499.980
1106.341;   11.507;  -12.200;  728.900
1106.883;    9.507;  -14.910;  521.340
1107.425;   10.463;  -14.960;  668.180
1107.968;   10.305;  -13.440;  612.380
1108.510;   11.026;  -14.010;  684.960
1109.052;    8.878;  -15.430;  612.620
1109.594;    9.375;  -15.290;  554.440
1110.136;   10.117;  -13.360;  643.220
1110.679;    9.100;  -13.820;  633.080
1111.221;    9.928;  -13.690;  604.460
1111.763;    8.894;  -14.890;  559.220
1112.304;    8.177;  -14.550;  547.140
1112.846;    9.066;  -12.760;  666.240
1113.388;   12.532;  -10.780;  942.180
1113.930;    9.541;  -12.690;  694.200
1114.472;    8.283;  -15.730;  606.540
1115.013;    7.320;  -14.620;  551.280
1115.555;    8.465;  -14.950;  587.100
1116.097;    7.647;  -16.460;  579.480
1116.638;    8.731;  -13.730;  684.600
1117.180;    8.952;  -13.810;  667.740
1117.721;    7.786;  -13.280;  568.580
1118.262;    8.104;  -15.080;  677.960
1118.804;    7.923;  -14.040;  637.340
1119.345;    7.462;  -15.430;  578.400
1119.886;    8.513;  -15.240;  704.040
1120.427;    6.912;  -15.820;  589.020
1120.969;    7.042;  -14.550;  597.920
1121.510;    6.663;  -14.030;  563.060
1122.051;    7.624;  -11.990;  723.580
1122.592;    7.049;  -16.490;  655.420
1123.133;    6.104;  -15.580;  547.940
1123.673;    8.004;  -12.850;  706.480
1124.214;    6.994;  -13.630;  612.460
1124.755;    7.823;  -14.830;  639.460
1125.296;    6.721;  -13.110;  627.320
1125.836;    7.781;  -11.320;  691.500
1126.377;    6.706;  -14.330;  599.660
1126.918;    7.507;  -12.800;  614.980
1127.458;    6.139;  -13.580;  622.220
1127.999;    7.329;  -10.330;  656.980
1128.539;    7.528;  -13.390;  694.240
1129.079;    5.820;  -16.420;  632.720
1129.620;    4.898;  -15.700;  558.100
1130.160;    5.026;  -14.790;  539.480
1130.700;    5.808;  -12.910;  640.840
1131.240;    7.163;  -15.610;  643.700
1131.781;    5.704;  -12.920;  619.680
1132.321;    4.678;  -15.300;  599.120
1132.861;    4.433;  -14.760;  564.200
1133.401;    4.097;  -15.470;  593.940
1133.941;    5.769;  -13.710;  626.280
1134.481;    4.460;  -11.820;  597.580
1135.020;    4.396;  -14.810;  609.160
1135.560;    5.615;  -13.660;  674.940
1136.100;    3.864;  -13.940;  501.160
1136.640;    3.404;  -15.410;  510.480
1137.179;    3.642;  -16.920;  537.960
1137.719;    4.282;  -16.430;  605.400
1138.258;    4.388;  -16.300;  587.360
1138.798;    4.949;  -13.710;  663.780
1139.337;    3.433;  -13.840;  482.840
1139.877;    4.686;  -16.140;  642.360
1140.416;    6.962;  -11.410;  878.060
1140.955;    3.120;  -12.820;  535.380
1141.494;    4.926;  -12.310;  669.280
1142.034;    3.085;  -16.280;  583.520
1142.573;    4.841;  -13.090;  646.280
1143.112;    3.050;  -13.770;  553.480
1143.651;    3.775;  -15.830;  536.480
1144.190;    4.525;  -15.010;  691.640
1144.729;    3.275;  -13.650;  607.420
1145.267;    3.058;  -13.670;  584.900
1145.806;    4.124;  -13.630;  637.040
1146.345;    2.954;  -14.160;  635.020
1146.884;    3.246;  -11.180;  622.500
1147.422;    2.059;  -15.890;  533.060
1147.961;    4.471;  -12.760;  708.460
1148.500;    3.527;  -15.220;  669.720
1149.038;    3.218;  -13.720;  632.500
1149.577;    3.595;  -13.250;  698.640
1150.115;    0.757;  -16.790;  452.280
1150.653;    2.376;  -15.810;  607.340
1151.192;    2.650;  -14.730;  552.920
1151.730;    2.393;  -13.660;  652.560
1152.268;    2.282;  -15.120;  589.520
1152.806;    2.214;  -15.580;  571.180
1153.344;    1.623;  -16.210;  577.640
1153.882;    1.678;  -12.810;  600.060
1154.421;    0.830;  -14.150;  470.620
1154.958;    1.567;  -15.360;  595.240
1155.496;    2.575;  -14.710;  645.280
1156.034;    2.143;  -13.640;  721.880
1156.572;    2.742;  -13.740;  667.060
1157.110;    0.538;  -16.960;  473.940
1157.647;    2.444;  -11.940;  676.960
1158.185;    0.302;  -14.090;  564.320
1158.723;    0.485;  -13.610;  509.200
1159.260;    2.090;  -14.760;  701.700
1159.798;    2.028;  -13.700;  658.160
1160.335;    0.966;  -13.820;  631.820

