
Integration time [ms]:   3.276
Averaging Nr. [scans]: 1000
Smoothing Nr. [pixels]: 0
Data measured with spectrometer [name]: 7414430SP
Wave   ;Sample   ;Dark     ;Reference
[nm]   ;[counts] ;[counts] ;[counts] 

288.544;  151.121;    7.793;  793.890
289.143;  154.328;    7.462;  681.602
289.742;  155.309;    8.602;  828.814
290.341;  140.430;    1.321;  789.841
290.940;  128.909;   -0.709;  730.702
291.538;  130.390;    0.881;  881.108
292.137;  130.937;    0.122;  792.581
292.736;  135.000;   -1.929;  975.101
293.335;  130.787;   -8.229;  735.086
293.934;  131.327;   -5.279;  781.677
294.532;  130.261;   -1.369; 1031.958
295.131;  116.189;   -7.641;  834.394
295.730;  115.907;   -8.420;  809.588
296.328;  115.201;   -5.611;  783.442
296.927;  116.285;   -5.781;  779.652
297.525;  117.779;   -6.361;  781.236
298.124;  107.299;  -11.382;  654.009
298.722;  110.799;   -7.641;  761.933
299.321;  109.101;   -6.811;  708.597
299.919;  106.665;   -6.991;  751.918
300.518;  103.641;  -10.362;  689.338
301.116;  105.779;   -9.581;  691.381
301.715;  105.205;   -4.891;  730.222
302.313;  105.048;   -8.801;  704.943
302.911;   99.186;   -8.522;  733.830
303.509;  104.074;   -6.171;  925.627
304.108;  103.070;   -7.311;  760.383
304.706;  101.708;   -8.321;  801.664
305.304;   96.965;  -10.222;  796.707
305.902;  101.499;   -6.021;  784.484
306.500;   98.116;   -4.971;  728.200
307.098;   96.612;   -7.061;  746.560
307.696;   93.601;   -8.801;  780.432
308.294;   94.510;   -6.411;  731.359
308.892;   96.429;   -2.901;  759.769
309.490;   92.901;   -5.041;  712.161
310.088;   90.426;   -5.002;  788.444
310.686;   95.564;   -2.041;  821.749
311.284;   90.935;   -2.351;  766.040
311.882;   88.562;   -4.422;  731.225
312.480;   85.149;   -4.192;  697.167
313.078;   86.656;   -1.172;  808.331
313.675;   88.697;   -2.601;  691.600
314.273;   82.576;   -1.312;  797.837
314.871;   81.860;   -3.942;  589.829
315.468;   79.966;   -2.802;  652.090
316.066;   83.337;   -0.701;  694.427
316.664;   75.470;   -4.362;  656.351
317.261;   79.994;   -2.872;  910.128
317.859;   75.062;   -2.022;  768.735
318.456;   76.046;   -0.531;  830.096
319.054;   72.523;   -3.912;  787.828
319.651;   70.631;   -4.752;  759.928
320.249;   68.990;   -2.602;  810.188
320.846;   67.870;   -0.821;  714.286
321.443;   64.871;   -4.642;  832.135
322.041;   61.626;   -5.002;  812.315
322.638;   59.154;   -3.982;  701.456
323.235;   61.333;   -3.411;  665.683
323.833;   58.404;   -7.361;  740.354
324.430;   53.360;   -8.611;  615.900
325.027;   54.140;   -4.061;  876.855
325.624;   54.320;   -4.031;  644.532
326.221;   51.430;   -7.481;  689.717
326.818;   50.458;   -5.281;  818.332
327.415;   54.338;   -7.460;  748.828
328.012;   53.496;   -5.510;  690.585
328.609;   52.346;   -7.880;  731.389
329.206;   49.383;   -8.331;  778.621
329.803;   49.904;   -5.121;  737.841
330.400;   52.448;   -4.510;  704.260
330.997;   54.258;   -6.441;  817.147
331.594;   52.363;   -8.831;  788.185
332.191;   57.853;   -7.621;  728.722
332.787;   60.580;   -4.591;  844.463
333.384;   59.387;   -7.412;  763.093
333.981;   58.348;   -8.293;  815.687
334.578;   60.655;   -7.052;  708.378
335.174;   64.170;   -3.102;  731.469
335.771;   63.335;   -5.943;  836.456
336.367;   59.988;   -7.393;  710.631
336.964;   63.536;   -4.063;  793.266
337.561;   61.633;   -3.813;  731.112
338.157;   57.590;   -4.654;  911.916
338.754;   55.191;   -7.934;  796.589
339.350;   52.798;   -4.414;  722.493
339.946;   55.348;   -4.664;  773.135
340.543;   47.339;   -6.375;  846.136
341.139;   41.501;   -9.815;  720.836
341.735;   39.385;   -4.526;  772.593
342.332;   37.788;   -4.895;  691.472
342.928;   38.779;   -4.295;  795.394
343.524;   32.893;   -5.476;  761.684
344.120;   28.745;   -5.856;  738.562
344.716;   32.549;   -2.155;  723.717
345.313;   30.496;   -6.275;  795.342
345.909;   24.408;   -8.815;  627.336
346.505;   26.144;   -5.305;  740.247
347.101;   27.150;   -2.674;  827.864
347.697;   27.958;   -4.344;  785.398
348.293;   21.892;   -9.975;  627.244
348.889;   22.661;   -5.774;  745.914
349.485;   22.278;   -5.004;  688.205
350.081;   23.237;   -4.704;  772.592
350.676;   17.285;   -6.635;  691.606
351.272;   22.335;   -4.504;  809.530
351.868;   21.871;   -3.914;  780.497
352.464;   19.749;   -9.044;  723.932
353.059;   16.073;   -8.314;  646.017
353.655;   17.978;   -7.024;  777.063
354.251;   20.612;   -5.343;  759.845
354.846;   15.017;   -8.604;  740.646
355.442;   12.729;   -6.945;  753.071
356.038;   13.898;   -7.564;  751.708
356.633;   14.749;   -5.814;  728.594
357.229;   12.919;   -7.364;  724.757
357.824;   10.167;   -8.024;  703.600
358.420;    9.481;   -9.384;  679.726
359.015;   10.369;   -5.104;  695.357
359.610;   10.709;   -6.854;  763.920
360.206;    5.051;  -10.185;  603.240
360.801;    7.594;   -7.054;  646.503
361.396;   10.844;   -5.034;  725.975
361.992;    6.422;   -8.284;  668.220
362.587;    2.596;   -8.625;  670.160
363.182;    4.353;   -7.674;  689.631
363.777;    5.378;   -5.164;  738.242
364.372;    5.001;   -8.604;  737.314
364.967;    1.676;   -9.055;  680.744
365.563;    5.719;   -6.114;  815.567
366.158;    2.913;   -5.814;  685.161
366.753;    3.680;   -7.854;  649.263
367.348;    1.531;   -7.804;  746.056
367.942;    1.339;   -7.954;  697.298
368.537;    0.815;   -4.984;  754.245
369.132;    0.450;   -8.564;  703.428
369.727;   -3.340;   -8.855;  638.079
370.322;   -1.809;   -6.245;  580.186
370.917;   -2.592;   -6.425;  710.646
371.511;    1.391;   -6.294;  861.834
372.106;   -3.402;   -7.685;  776.964
372.701;   -6.298;   -7.335;  585.988
373.296;   -0.069;   -4.564;  863.135
373.890;   -3.971;  -10.235;  647.840
374.485;   -7.205;   -7.885;  691.199
375.079;   -4.019;   -7.324;  738.685
375.674;   -1.796;   -3.494;  812.970
376.268;   -5.849;   -8.525;  691.759
376.863;  -12.202;  -10.086;  580.327
377.457;   -6.632;   -7.025;  662.490
378.052;   -7.768;   -3.585;  764.884
378.646;   -8.319;   -7.595;  741.167
379.240;   -8.924;   -8.335;  721.176
379.835;   -8.467;   -5.785;  636.978
380.429;   -9.441;   -4.335;  562.557
381.023;   -9.314;   -6.805;  779.205
381.617;  -12.520;   -9.195;  680.106
382.212;   -9.888;   -6.905;  685.303
382.806;   -7.982;   -3.745;  760.690
383.400;  -11.339;   -7.745;  672.281
383.994;  -13.440;   -9.765;  664.870
384.588;   -9.709;   -6.564;  697.701
385.182;   -7.890;   -5.344;  726.624
385.776;   -9.347;   -8.514;  706.875
386.370;  -13.268;   -9.555;  681.968
386.964;  -11.903;   -8.715;  684.155
387.558;   -9.506;   -6.174;  598.360
388.152;  -13.687;   -8.725;  681.959
388.745;  -11.843;   -7.965;  814.707
389.339;  -10.081;   -5.924;  747.642
389.933;   -9.507;   -5.524;  695.370
390.527;  -10.242;   -7.114;  859.029
391.120;  -17.309;  -10.725;  595.318
391.714;  -13.313;   -8.035;  711.633
392.308;  -10.345;   -3.574;  780.253
392.901;  -14.318;   -7.245;  642.460
393.495;  -15.636;   -9.285;  595.414
394.089;  -13.760;   -5.895;  760.452
394.682;  -13.994;   -4.295;  697.188
395.275;  -15.059;   -9.875;  719.927
395.869;  -16.240;   -8.485;  667.314
396.462;  -14.858;   -7.455;  616.609
397.056;  -10.021;   -5.424;  776.621
397.649;  -15.137;   -6.605;  731.575
398.242;  -13.167;   -8.224;  712.645
398.836;  -12.367;   -7.474;  766.408
399.429;  -12.990;   -7.094;  631.041
400.022;  -16.261;   -9.475;  665.902
400.615;  -14.143;   -7.145;  805.609
401.208;  -12.490;   -7.174;  691.451
401.802;  -14.730;   -5.515;  699.329
402.395;  -15.273;   -9.875;  683.502
402.988;  -16.939;   -8.845;  696.627
403.581;  -14.329;   -8.874;  646.878
404.174;  -10.964;   -5.324;  686.568
404.767;  -14.222;   -9.575;  638.583
405.360;  -16.010;  -10.965;  621.445
405.953;  -11.251;   -8.764;  759.034
406.545;  -10.904;   -7.514;  725.342
407.138;  -14.556;  -10.025;  618.350
407.731;  -13.830;  -10.034;  613.303
408.324;   -9.935;   -9.374;  660.554
408.917;  -10.274;   -6.534;  681.864
409.509;  -12.182;   -8.004;  740.396
410.102;  -14.166;   -9.875;  643.948
410.695;   -8.035;   -8.604;  665.758
411.287;   -9.521;   -6.794;  599.821
411.880;  -10.526;   -9.334;  585.421
412.472;  -13.397;  -10.254;  613.092
413.065;  -10.665;   -6.714;  629.408
413.657;   -8.782;   -7.234;  576.678
414.250;   -8.038;  -10.544;  646.681
414.842;  -10.953;   -9.744;  676.353
415.434;   -8.027;   -6.994;  570.463
416.027;   -4.495;   -5.893;  652.196
416.619;   -5.643;   -7.264;  713.400
417.211;   -6.847;  -10.374;  599.352
417.804;   -3.511;   -7.993;  628.499
418.396;   -6.629;   -7.234;  607.643
418.988;   -5.056;   -9.443;  659.238
419.580;   -8.250;  -10.724;  568.276
420.172;   -6.586;  -10.323;  536.196
420.764;   -1.086;   -8.793;  672.482
421.356;   -2.669;  -11.143;  636.898
421.948;   -3.998;   -8.293;  677.661
422.540;    1.141;   -7.893;  680.027
423.132;    0.455;   -7.082;  600.641
423.724;   -2.715;   -8.653;  561.267
424.316;   -1.245;  -10.213;  621.345
424.908;    2.387;   -9.762;  591.517
425.500;    2.625;   -5.572;  647.978
426.092;    3.429;   -8.422;  648.268
426.683;    1.909;   -9.283;  684.836
427.275;    5.205;   -7.852;  641.471
427.867;    7.201;   -5.272;  668.948
428.458;    8.285;   -7.682;  732.344
429.050;    5.849;  -10.612;  680.749
429.642;    7.114;   -9.882;  743.124
430.233;    8.631;   -6.962;  569.356
430.825;   10.924;   -6.842;  724.809
431.416;    7.086;   -9.672;  698.241
432.008;   10.477;   -6.552;  651.723
432.599;   11.740;   -6.891;  656.073
433.190;    8.323;  -10.912;  637.670
433.782;    7.071;  -11.172;  590.395
434.373;   15.003;   -6.061;  884.765
434.964;   14.173;   -8.251;  602.920
435.556;   11.787;   -9.722;  634.537
436.147;   14.687;   -9.082;  758.490
436.738;   14.390;   -8.041;  701.099
437.329;   19.417;   -7.341;  721.723
437.920;   12.615;   -8.162;  666.688
438.511;   12.588;  -11.802;  564.526
439.103;   18.124;  -10.191;  623.998
439.694;   20.701;   -7.601;  681.583
440.285;   21.762;   -8.541;  764.432
440.876;   19.519;   -9.751;  845.738
441.466;   19.269;   -9.401;  575.162
442.057;   24.807;   -7.760;  665.814
442.648;   23.396;   -9.971;  746.255
443.239;   21.571;  -11.001;  620.477
443.830;   26.080;   -7.990;  704.958
444.421;   28.556;   -7.910;  655.474
445.011;   24.340;   -8.131;  693.619
445.602;   24.284;   -7.111;  743.126
446.193;   25.987;  -10.920;  488.117
446.783;   31.466;   -6.500;  640.397
447.374;   26.160;   -8.671;  692.759
447.964;   26.702;  -10.781;  713.770
448.555;   35.487;   -9.650;  822.742
449.145;   32.044;   -8.660;  662.853
449.736;   32.713;   -8.990;  803.179
450.326;   32.492;   -9.500;  713.626
450.917;   37.413;   -8.680;  675.324
451.507;   36.862;   -7.520;  600.661
452.097;   37.488;   -8.590;  746.267
452.688;   38.366;  -11.340;  742.160
453.278;   37.962;  -10.100;  566.840
453.868;   41.847;   -6.019;  793.550
454.458;   40.946;   -9.440;  651.141
455.048;   40.236;  -10.560;  711.783
455.639;   41.840;  -11.799;  567.096
456.229;   45.735;   -6.899;  710.694
456.819;   48.540;   -7.389;  751.158
457.409;   48.501;  -11.119;  773.993
457.999;   49.989;   -9.289;  737.505
458.589;   51.018;   -6.139;  686.606
459.179;   50.578;   -8.729;  717.658
459.769;   48.377;   -9.789;  627.099
460.358;   53.393;  -10.259;  797.262
460.948;   53.324;   -7.299;  689.503
461.538;   54.993;  -10.289;  660.677
462.128;   52.098;  -11.269;  664.934
462.717;   58.588;   -9.368;  710.326
463.307;   62.817;   -7.908;  705.846
463.897;   58.809;   -9.599;  656.942
464.486;   57.172;   -9.769;  837.128
465.076;   62.032;   -8.048;  733.776
465.666;   65.525;   -9.358;  652.900
466.255;   62.769;   -7.919;  785.651
466.845;   61.383;  -11.689;  666.749
467.434;   65.574;   -7.818;  725.873
468.023;   66.435;   -7.678;  658.357
468.613;   63.855;  -10.939;  713.946
469.202;   68.029;  -10.118;  646.507
469.791;   71.982;   -9.108;  737.811
470.381;   73.696;   -6.058;  742.813
470.970;   73.773;  -10.428;  711.099
471.559;   73.893;  -10.268;  733.291
472.148;   76.503;   -8.448;  675.737
472.738;   78.765;   -6.917;  765.466
473.327;   79.316;  -11.978;  637.529
473.916;   78.341;  -11.888;  737.446
474.505;   82.066;   -9.437;  751.703
475.094;   85.358;   -6.747;  806.570
475.683;   84.582;   -9.367;  797.699
476.272;   85.678;  -12.637;  730.632
476.861;   87.886;  -10.027;  706.754
477.449;   95.492;   -8.716;  728.487
478.038;   89.888;   -9.577;  692.513
478.627;   89.876;   -9.718;  714.852
479.216;   96.697;   -8.947;  769.441
479.805;  100.611;   -6.256;  783.375
480.393;  100.060;   -7.937; 1008.945
480.982;   99.031;   -7.717;  874.501
481.571;  105.305;   -9.266;  858.333
482.159;  105.915;   -7.636;  705.386
482.748;  106.158;   -9.667;  821.385
483.336;  109.558;  -10.376;  858.209
483.925;  110.860;   -7.147;  774.373
484.513;  117.581;   -7.996;  758.962
485.102;  113.563;  -10.027;  810.965
485.690;  122.239;  -10.446; 1011.050
486.278;  124.414;   -8.446;  979.329
486.867;  125.016;   -6.356;  809.662
487.455;  126.561;   -9.136;  898.229
488.043;  126.767;  -10.646;  748.361
488.631;  136.835;   -7.456; 1005.079
489.220;  141.310;   -6.636;  908.626
489.808;  141.427;  -11.036;  741.415
490.396;  148.821;  -10.246;  914.645
490.984;  153.793;   -8.556;  830.161
491.572;  163.954;   -5.886;  940.315
492.160;  169.741;   -9.486;  919.081
492.748;  180.912;  -10.976;  884.341
493.336;  203.132;   -8.776; 1019.693
493.924;  229.121;   -5.465;  958.077
494.512;  256.814;   -9.986; 1066.638
495.100;  290.497;  -10.636; 1103.280
495.687;  345.786;  -10.885; 1206.373
496.275;  406.043;   -8.126; 1150.796
496.863;  475.242;  -10.586; 1281.171
497.451;  570.252;  -11.926; 1386.805
498.038;  700.166;  -10.885; 1556.729
498.626;  805.422;   -6.315; 1741.407
499.214;  957.854;   -7.326; 2016.609
499.801; 1155.325;  -11.906; 2220.633
500.389; 1386.075;  -10.466; 2312.494
500.976; 1666.523;   -5.236; 2744.849
501.564; 2093.097;   -8.936; 3148.565
502.151; 2437.417;  -13.176; 3515.999
502.738; 2831.165;  -10.646; 3971.274
503.326; 3239.335;   -9.525; 4403.796
503.913; 3648.756;  -10.856; 5161.749
504.500; 4026.641;  -11.586; 5986.420
505.088; 4401.358;  -10.336; 6381.201
505.675; 4938.827;   -6.355; 6925.547
506.262; 5584.696;   -9.046; 7619.060
506.849; 6288.649;  -10.416; 8733.969
507.436; 6817.603;  -10.305; 9790.121
508.023; 7381.357;   -5.496; 9985.472
508.610; 7628.690;   -7.856;10434.618
509.197; 8215.128;  -10.097;11198.435
509.784; 9507.440;  -10.886;12391.194
510.371;10694.115;   -9.315;13603.713
510.958;11460.267;   -9.936;14426.586
511.545;12147.223;   -9.326;15243.775
512.132;12944.866;  -10.075;15945.876
512.719;13385.981;   -7.796;16340.369
513.305;14476.915;  -10.606;18011.766
513.892;15206.132;  -11.486;19754.971
514.479;16356.903;   -9.126;20967.805
515.066;17910.197;   -6.026;22299.793
515.652;19657.707;   -8.466;22908.660
516.239;20820.105;  -10.886;23798.875
516.825;21422.975;  -11.496;25567.275
517.412;22374.947;   -5.796;28154.959
517.998;23255.133;  -10.506;28344.111
518.585;23350.467;  -10.076;27134.219
519.171;23931.383;   -8.315;27268.576
519.758;25755.566;   -8.596;28964.129
520.344;27843.504;   -8.466;30664.494
520.930;27528.338;  -11.006;32550.605
521.516;28266.799;  -10.495;35422.895
522.103;29930.930;   -5.526;38280.004
522.689;30409.299;   -8.746;37835.117
523.275;30216.979;  -11.376;37288.613
523.861;32099.447;  -11.156;37281.395
524.447;34047.613;   -8.135;37846.949
525.033;33895.180;   -7.896;38321.949
525.619;34027.152;  -12.476;38579.285
526.205;35239.609;   -9.516;40622.875
526.791;38130.871;   -6.926;42258.836
527.377;38128.863;   -8.346;42966.902
527.963;38831.695;   -8.717;42018.949
528.549;38295.566;  -11.016;42476.828
529.135;37183.789;   -8.536;41854.852
529.721;36065.281;   -9.666;41237.711
530.306;35303.559;  -10.066;41259.445
530.892;34954.590;  -11.356;41506.047
531.478;36095.496;   -6.596;43559.613
532.063;39601.527;   -8.836;47695.563
532.649;41126.887;  -10.047;50808.324
533.235;41497.898;   -9.746;51787.500
533.820;41168.973;   -6.566;52145.035
534.406;42532.375;  -10.817;51133.488
534.991;42495.695;   -9.416;49996.805
535.576;40649.637;   -9.036;48882.852
536.162;41512.973;   -6.156;46942.285
536.747;42842.367;  -11.607;45711.746
537.333;45341.906;  -11.787;48510.180
537.918;48143.430;  -12.437;50439.891
538.503;47820.230;   -7.196;50863.711
539.088;44582.031;  -10.556;50906.922
539.673;44396.609;   -8.767;52621.965
540.259;45140.867;  -10.026;52368.094
540.844;42892.363;   -7.416;50879.109
541.429;44878.816;   -9.467;52077.777
542.014;46835.102;   -9.527;52716.695
542.599;45583.461;   -9.946;52363.281
543.184;42492.961;   -7.927;53187.137
543.769;43536.535;   -9.297;54697.605
544.354;43880.379;  -10.127;53913.914
544.938;42565.234;   -9.267;49680.164
545.523;44201.113;   -6.506;47386.277
546.108;47151.266;   -9.787;49151.949
546.693;48847.887;  -11.587;51384.637
547.278;49149.957;  -10.986;51853.254
547.862;46653.609;   -8.206;51173.750
548.447;42366.238;  -10.067;51691.395
549.031;41291.902;   -9.637;52456.703
549.616;45521.402;   -9.926;52714.516
550.201;45572.953;   -6.347;52414.598
550.785;46949.297;   -7.917;52355.059
551.370;46007.410;  -10.867;54589.453
551.954;45185.207;   -9.047;58267.348
552.538;46042.227;   -7.827;59062.176
553.123;44702.648;  -10.287;58115.285
553.707;42280.918;  -12.178;56556.285
554.291;43879.020;   -8.717;56201.668
554.876;47330.629;   -7.457;55335.762
555.460;47430.230;  -10.387;54155.703
556.044;47240.066;   -9.618;53721.484
556.628;45039.707;  -11.567;53731.016
557.212;43763.754;   -8.097;54312.531
557.796;42773.977;  -11.077;53797.773
558.380;43289.633;  -11.108;56145.984
558.964;43507.133;   -9.057;57277.930
559.548;44434.500;   -6.977;56459.641
560.132;42366.816;  -11.457;54434.543
560.716;40486.883;  -11.378;54800.617
561.300;41380.734;   -9.577;57606.945
561.884;42557.320;   -7.127;58972.445
562.467;40568.410;   -7.118;57327.570
563.051;39885.156;  -13.358;54962.434
563.635;41678.324;  -10.178;52594.473
564.219;42404.965;   -7.837;50610.410
564.802;43207.230;  -11.398;49551.180
565.386;42501.617;  -12.788;48370.953
565.969;41628.395;   -9.077;48178.871
566.553;40185.137;   -6.207;49957.305
567.136;41223.074;   -8.568;50369.594
567.720;38536.945;  -11.868;49492.004
568.303;36473.094;   -8.268;50616.352
568.887;36433.707;   -8.698;50727.148
569.470;37105.988;   -6.808;51698.379
570.053;36410.328;  -13.188;52122.078
570.637;33855.000;  -12.037;52536.438
571.220;33594.152;   -8.577;51186.098
571.803;34756.246;   -8.498;51032.762
572.386;36704.043;  -10.498;49609.887
572.969;39017.176;   -9.388;48285.926
573.552;37695.414;   -8.338;47624.285
574.135;35997.031;   -8.518;45498.641
574.718;33570.668;  -13.628;41970.434
575.301;33126.961;  -10.893;41447.137
575.884;32683.254;   -8.158;40923.836
576.467;33782.477;  -10.328;45267.723
577.050;35016.035;  -13.058;48175.543
577.633;35942.664;   -9.458;47729.328
578.216;35290.594;   -8.928;47579.793
578.799;34403.949;   -9.358;47820.996
579.381;33385.160;  -11.388;48115.551
579.964;30950.783;  -11.718;47333.766
580.547;32716.145;   -8.588;46668.969
581.129;33657.680;   -8.859;44466.141
581.712;34798.855;  -10.729;44164.922
582.294;35251.070;  -11.118;46477.855
582.877;35166.852;   -5.218;48244.254
583.459;33640.395;   -8.679;47437.895
584.042;31451.357;  -10.709;46943.219
584.624;30808.117;  -11.669;46792.227
585.206;30332.609;   -8.218;46557.250
585.789;29812.141;  -10.569;45793.773
586.371;30369.771;  -11.859;43836.391
586.953;28693.061;  -10.719;42972.492
587.536;27840.604;   -7.198;42487.211
588.118;29935.105;   -8.720;42086.414
588.700;29776.980;  -10.439;43389.930
589.282;31039.020;   -9.198;43646.039
589.864;32990.637;   -9.199;43438.109
590.446;34545.949;  -11.319;43151.926
591.028;34579.891;  -11.159;42781.867
591.610;33213.340;  -11.779;42839.098
592.192;30295.236;   -7.668;42820.402
592.774;28942.896;  -11.949;40724.277
593.356;28007.029;  -12.129;39874.789
593.937;27011.109;  -10.669;39980.648
594.519;29103.381;   -6.509;42069.633
595.101;31119.650;  -10.849;42976.031
595.683;31135.631;  -11.679;44084.441
596.264;31877.055;   -9.049;43478.797
596.846;32098.723;   -8.849;43803.672
597.427;32257.809;   -9.570;42986.934
598.009;33418.922;  -12.620;42832.219
598.591;33622.957;  -10.039;42580.086
599.172;33406.207;  -10.369;43061.805
599.753;33466.734;   -9.140;41691.469
600.335;34575.480;  -11.430;40692.520
600.916;32645.480;   -9.939;39982.422
601.498;30666.182;   -8.479;40318.617
602.079;29308.615;  -10.920;40670.609
602.660;28849.510;  -11.480;41450.898
603.241;30659.463;  -11.699;41137.738
603.823;29515.289;   -9.579;38868.797
604.404;28272.582;  -10.620;38182.785
604.985;30038.018;  -10.450;38078.047
605.566;30533.326;   -9.129;38056.633
606.147;30501.580;   -7.510;37020.418
606.728;31713.898;  -10.660;37883.359
607.309;30274.484;  -11.740;38748.273
607.890;30332.109;   -9.759;38850.230
608.471;29878.629;   -8.250;37457.918
609.051;28996.377;   -9.240;36066.457
609.632;27737.260;  -12.120;35991.074
610.213;27809.584;   -9.110;37402.641
610.794;28736.488;   -8.030;38383.363
611.374;28829.506;   -8.110;40562.387
611.955;29957.764;  -13.560;38533.727
612.536;31337.150;  -11.400;36951.789
613.116;30604.682;   -8.070;37197.891
613.697;30806.186;  -10.830;38411.125
614.277;28972.602;  -11.641;38673.938
614.858;29759.666;  -13.310;37075.863
615.438;29533.227;   -7.460;35092.906
616.019;27543.707;   -7.601;33666.301
616.599;27732.521;  -12.020;34189.023
617.179;29308.018;  -11.780;36952.047
617.760;30625.105;   -8.570;39582.574
618.340;31347.328;  -11.471;38943.977
618.920;32079.043;  -11.170;37594.156
619.500;32195.463;  -11.071;37866.938
620.080;31149.779;   -7.750;37869.043
620.660;32063.414;  -12.711;36868.617
621.241;33725.172;  -10.211;36352.309
621.821;34426.453;  -10.961;35459.520
622.401;33227.203;   -7.720;35207.414
622.980;31953.213;   -8.981;35980.422
623.560;30605.234;   -9.331;37351.328
624.140;29209.463;   -9.850;34388.582
624.720;24626.680;   -7.451;32368.764
625.300;21413.797;   -9.070;32638.629
625.880;24747.977;  -12.601;34599.035
626.459;28789.461;  -11.751;36831.738
627.039;31460.287;   -9.281;38299.098
627.619;31299.676;   -8.801;38289.574
628.198;29864.816;  -12.071;37220.695
628.778;28921.055;   -9.461;37632.563
629.357;29465.318;   -8.491;38003.012
629.937;29719.158;   -9.721;38402.039
630.516;29279.166;   -9.951;37868.801
631.096;29145.018;  -11.731;35760.410
631.675;31029.262;   -8.572;35225.219
632.254;36066.801;  -11.282;35130.289
632.834;35852.535;  -13.322;35794.570
633.413;34337.191;  -10.301;35788.922
633.992;32121.914;   -8.582;34532.863
634.571;32375.459;   -8.352;33590.113
635.151;34975.527;  -11.912;34943.863
635.730;33763.266;  -10.511;35352.523
636.309;30544.326;   -7.731;35366.605
636.888;27797.367;   -9.952;36165.637
637.467;27866.389;  -11.672;37515.902
638.046;29146.797;   -8.901;39288.695
638.625;31925.820;   -7.912;38279.699
639.204;31978.350;  -10.022;37741.598
639.782;31145.535;  -12.252;38364.551
640.361;27604.314;  -10.041;36740.621
640.940;25058.121;  -11.161;34950.082
641.519;25880.588;   -9.701;34137.398
642.097;28587.432;  -11.271;35654.258
642.676;31126.752;   -8.651;35637.957
643.255;32586.398;   -8.711;36567.074
643.833;32187.887;   -9.581;37809.434
644.412;32128.014;  -13.711;37337.293
644.990;30868.691;  -11.811;37018.531
645.569;30382.658;   -9.411;36518.469
646.147;30092.650;  -10.291;36186.430
646.726;30650.664;  -12.401;36267.688
647.304;31787.037;  -10.411;36647.625
647.882;32879.742;   -9.651;39286.742
648.461;34348.934;   -9.631;39157.703
649.039;32797.195;  -11.881;35412.883
649.617;31724.432;   -9.661;34744.918
650.195;30810.834;   -9.301;35403.098
650.773;29602.125;  -10.511;35053.797
651.352;27363.055;  -11.521;33756.816
651.930;25010.258;  -12.211;31868.773
652.508;23465.367;   -9.171;33121.551
653.086;27169.445;   -9.371;33564.793
653.663;30479.883;  -13.161;34054.668
654.241;29089.898;  -13.031;35693.309
654.819;30137.563;   -9.371;36422.906
655.397;30019.371;  -10.511;38213.484
655.975;29521.430;  -10.371;39507.625
656.553;29304.461;  -10.051;39498.223
657.130;28040.955;  -10.061;40395.480
657.708;27235.254;   -9.561;39242.020
658.286;27346.143;  -11.511;38920.020
658.863;28612.510;  -10.261;40202.898
659.441;31949.549;   -7.531;39677.938
660.018;32075.398;   -9.501;40413.355
660.596;30501.484;  -13.301;39931.414
661.173;31796.158;  -11.211;39604.531
661.750;32301.879;   -9.951;39700.070
662.328;31179.727;   -9.390;39292.809
662.905;30304.779;  -11.330;38235.648
663.482;26471.631;   -9.050;36212.305
664.060;24559.268;   -8.240;35944.945
664.637;27248.984;  -10.050;35170.785
665.214;28511.711;  -11.760;34197.523
665.791;30125.563;  -10.530;34549.520
666.368;29508.240;   -9.690;35118.578
666.945;29921.609;   -9.320;36019.418
667.522;31411.186;  -11.860;36048.438
668.099;31076.951;  -10.770;36243.914
668.676;29739.369;   -6.260;35958.875
669.253;28488.451;   -7.000;37384.730
669.830;28618.676;  -10.190;36779.629
670.407;28573.705;   -9.550;35231.289
670.984;28513.967;   -9.260;35544.270
671.560;29625.598;   -9.280;35466.867
672.137;29113.092;  -11.810;34280.863
672.714;29890.744;  -11.490;34632.863
673.290;31171.838;   -7.740;35135.422
673.867;31199.457;  -10.660;36114.480
674.443;31074.457;  -12.230;36152.859
675.020;29122.240;  -10.450;35327.238
675.596;29880.736;   -9.260;35795.176
676.173;30535.076;  -10.780;35430.355
676.749;30217.471;  -13.690;33549.516
677.326;29908.203;  -11.980;32210.012
677.902;29738.121;   -8.630;32068.871
678.478;29207.732;  -10.730;32583.891
679.054;28146.057;  -10.520;32088.928
679.631;28543.617;  -11.920;30978.848
680.207;29980.295;   -7.490;33160.887
680.783;31345.664;   -9.860;35570.363
681.359;30386.488;  -13.380;36125.184
681.935;30169.385;  -12.480;35240.922
682.511;30397.063;   -7.900;34429.961
683.087;30909.389;   -7.710;34463.680
683.663;30067.305;  -11.480;34648.898
684.239;28633.582;  -14.090;34546.457
684.815;27895.479;   -7.560;35586.375
685.390;27929.746;   -9.910;35821.895
685.966;28587.676;  -11.159;35085.871
686.542;30937.773;  -11.169;34198.230
687.118;33389.098;   -5.959;32847.707
687.693;34015.637;  -10.329;32794.027
688.269;33587.016;  -12.059;33072.367
688.844;31853.168;  -10.909;33141.664
689.420;30015.813;   -8.019;33965.742
689.995;28399.809;   -8.399;34655.523
690.571;26998.240;  -10.949;33576.742
691.146;26819.295;   -9.619;32657.219
691.722;26761.057;   -8.999;32526.979
692.297;26094.320;  -11.589;33014.617
692.872;27135.682;  -11.739;34012.254
693.448;27105.807;  -11.059;34237.434
694.023;26161.383;  -10.139;34142.672
694.598;28037.834;   -9.029;34132.031
695.173;28868.766;  -13.319;34205.250
695.748;27814.480;  -10.169;32882.488
696.323;27695.629;   -8.339;32864.906
696.898;27947.119;   -8.169;33170.004
697.473;28282.408;  -12.309;32432.984
698.048;27691.207;  -10.989;31649.303
698.623;27285.414;   -9.329;30778.141
699.198;28508.385;   -9.849;31140.119
699.773;29905.844;  -12.329;31764.299
700.348;28778.801;  -10.389;31780.816
700.922;28879.121;   -9.269;32046.375
701.497;30129.246;   -9.329;32603.574
702.072;30526.889;  -10.789;34799.871
702.646;29001.416;  -10.839;35793.172
703.221;26650.641;   -9.099;35201.590
703.795;28343.201;  -10.939;34764.527
704.370;28808.469;  -12.859;34307.367
704.944;29038.748;  -11.559;33509.887
705.519;29595.107;   -7.939;31388.584
706.093;30664.594;  -10.499;31340.104
706.668;31217.861;  -11.289;32630.281
707.242;30081.600;  -11.509;32728.779
707.816;28832.879;   -9.639;32947.238
708.390;27498.514;  -11.429;33277.855
708.965;27991.955;  -11.869;33834.336
709.539;27873.541;  -11.689;33709.273
710.113;27823.609;  -10.478;33044.313
710.687;27374.398;  -10.228;31953.992
711.261;26000.723;  -13.698;30505.949
711.835;25714.635;  -13.378;30262.369
712.409;25831.740;   -9.698;31254.447
712.983;27837.301;  -11.898;32754.986
713.557;29250.861;  -15.138;34018.824
714.131;29211.756;  -14.098;34579.625
714.704;28226.596;   -9.958;33890.262
715.278;25673.645;  -10.028;33531.102
715.852;24441.902;  -11.148;33601.660
716.425;25526.529;   -9.068;33515.117
716.999;26746.416;  -10.038;33185.555
717.573;27685.537;   -9.798;33905.996
718.146;28759.609;  -12.378;35199.293
718.720;28927.064;  -11.918;35060.551
719.293;29014.211;   -8.088;34973.230
719.867;32085.033;  -10.888;36394.449
720.440;31894.357;  -11.938;36663.008
721.013;30049.893;  -12.818;35102.426
721.587;28327.113;  -10.298;33985.266
722.160;26994.662;  -10.048;33524.965
722.733;25963.729;  -12.108;32987.043
723.306;26175.531;  -10.818;33066.301
723.880;28274.146;   -8.908;33399.500
724.453;30763.379;   -9.878;33468.297
725.026;30243.602;  -11.188;33816.637
725.599;27287.195;  -11.678;32797.996
726.172;26949.051;   -9.618;33187.434
726.745;27946.359;   -8.258;35136.613
727.318;29091.859;  -12.978;35751.730
727.891;29889.891;  -12.148;35890.430
728.463;29486.127;   -8.968;34822.090
729.036;28153.943;  -10.188;32895.086
729.609;28662.064;  -11.788;31823.225
730.182;26048.654;  -11.788;31445.283
730.754;23691.078;  -10.268;32373.223
731.327;24079.055;   -9.998;33676.820
731.900;24452.883;  -12.228;33417.000
732.472;24891.412;  -13.848;31978.498
733.045;26282.895;   -8.698;30368.777
733.617;26438.037;  -10.607;30574.215
734.190;26924.695;  -11.507;31280.975
734.762;24840.689;  -13.647;31674.412
735.334;22889.402;   -9.767;31247.291
735.907;23117.008;   -9.897;29876.211
736.479;23483.811;  -11.637;29808.488
737.051;23221.148;   -9.567;30233.547
737.623;23719.043;   -8.187;31469.086
738.195;23900.004;  -11.187;31784.225
738.768;25760.713;  -12.337;32120.523
739.340;26917.186;  -12.227;32094.342
739.912;26368.416;  -11.057;31312.680
740.484;24935.215;  -10.207;31946.238
741.056;23030.348;  -10.047;32984.059
741.628;23912.764;  -13.627;33897.715
742.199;25935.293;   -7.177;33213.016
742.771;24885.086;  -10.797;31369.113
743.343;23049.580;  -11.997;31865.473
743.915;22060.420;  -12.867;32388.631
744.487;21889.430;   -7.617;31079.568
745.058;21933.605;   -9.557;30570.107
745.630;22560.707;   -9.877;29970.127
746.201;24018.605;  -14.177;29186.766
746.773;24975.117;   -9.237;28805.723
747.344;24779.672;   -9.847;29591.223
747.916;22767.320;  -11.657;31412.201
748.487;22576.764;  -10.587;32194.898
749.059;23895.512;   -8.707;32533.719
749.630;24688.182;  -10.537;32158.518
750.201;23670.643;  -11.687;30855.395
750.773;21936.533;  -11.647;28622.555
751.344;21531.162;   -7.147;28405.732
751.915;22283.096;   -9.757;28461.551
752.486;22644.010;  -12.427;27842.850
753.057;20956.785;  -12.227;27845.008
753.628;19784.928;  -10.417;27728.107
754.199;20525.908;  -11.767;27381.086
754.770;21457.029;  -11.187;25882.203
755.341;21759.346;  -10.507;25886.184
755.912;22082.006;   -9.387;26050.861
756.483;21667.266;  -10.647;26798.779
757.054;19867.902;  -11.837;27048.238
757.625;18432.740;  -12.716;26294.838
758.195;18161.420;   -9.666;26142.076
758.766;17834.525;   -8.656;26392.234
759.337;18386.496;  -12.856;26334.594
759.907;19705.063;  -13.366;27579.652
760.478;20607.713;   -8.576;28352.770
761.048;20228.496;  -10.526;27325.088
761.619;19203.361;  -11.116;26460.428
762.189;19207.162;  -12.136;26029.826
762.760;20143.154;   -9.456;26430.145
763.330;21372.506;   -7.136;26670.902
763.900;21062.725;  -11.786;26603.021
764.471;18761.951;  -11.546;25542.740
765.041;17398.791;   -8.096;24358.459
765.611;17120.861;   -8.876;23991.297
766.181;17263.082;  -12.196;24470.236
766.751;18394.793;  -11.636;24845.975
767.321;18352.006;  -10.156;24533.633
767.891;16422.592;  -11.766;24916.492
768.461;15767.766;  -14.936;24776.771
769.031;16205.805;  -12.356;24757.988
769.601;17955.590;   -7.526;24181.088
770.171;18131.271;  -10.766;23670.387
770.741;17075.365;  -13.176;22960.045
771.311;16921.186;  -10.616;22917.523
771.880;17582.643;   -9.576;23562.941
772.450;17670.570;  -10.336;24216.500
773.020;17574.420;  -13.516;24140.398
773.589;16677.408;  -13.466;24414.857
774.159;15934.593;   -8.686;23858.717
774.729;15591.896;   -9.476;22942.135
775.298;15337.157;  -13.666;22324.033
775.867;14895.785;  -11.716;21140.313
776.437;15126.101;   -9.906;20838.092
777.006;14935.291;  -12.166;20599.510
777.576;14436.354;  -12.356;20508.809
778.145;14270.687;  -11.646;20732.947
778.714;14416.569;   -8.226;21062.465
779.283;13971.463;   -9.556;20949.664
779.853;13385.925;  -14.116;20508.623
780.422;13731.273;  -11.506;20649.082
780.991;13322.487;   -9.556;21527.520
781.560;12037.298;   -9.095;22632.658
782.129;11859.771;  -12.135;23048.277
782.698;11885.051;  -10.865;23438.555
783.267;11510.222;   -9.335;23267.734
783.836;11382.789;  -11.045;22415.133
784.404;12381.351;  -13.865;20443.152
784.973;13136.943;  -13.095;19699.150
785.542;13210.827;  -11.575;19763.828
786.111;12992.015;   -9.705;20341.408
786.679;12525.831;  -12.105;20207.967
787.248;12234.875;  -12.455;19516.465
787.817;12051.779;  -11.535;18900.363
788.385;11758.640;   -9.765;17879.121
788.954;11250.264;  -14.005;17658.301
789.522;10590.539;  -11.955;17788.879
790.090;10930.344;  -10.135;18118.277
790.659;11579.273;  -10.975;18338.736
791.227;11249.879;  -13.375;18508.615
791.795;11577.470;  -12.375;17898.254
792.364;11886.615;  -10.725;17295.133
792.932;12301.707;   -9.715;16822.051
793.500;12641.809;  -12.675;17040.148
794.068;12842.675;  -13.495;17179.787
794.636;13010.878;  -10.885;16664.246
795.204;12289.766;  -11.045;16524.545
795.772;12221.964;  -13.175;17274.564
796.340;11719.954;  -12.445;17891.002
796.908;11424.156;   -9.735;17648.561
797.476;11316.782;   -9.815;17064.080
798.044;10961.595;  -13.985;16672.777
798.612;10237.828;  -13.115;17023.996
799.180; 9819.978;  -10.185;16561.615
799.747; 9649.457;   -9.055;15962.773
800.315; 9337.313;  -12.385;15296.992
800.883; 9160.249;  -15.035;14801.771
801.450; 9412.359;  -10.365;14534.430
802.018; 9563.731;   -9.855;14173.248
802.585; 9565.214;  -11.905;14029.547
803.153; 9543.493;  -11.585;13836.846
803.720; 9348.175;   -9.095;13567.324
804.287; 8827.402;   -9.135;13360.622
804.855; 8269.558;  -11.604;13681.981
805.422; 8132.539;  -11.794;13536.560
805.989; 8230.092;  -10.734;13355.958
806.556; 8405.650;  -10.444;13747.896
807.124; 8655.458;  -12.764;13987.376
807.691; 8632.925;  -12.964;14038.674
808.258; 8464.542;  -11.134;14120.152
808.825; 8146.285;   -9.854;13860.111
809.392; 8269.097;  -10.504;13268.790
809.959; 7806.108;  -13.054;12680.389
810.526; 7249.458;   -8.294;12427.308
811.093; 7184.774;   -8.394;12030.105
811.659; 7848.980;  -12.304;11653.664
812.226; 8523.369;  -13.944;11637.183
812.793; 8350.631;  -10.484;11611.521
813.360; 7705.948;  -10.144;11885.181
813.926; 7355.361;  -11.684;12770.539
814.493; 7128.150;  -13.644;12677.638
815.060; 6700.935;   -9.724;11974.336
815.626; 6590.997;   -9.854;11594.715
816.193; 6921.317;  -13.254;11579.474
816.759; 6971.362;  -13.204;11666.972
817.325; 6995.871;   -9.434;11325.530
817.892; 7342.636;  -10.134;11105.369
818.458; 7796.167;  -13.474;10843.928
819.024; 7469.170;  -11.854;10714.406
819.591; 7173.067;  -10.244;10469.165
820.157; 6974.211;  -10.704;10235.523
820.723; 6442.997;  -12.324;10847.563
821.289; 6134.201;   -9.444;11040.980
821.855; 6095.654;   -8.374;10357.100
822.421; 6089.691;  -10.234; 9978.918
822.987; 6044.885;  -13.294; 9754.177
823.553; 5614.461;  -10.884;10065.755
824.119; 5352.961;   -8.884;10036.294
824.685; 5509.171;   -6.784;10029.192
825.251; 5692.321;  -12.004;10199.230
825.816; 5659.011;  -11.474; 9820.189
826.382; 5344.104;   -9.174; 9297.248
826.948; 5439.577;   -9.214; 9381.347
827.513; 5878.929;  -10.774; 9450.726
828.079; 5813.103;  -11.924; 9472.444
828.645; 5189.497;  -10.543; 9292.643
829.210; 4935.174;  -10.533; 9065.341
829.776; 4880.429;  -10.753; 9132.620
830.341; 4760.377;  -10.173; 9092.878
830.906; 4898.629;  -10.743; 9078.557
831.472; 5266.526;  -11.113; 8534.535
832.037; 5130.547;  -10.603; 8677.874
832.602; 4628.126;  -13.323; 8628.692
833.167; 4358.630;  -10.823; 8879.031
833.733; 4287.620;  -10.113; 9189.790
834.298; 4414.789;  -13.583; 9052.608
834.863; 4553.207;  -12.703; 8895.087
835.428; 4574.004;  -10.523; 8824.266
835.993; 4405.212;   -6.963; 8845.385
836.558; 4208.747;  -10.763; 8888.563
837.123; 4261.314;   -9.903; 8966.582
837.688; 4524.768;   -9.913; 8617.860
838.253; 4828.247;  -10.283; 8590.699
838.817; 5014.475;  -12.963; 8443.797
839.382; 4924.583;  -14.243; 8799.356
839.947; 4620.605;  -10.733; 8810.595
840.511; 4327.267;   -9.383; 8796.394
841.076; 3952.458;  -12.563; 8347.231
841.641; 4010.270;  -12.953; 8224.330
842.205; 4133.331;   -7.043; 8223.349
842.770; 4137.622;   -8.163; 8622.107
843.334; 4226.570;  -12.503; 8410.386
843.898; 4165.713;  -11.693; 8337.465
844.463; 4157.086;  -10.203; 8506.283
845.027; 3965.632;   -9.533; 8280.962
845.591; 3794.275;  -13.443; 8231.141
846.156; 3810.541;  -13.143; 7969.179
846.720; 3734.843;   -9.433; 7768.278
847.284; 3643.088;  -11.033; 7630.957
847.848; 3510.176;  -10.403; 7472.395
848.412; 3419.049;  -11.553; 7437.394
848.976; 3458.145;   -8.393; 7674.592
849.540; 3359.352;   -8.713; 7836.011
850.104; 3387.852;  -12.463; 7913.669
850.668; 3740.449;  -12.973; 7694.508
851.232; 3932.455;  -10.793; 7756.887
851.796; 3810.875;  -10.662; 7926.545
852.359; 3493.215;  -13.082; 7827.844
852.923; 3295.435;  -12.192; 7641.163
853.487; 3155.553;  -11.912; 7342.501
854.050; 3148.080;  -10.892; 7042.820
854.614; 3287.002;  -13.992; 7151.338
855.177; 3386.709;  -11.732; 7105.077
855.741; 3415.167;   -8.962; 6989.675
856.304; 3301.113;   -9.442; 6596.634
856.868; 3283.326;  -14.192; 6356.272
857.431; 3416.675;  -12.702; 6468.571
857.995; 3554.251;   -9.942; 6373.210
858.558; 3602.595;   -9.112; 6324.448
859.121; 3342.620;  -12.932; 6408.327
859.684; 3147.567;  -13.442; 6347.886
860.247; 3243.271;  -10.632; 6321.264
860.810; 3289.999;  -11.272; 6301.903
861.374; 3049.695;   -9.832; 6607.881
861.937; 2779.162;  -11.762; 6408.200
862.500; 2777.028;   -9.722; 6572.639
863.062; 2912.014;  -10.512; 6387.297
863.625; 3045.809;  -11.232; 6190.836
864.188; 3210.026;  -14.112; 5807.254
864.751; 3298.571;  -11.302; 5682.413
865.314; 3225.868;  -10.112; 5547.492
865.876; 2992.955;  -12.182; 5500.150
866.439; 2938.496;  -10.722; 5415.909
867.002; 2902.747;   -9.252; 5501.567
867.564; 2726.253;   -9.572; 5413.946
868.127; 2524.788;  -13.142; 5160.325
868.689; 2403.249;  -12.902; 5133.183
869.252; 2297.829;   -9.732; 5252.382
869.814; 2193.029;   -9.432; 5297.141
870.377; 2187.050;  -11.552; 5390.919
870.939; 2242.994;   -9.052; 5599.898
871.501; 2314.542;  -10.982; 5248.336
872.063; 2336.118;  -12.292; 4854.235
872.626; 2274.427;  -14.912; 4817.074
873.188; 2253.682;  -13.112; 4987.732
873.750; 2228.788;  -13.442; 4868.651
874.312; 2146.415;   -9.402; 4779.330
874.874; 2067.418;  -11.062; 4866.348
875.436; 1987.889;  -13.931; 4718.887
875.998; 1982.955;   -9.561; 4660.005
876.560; 2017.533;  -11.321; 4462.964
877.122; 1956.848;  -12.221; 4145.042
877.683; 1835.935;  -12.191; 4056.481
878.245; 1744.994;  -12.101; 3950.740
878.807; 1785.459;   -8.971; 4058.958
879.369; 1814.815;  -12.071; 3954.677
879.930; 1725.953;  -14.621; 3941.495
880.492; 1655.796;  -10.311; 4067.014
881.053; 1627.636;  -10.901; 3859.633
881.615; 1534.727;  -14.411; 3776.071
882.176; 1430.845;  -13.761; 3734.750
882.738; 1370.479;   -9.181; 3678.489
883.299; 1346.100;  -11.791; 3405.407
883.860; 1330.737;  -13.121; 3351.106
884.422; 1317.738;  -11.211; 3394.044
884.983; 1282.980;  -10.091; 3166.443
885.544; 1217.713;   -8.461; 3189.802
886.105; 1140.398;  -12.361; 3160.360
886.666; 1069.488;  -14.141; 3093.059
887.227; 1003.567;  -11.361; 2941.957
887.788;  942.495;  -11.401; 2974.836
888.349;  873.383;  -13.791; 2721.214
888.910;  862.596;  -13.191; 2696.493
889.471;  866.403;   -9.881; 2560.172
890.032;  848.393;   -9.881; 2558.190
890.593;  818.874;  -10.371; 2567.669
891.153;  790.851;  -13.301; 2460.307
891.714;  744.957;  -11.431; 2372.046
892.275;  712.294;  -11.291; 2309.505
892.835;  679.329;  -11.471; 2382.543
893.396;  629.386;  -11.541; 2295.502
893.956;  572.929;  -11.181; 2162.420
894.517;  530.447;  -11.741; 2125.439
895.077;  520.273;  -11.671; 2086.978
895.638;  522.582;  -11.311; 2126.316
896.198;  497.352;   -9.831; 1838.275
896.758;  455.065;   -8.421; 1892.813
897.319;  421.707;  -12.351; 1792.232
897.879;  405.797;  -13.511; 1762.751
898.439;  381.100;  -12.001; 1661.149
898.999;  356.677;  -10.180; 1781.468
899.559;  345.174;  -12.030; 1703.347
900.119;  340.449;  -15.710; 1537.525
900.679;  336.286;   -8.900; 1638.384
901.239;  321.443;   -8.340; 1527.902
901.799;  311.340;  -13.910; 1456.441
902.359;  303.553;  -13.460; 1357.140
902.919;  296.700;  -11.490; 1331.118
903.479;  284.600;  -12.110; 1317.257
904.038;  264.223;  -11.720; 1262.595
904.598;  247.892;  -13.610; 1152.034
905.158;  243.690;  -11.040; 1240.893
905.717;  239.646;  -10.900; 1233.691
906.277;  229.196;  -15.080; 1217.330
906.836;  218.044;  -13.380; 1222.408
907.396;  209.335;  -10.780; 1193.047
907.955;  201.982;   -8.500; 1182.526
908.515;  195.951;  -12.760; 1099.364
909.074;  190.405;  -11.900; 1092.863
909.633;  183.730;   -8.950; 1069.121
910.192;  179.429;   -8.770; 1196.460
910.752;  174.451;  -12.390; 1029.960
911.311;  169.110;  -13.680; 1009.780
911.870;  166.551;  -12.370;  971.460
912.429;  167.863;  -10.900; 1094.080
912.988;  166.699;  -11.690; 1081.060
913.547;  162.807;  -13.240;  940.380
914.106;  158.173;  -11.990;  999.420
914.665;  154.917;   -9.990;  984.020
915.224;  154.027;  -12.880; 1035.760
915.782;  153.032;  -12.350;  922.560
916.341;  152.286;   -9.110; 1049.840
916.900;  149.314;   -9.270;  925.260
917.458;  147.282;  -13.240;  884.220
918.017;  146.129;  -13.550;  942.600
918.576;  145.883;  -12.320;  904.440
919.134;  145.272;  -11.490;  837.980
919.693;  142.683;  -13.670;  893.060
920.251;  141.010;  -15.470;  876.500
920.809;  140.455;  -11.290;  839.580
921.368;  141.300;  -10.210;  885.360
921.926;  138.944;  -12.140;  842.940
922.484;  137.482;  -13.080;  903.360
923.042;  136.555;  -11.720;  880.340
923.601;  140.279;   -7.480;  998.680
924.159;  138.862;  -11.570;  935.560
924.717;  134.224;  -13.840;  841.080
925.275;  134.383;  -10.640;  903.240
925.833;  134.528;  -11.540;  779.320
926.391;  135.372;  -12.960;  938.380
926.949;  133.018;  -14.130;  857.680
927.506;  134.452;  -11.750;  903.500
928.064;  134.403;  -10.250;  877.580
928.622;  133.241;  -13.030;  880.100
929.180;  132.849;  -13.400;  814.180
929.737;  133.930;  -10.700;  808.540
930.295;  137.485;  -10.070;  928.480
930.853;  140.033;  -11.960;  849.100
931.410;  140.168;  -13.120;  821.120
931.968;  139.308;  -10.770;  940.660
932.525;  139.883;  -10.680;  909.380
933.082;  140.281;  -13.130;  811.440
933.640;  141.461;  -13.210;  925.900
934.197;  139.716;  -11.060;  886.360
934.754;  141.023;   -9.580;  897.780
935.312;  144.007;  -14.000;  863.340
935.869;  147.381;  -10.710; 1012.980
936.426;  147.602;   -9.860;  872.800
936.983;  149.395;   -9.710;  889.020
937.540;  149.454;  -13.990;  838.280
938.097;  148.988;  -14.040;  940.120
938.654;  149.746;  -10.310;  898.860
939.211;  151.929;  -10.560;  952.480
939.768;  154.936;  -13.900;  915.420
940.324;  157.837;  -14.760;  904.200
940.881;  160.771;  -10.370;  878.500
941.438;  161.765;   -8.260; 1021.200
941.995;  157.627;  -12.540;  992.560
942.551;  154.694;  -14.670;  875.620
943.108;  153.832;  -10.450;  937.920
943.664;  156.552;  -10.750;  869.340
944.221;  160.085;  -11.550; 1088.140
944.777;  156.506;  -14.770;  869.680
945.334;  157.285;  -12.820;  884.840
945.890;  159.719;  -10.130;  946.480
946.446;  159.281;  -13.470;  947.020
947.003;  161.816;  -12.120;  964.940
947.559;  164.046;   -9.980; 1063.040
948.115;  164.379;   -9.080; 1026.540
948.671;  162.379;  -10.830;  967.300
949.227;  159.716;  -12.440;  859.560
949.783;  157.723;  -12.910;  858.900
950.339;  159.294;  -10.270;  991.000
950.895;  159.785;  -13.630; 1023.840
951.451;  158.061;  -15.100;  925.280
952.007;  157.718;  -11.330;  998.540
952.563;  157.279;  -10.580;  937.780
953.118;  156.318;  -13.440;  904.940
953.674;  155.223;  -12.710;  935.780
954.230;  155.482;  -10.350;  949.640
954.785;  153.351;   -9.190;  936.640
955.341;  150.529;  -11.200;  998.160
955.897;  148.967;  -16.560;  834.660
956.452;  151.123;  -12.570;  953.840
957.008;  151.530;   -7.970; 1083.640
957.563;  148.111;  -11.940; 1009.540
958.118;  142.190;  -13.450;  877.700
958.674;  143.485;  -12.030;  946.780
959.229;  145.183;   -9.410; 1013.980
959.784;  143.623;  -12.000;  832.400
960.339;  141.838;  -14.780; 1001.280
960.894;  138.819;   -9.860;  963.760
961.449;  135.388;   -9.970;  859.960
962.004;  135.684;  -10.900; 1212.840
962.559;  129.489;  -13.150;  860.140
963.114;  126.151;  -13.740;  742.480
963.669;  126.762;   -9.820;  915.500
964.224;  125.134;  -13.890;  874.340
964.779;  123.476;  -12.600;  828.420
965.334;  125.155;  -10.950; 1017.860
965.888;  124.387;  -11.170;  875.360
966.443;  128.143;  -12.540;  972.380
966.998;  128.603;  -15.780;  819.460
967.552;  127.152;   -9.760;  908.380
968.107;  123.447;   -9.060;  868.300
968.661;  124.848;  -11.950;  922.440
969.216;  125.023;  -12.800;  856.280
969.770;  125.306;  -11.210;  917.200
970.324;  124.279;  -11.610;  923.140
970.879;  121.095;  -11.370;  947.180
971.433;  118.652;  -12.540;  952.720
971.987;  112.905;  -11.320;  895.340
972.541;  110.247;  -10.720;  917.100
973.095;  109.228;   -9.680; 1009.460
973.649;  107.587;  -11.440;  809.480
974.203;  105.836;  -11.210;  829.040
974.757;  106.178;  -10.240;  855.220
975.311;  106.085;  -13.720;  872.600
975.865;  104.556;  -13.770;  881.820
976.419;  101.887;  -11.690;  857.400
976.973;   99.491;   -9.510;  849.620
977.526;   95.015;  -12.620;  949.920
978.080;   85.435;  -12.010;  796.780
978.634;   80.203;  -10.170;  921.320
979.187;   76.424;   -9.020;  905.400
979.741;   77.809;   -9.820; 1018.380
980.294;   75.408;  -14.870;  789.160
980.848;   75.403;  -12.380;  717.220
981.401;   78.967;  -10.350;  816.540
981.955;   82.183;  -13.720;  844.300
982.508;   81.839;  -11.490;  746.340
983.061;   82.424;  -10.000;  915.260
983.615;   81.206;  -11.480;  798.800
984.168;   79.122;  -13.220;  770.080
984.721;   78.880;  -13.960;  880.760
985.274;   78.638;  -10.870;  867.500
985.827;   77.990;   -9.790;  834.220
986.380;   76.375;  -13.120;  721.340
986.933;   76.190;  -12.450;  864.800
987.486;   74.392;  -10.210;  861.920
988.039;   74.678;   -8.430;  863.100
988.591;   72.923;  -10.520;  893.260
989.144;   70.634;  -14.860;  737.260
989.697;   69.233;  -13.080;  758.740
990.250;   70.790;  -10.150;  858.100
990.802;   69.240;  -13.430;  755.860
991.355;   69.977;  -12.750;  974.880
991.907;   68.199;  -12.040;  864.320
992.460;   66.421;  -11.330;  753.760
993.012;   65.825;  -13.610;  749.540
993.565;   64.580;  -13.460;  711.360
994.117;   65.739;   -9.360;  950.780
994.669;   61.340;  -11.300;  701.320
995.221;   58.781;  -13.540;  791.920
995.774;   57.219;  -13.430;  787.580
996.326;   56.605;  -12.520;  740.220
996.878;   57.654;  -10.950;  838.420
997.430;   56.170;  -14.300;  699.860
997.982;   55.158;  -13.760;  750.140
998.534;   53.567;  -11.530;  739.060
999.086;   53.190;  -10.310;  738.220
999.638;   51.958;  -12.530;  661.380
1000.190;   51.127;  -11.840;  699.320
1000.741;   50.859;  -10.260;  742.700
1001.293;   50.928;   -8.860;  686.020
1001.845;   49.105;  -13.700;  676.640
1002.396;   49.565;  -12.100;  743.400
1002.948;   48.702;  -12.760;  737.400
1003.500;   47.830;  -10.380;  723.780
1004.051;   49.540;  -11.900;  907.580
1004.603;   46.799;  -12.250;  791.820
1005.154;   43.428;  -13.210;  608.980
1005.705;   43.074;  -10.950;  723.960
1006.257;   42.072;  -13.880;  707.220
1006.808;   41.061;  -12.840;  685.460
1007.359;   40.901;  -10.570;  763.240
1007.910;   40.052;   -9.620;  646.640
1008.461;   40.575;  -13.630;  732.940
1009.013;   38.573;  -17.200;  588.340
1009.564;   39.735;  -10.200;  793.520
1010.115;   37.713;  -12.570;  597.040
1010.665;   37.757;  -15.150;  602.160
1011.216;   37.294;  -14.480;  667.920
1011.767;   36.814;  -11.340;  697.920
1012.318;   37.094;   -9.780;  736.980
1012.869;   35.975;  -12.380;  679.000
1013.419;   35.328;  -15.560;  603.120
1013.970;   35.720;  -11.010;  666.640
1014.521;   34.734;  -11.610;  620.620
1015.071;   35.510;  -13.450;  670.380
1015.622;   34.919;  -13.870;  635.460
1016.172;   34.183;  -11.610;  596.820
1016.723;   33.741;  -12.120;  614.380
1017.273;   33.834;  -13.620;  604.160
1017.823;   32.952;  -14.140;  650.340
1018.374;   32.751;  -12.800;  611.760
1018.924;   33.661;  -12.340;  716.880
1019.474;   33.335;  -11.410;  718.880
1020.024;   31.556;  -14.770;  657.580
1020.574;   31.990;   -9.780;  726.160
1021.124;   33.052;   -8.560;  673.580
1021.674;   31.349;  -15.190;  559.120
1022.224;   32.796;  -13.530;  708.940
1022.774;   31.288;  -13.280;  668.820
1023.324;   32.673;  -10.690;  753.520
1023.874;   34.409;  -10.240;  875.760
1024.423;   30.931;  -12.540;  613.700
1024.973;   30.083;  -10.010;  610.760
1025.523;   30.330;  -10.550;  620.960
1026.072;   30.078;  -13.560;  606.420
1026.622;   29.813;  -15.120;  675.740
1027.172;   30.136;  -11.260;  715.660
1027.721;   29.477;  -11.410;  601.220
1028.270;   30.001;  -13.530;  663.400
1028.820;   29.485;  -13.680;  638.080
1029.369;   29.245;  -13.520;  612.700
1029.918;   29.299;  -10.980;  649.840
1030.468;   29.716;  -13.530;  564.780
1031.017;   29.265;  -13.170;  634.800
1031.566;   27.959;  -12.200;  608.900
1032.115;   28.173;   -9.960;  694.500
1032.664;   26.835;  -13.210;  596.480
1033.213;   28.319;  -12.500;  735.420
1033.762;   27.437;  -11.910;  635.620
1034.311;   27.442;   -9.640;  677.220
1034.860;   28.254;  -13.310;  691.000
1035.408;   27.658;  -11.830;  722.720
1035.957;   27.695;  -12.000;  719.540
1036.506;   25.595;  -11.690;  530.800
1037.055;   28.178;  -10.990;  844.320
1037.603;   26.015;  -15.120;  664.000
1038.152;   24.557;  -12.450;  534.760
1038.700;   25.410;  -10.560;  585.740
1039.249;   25.238;  -11.080;  681.220
1039.797;   25.113;  -12.540;  633.360
1040.345;   25.636;  -11.920;  705.420
1040.894;   25.329;  -11.410;  625.300
1041.442;   24.804;  -14.320;  632.200
1041.990;   23.590;  -16.240;  559.160
1042.538;   23.127;  -11.680;  536.180
1043.087;   24.386;  -10.760;  570.860
1043.635;   25.000;  -11.850;  670.500
1044.183;   24.027;  -15.480;  586.400
1044.731;   23.666;  -11.770;  576.000
1045.279;   23.168;  -13.090;  674.920
1045.827;   25.210;  -12.440;  892.400
1046.374;   22.795;  -13.840;  515.420
1046.922;   22.185;  -13.220;  590.580
1047.470;   23.983;  -10.230;  691.300
1048.018;   23.713;  -14.590;  647.960
1048.565;   23.773;  -12.050;  708.600
1049.113;   21.356;  -11.650;  557.000
1049.660;   22.246;  -10.510;  629.660
1050.208;   23.192;  -13.310;  675.640
1050.755;   21.398;  -15.900;  606.580
1051.303;   22.391;  -11.430;  686.820
1051.850;   21.956;   -8.480;  635.120
1052.397;   20.216;  -15.010;  473.960
1052.945;   20.593;  -13.960;  617.760
1053.492;   22.791;  -13.150;  741.840
1054.039;   22.318;   -9.630;  720.180
1054.586;   20.886;  -13.680;  557.240
1055.133;   21.562;  -14.570;  693.140
1055.680;   21.146;  -13.820;  646.620
1056.227;   19.938;  -11.730;  542.780
1056.774;   21.910;  -12.480;  794.980
1057.321;   19.564;  -13.930;  523.260
1057.868;   19.889;  -11.690;  651.320
1058.415;   19.893;   -9.520;  651.980
1058.961;   20.379;  -13.160;  678.940
1059.508;   19.805;  -12.920;  643.820
1060.055;   19.406;  -11.920;  581.780
1060.601;   20.512;  -11.500;  624.300
1061.148;   19.875;  -14.330;  616.820
1061.694;   18.681;  -16.870;  592.580
1062.241;   18.895;  -10.330;  596.320
1062.787;   18.892;  -10.620;  663.140
1063.334;   21.037;  -10.110;  808.560
1063.880;   19.004;  -13.400;  668.360
1064.426;   18.978;  -10.680;  706.820
1064.972;   18.562;   -9.920;  601.340
1065.518;   16.929;  -10.980;  566.640
1066.065;   17.872;  -14.890;  624.460
1066.611;   17.329;  -12.870;  598.800
1067.157;   18.391;  -12.950;  641.860
1067.703;   18.242;  -13.540;  668.480
1068.249;   17.686;  -13.540;  605.220
1068.794;   17.780;  -12.600;  626.880
1069.340;   16.578;  -10.620;  578.960
1069.886;   17.693;  -12.830;  590.700
1070.432;   15.699;  -14.870;  541.720
1070.977;   15.851;  -11.980;  601.080
1071.523;   17.098;   -8.200;  573.060
1072.068;   17.263;  -12.330;  582.000
1072.614;   16.811;  -16.370;  527.760
1073.160;   16.858;  -11.100;  687.040
1073.705;   16.023;  -10.480;  572.520
1074.250;   15.719;  -14.520;  559.900
1074.796;   16.659;  -11.460;  655.160
1075.341;   16.382;  -11.950;  664.100
1075.886;   15.771;  -11.460;  594.240
1076.431;   15.326;  -13.770;  649.880
1076.976;   14.723;  -12.680;  639.220
1077.521;   13.921;  -13.170;  583.080
1078.067;   15.314;  -10.860;  579.400
1078.612;   15.545;  -13.920;  661.620
1079.156;   15.340;  -13.880;  601.540
1079.701;   15.160;  -13.120;  693.260
1080.246;   15.301;   -9.940;  696.300
1080.791;   14.999;  -14.740;  625.020
1081.336;   15.244;  -13.750;  659.320
1081.880;   14.663;  -13.400;  649.680
1082.425;   13.789;  -12.220;  573.480
1082.970;   15.227;  -11.610;  717.040
1083.514;   14.211;  -13.580;  597.000
1084.059;   12.776;  -12.810;  586.720
1084.603;   12.944;  -12.320;  565.840
1085.147;   13.748;  -13.190;  645.220
1085.692;   14.024;  -12.480;  716.800
1086.236;   11.714;  -13.020;  503.140
1086.780;   15.209;   -9.190;  751.440
1087.325;   14.135;  -12.480;  654.620
1087.869;   12.860;  -12.450;  610.700
1088.413;   13.415;  -12.240;  705.040
1088.957;   11.697;   -9.020;  543.400
1089.501;   14.696;  -10.320;  766.640
1090.045;   12.746;  -12.720;  726.480
1090.589;   11.608;  -13.690;  569.920
1091.133;   12.783;  -10.020;  673.340
1091.676;   12.694;  -12.330;  591.940
1092.220;   11.334;  -14.970;  600.920
1092.764;   12.669;  -12.430;  706.960
1093.307;   12.442;   -9.800;  673.780
1093.851;   10.858;  -14.970;  556.540
1094.395;   11.962;  -15.310;  683.140
1094.938;   10.587;  -10.370;  632.520
1095.482;   11.276;  -11.050;  559.800
1096.025;   12.521;  -11.840;  710.880
1096.568;   12.629;  -12.840;  779.280
1097.112;    9.531;  -14.700;  508.180
1097.655;   11.238;   -8.720;  603.000
1098.198;   10.532;  -13.610;  600.180
1098.741;    9.943;  -13.350;  612.860
1099.285;   11.051;  -11.230;  657.300
1099.828;    9.100;  -11.840;  439.400
1100.371;   10.890;  -10.840;  608.160
1100.914;   10.260;  -14.190;  682.660
1101.457;   10.260;  -11.240;  679.900
1101.999;    9.163;  -11.270;  584.680
1102.542;   10.739;  -11.480;  641.440
1103.085;   10.101;  -11.750;  658.500
1103.628;   10.472;  -11.400;  762.060
1104.170;    9.574;  -10.490;  588.280
1104.713;   10.106;  -10.600;  646.700
1105.256;    8.984;  -14.360;  557.440
1105.798;    8.164;  -13.210;  499.980
1106.341;   10.821;  -10.270;  728.900
1106.883;    9.507;  -12.200;  521.340
1107.425;    8.658;  -13.110;  668.180
1107.968;    8.287;  -12.840;  612.380
1108.510;   10.276;   -6.480;  684.960
1109.052;    8.095;  -13.940;  612.620
1109.594;    8.035;  -13.690;  554.440
1110.136;    8.383;  -11.880;  643.220
1110.679;    7.762;   -9.500;  633.080
1111.221;    9.421;  -14.160;  604.460
1111.763;    7.762;  -13.980;  559.220
1112.304;    6.897;  -13.880;  547.140
1112.846;    7.623;  -12.210;  666.240
1113.388;   10.768;  -11.390;  942.180
1113.930;    8.031;  -14.540;  694.200
1114.472;    7.399;  -12.640;  606.540
1115.013;    6.921;  -11.620;  551.280
1115.555;    6.933;  -13.640;  587.100
1116.097;    7.051;  -15.380;  579.480
1116.638;    6.841;  -12.640;  684.600
1117.180;    7.644;   -9.850;  667.740
1117.721;    6.664;  -13.690;  568.580
1118.262;    8.111;  -12.680;  677.960
1118.804;    7.227;  -12.530;  637.340
1119.345;    6.738;  -11.690;  578.400
1119.886;    7.716;  -13.380;  704.040
1120.427;    5.475;  -14.070;  589.020
1120.969;    5.705;  -13.500;  597.920
1121.510;    6.014;  -11.480;  563.060
1122.051;    7.085;  -12.830;  723.580
1122.592;    5.575;  -14.290;  655.420
1123.133;    5.020;  -12.400;  547.940
1123.673;    7.043;  -10.130;  706.480
1124.214;    6.379;  -12.930;  612.460
1124.755;    6.616;  -14.380;  639.460
1125.296;    5.098;  -14.000;  627.320
1125.836;    6.732;  -10.070;  691.500
1126.377;    4.982;  -12.640;  599.660
1126.918;    6.029;  -12.960;  614.980
1127.458;    4.664;  -13.350;  622.220
1127.999;    5.642;  -10.750;  656.980
1128.539;    5.978;  -12.350;  694.240
1129.079;    4.943;  -14.860;  632.720
1129.620;    4.045;  -13.840;  558.100
1130.160;    4.384;  -12.330;  539.480
1130.700;    5.017;  -14.530;  640.840
1131.240;    5.376;  -12.530;  643.700
1131.781;    3.985;  -14.450;  619.680
1132.321;    5.172;   -9.790;  599.120
1132.861;    3.489;  -14.860;  564.200
1133.401;    3.680;  -14.290;  593.940
1133.941;    3.982;  -11.750;  626.280
1134.481;    3.668;   -9.920;  597.580
1135.020;    3.066;  -12.290;  609.160
1135.560;    3.794;  -11.650;  674.940
1136.100;    3.502;  -16.270;  501.160
1136.640;    2.756;  -10.890;  510.480
1137.179;    4.035;  -14.180;  537.960
1137.719;    3.731;  -16.250;  605.400
1138.258;    3.368;  -14.230;  587.360
1138.798;    3.939;   -9.090;  663.780
1139.337;    2.496;  -15.130;  482.840
1139.877;    3.112;  -13.680;  642.360
1140.416;    4.869;  -11.320;  878.060
1140.955;    2.517;  -10.860;  535.380
1141.494;    3.859;  -12.920;  669.280
1142.034;    2.342;  -13.930;  583.520
1142.573;    3.458;  -11.440;  646.280
1143.112;    2.695;  -12.000;  553.480
1143.651;    2.979;  -13.670;  536.480
1144.190;    2.947;  -12.730;  691.640
1144.729;    2.265;  -14.560;  607.420
1145.267;    2.977;  -11.830;  584.900
1145.806;    3.714;  -12.230;  637.040
1146.345;    2.123;  -14.130;  635.020
1146.884;    1.652;  -11.590;  622.500
1147.422;    1.716;  -12.550;  533.060
1147.961;    3.916;  -11.180;  708.460
1148.500;    2.450;  -11.510;  669.720
1149.038;    2.497;  -11.640;  632.500
1149.577;    2.879;  -10.130;  698.640
1150.115;    0.128;  -13.970;  452.280
1150.653;    1.934;  -14.520;  607.340
1151.192;    1.557;  -12.810;  552.920
1151.730;    2.270;   -9.100;  652.560
1152.268;    1.648;  -12.220;  589.520
1152.806;    0.967;  -14.140;  571.180
1153.344;    0.043;  -12.350;  577.640
1153.882;    2.183;   -8.980;  600.060
1154.421;    0.411;  -15.190;  470.620
1154.958;    0.204;  -15.210;  595.240
1155.496;    1.615;  -12.850;  645.280
1156.034;    1.601;   -9.940;  721.880
1156.572;    2.114;  -13.570;  667.060
1157.110;   -0.456;  -14.590;  473.940
1157.647;    0.929;  -13.030;  676.960
1158.185;    0.398;  -12.140;  564.320
1158.723;    0.013;  -14.390;  509.200
1159.260;    0.370;  -14.090;  701.700
1159.798;    0.561;  -11.920;  658.160
1160.335;    0.582;  -11.110;  631.820

