
Integration time [ms]:   3.882
Averaging Nr. [scans]: 1000
Smoothing Nr. [pixels]: 0
Data measured with spectrometer [name]: 7414430SP
Wave   ;Sample   ;Dark     ;Reference
[nm]   ;[counts] ;[counts] ;[counts] 

288.544;  140.718;    7.153;  793.890
289.143;  144.430;    8.402;  681.602
289.742;  144.385;    7.062;  828.814
290.341;  133.568;    0.191;  789.841
290.940;  124.200;    0.321;  730.702
291.538;  123.709;    3.811;  881.108
292.137;  121.367;   -3.438;  792.581
292.736;  126.066;   -2.809;  975.101
293.335;  121.651;   -5.239;  735.086
293.934;  123.040;   -4.939;  781.677
294.532;  122.817;   -2.199; 1031.958
295.131;  110.156;   -6.831;  834.394
295.730;  109.460;   -6.620;  809.588
296.328;  107.012;   -6.471;  783.442
296.927;  105.643;   -6.571;  779.652
297.525;  107.846;   -7.391;  781.236
298.124;   99.201;   -9.402;  654.009
298.722;  104.687;   -5.781;  761.933
299.321;  101.278;   -6.351;  708.597
299.919;   99.726;   -8.661;  751.918
300.518;   95.677;  -11.922;  689.338
301.116;   97.344;   -6.941;  691.381
301.715;   96.457;   -5.471;  730.222
302.313;   96.756;   -8.361;  704.943
302.911;   92.553;   -9.082;  733.830
303.509;   97.613;   -4.571;  925.627
304.108;   94.266;   -7.111;  760.383
304.706;   95.023;   -7.681;  801.664
305.304;   89.978;   -9.162;  796.707
305.902;   94.081;   -6.761;  784.484
306.500;   89.984;   -6.921;  728.200
307.098;   88.767;   -6.491;  746.560
307.696;   87.250;   -6.941;  780.432
308.294;   87.161;   -6.301;  731.359
308.892;   88.739;   -4.771;  759.769
309.490;   86.165;   -5.141;  712.161
310.088;   84.189;   -2.912;  788.444
310.686;   87.839;   -0.421;  821.749
311.284;   83.637;   -3.461;  766.040
311.882;   82.254;   -6.282;  731.225
312.480;   79.742;   -3.632;  697.167
313.078;   79.939;   -2.112;  808.331
313.675;   81.272;   -1.931;  691.600
314.273;   76.484;   -1.442;  797.837
314.871;   76.902;   -3.002;  589.829
315.468;   74.394;   -2.252;  652.090
316.066;   76.563;   -1.091;  694.427
316.664;   70.242;   -4.512;  656.351
317.261;   74.642;   -0.062;  910.128
317.859;   69.317;   -0.952;  768.735
318.456;   70.316;    0.719;  830.096
319.054;   66.547;   -4.002;  787.828
319.651;   66.225;   -4.972;  759.928
320.249;   64.410;   -1.162;  810.188
320.846;   61.845;   -2.651;  714.286
321.443;   60.826;   -3.832;  832.135
322.041;   57.694;   -4.312;  812.315
322.638;   56.406;   -3.872;  701.456
323.235;   56.774;   -4.361;  665.683
323.833;   55.757;   -4.821;  740.354
324.430;   50.461;   -6.971;  615.900
325.027;   52.526;   -4.361;  876.855
325.624;   51.748;   -5.581;  644.532
326.221;   49.083;   -6.601;  689.717
326.818;   48.569;   -7.301;  818.332
327.415;   50.068;   -6.180;  748.828
328.012;   49.846;   -5.920;  690.585
328.609;   49.010;   -8.390;  731.389
329.206;   47.430;   -6.121;  778.621
329.803;   46.031;   -5.241;  737.841
330.400;   48.070;   -7.420;  704.260
330.997;   50.005;   -5.931;  817.147
331.594;   47.512;   -5.641;  788.185
332.191;   52.088;   -6.451;  728.722
332.787;   55.072;   -4.651;  844.463
333.384;   54.406;   -5.472;  763.093
333.981;   51.611;   -6.303;  815.687
334.578;   53.566;   -5.892;  708.378
335.174;   56.052;   -4.102;  731.469
335.771;   55.896;   -8.053;  836.456
336.367;   53.260;   -7.363;  710.631
336.964;   55.992;   -6.243;  793.266
337.561;   55.541;   -5.653;  731.112
338.157;   52.097;   -7.074;  911.916
338.754;   49.684;   -5.474;  796.589
339.350;   48.231;   -5.624;  722.493
339.946;   49.861;   -5.054;  773.135
340.543;   42.729;   -6.695;  846.136
341.139;   37.125;   -6.215;  720.836
341.735;   35.245;   -5.746;  772.593
342.332;   33.845;   -7.335;  691.472
342.928;   34.340;   -4.835;  795.394
343.524;   29.494;   -4.586;  761.684
344.120;   26.117;   -3.946;  738.562
344.716;   28.248;   -4.835;  723.717
345.313;   26.756;   -5.325;  795.342
345.909;   22.304;   -6.535;  627.336
346.505;   23.077;   -4.725;  740.247
347.101;   23.817;   -4.164;  827.864
347.697;   24.780;   -5.274;  785.398
348.293;   18.800;   -7.145;  627.244
348.889;   19.725;   -4.364;  745.914
349.485;   19.110;   -6.404;  688.205
350.081;   20.355;   -7.534;  772.592
350.676;   15.803;   -6.995;  691.606
351.272;   19.948;   -3.544;  809.530
351.868;   19.688;   -5.324;  780.497
352.464;   17.487;   -7.204;  723.932
353.059;   13.575;   -6.894;  646.017
353.655;   16.466;   -3.754;  777.063
354.251;   17.560;   -6.143;  759.845
354.846;   12.481;   -9.464;  740.646
355.442;   11.028;   -7.555;  753.071
356.038;   11.422;   -5.474;  751.708
356.633;   11.545;   -5.914;  728.594
357.229;    9.999;   -8.944;  724.757
357.824;    9.609;   -6.794;  703.600
358.420;    7.731;   -5.754;  679.726
359.015;    7.641;   -5.664;  695.357
359.610;   10.456;   -8.004;  763.920
360.206;    3.955;   -8.815;  603.240
360.801;    6.837;   -8.834;  646.503
361.396;    8.052;   -6.274;  725.975
361.992;    3.995;   -8.574;  668.220
362.587;    1.721;   -9.265;  670.160
363.182;    3.657;   -5.484;  689.631
363.777;    3.397;   -5.164;  738.242
364.372;    4.761;   -6.954;  737.314
364.967;    0.837;   -7.065;  680.744
365.563;    5.264;   -5.684;  815.567
366.158;    1.382;   -6.484;  685.161
366.753;    3.000;   -8.004;  649.263
367.348;    1.351;  -10.114;  746.056
367.942;    0.204;   -7.764;  697.298
368.537;   -0.350;   -4.554;  754.245
369.132;    1.093;   -7.664;  703.428
369.727;   -3.781;   -8.905;  638.079
370.322;   -2.901;   -4.945;  580.186
370.917;   -2.759;   -7.095;  710.646
371.511;    0.918;   -6.574;  861.834
372.106;   -2.652;   -6.515;  776.964
372.701;   -6.451;   -8.225;  585.988
373.296;   -0.513;   -4.494;  863.135
373.890;   -4.919;   -7.965;  647.840
374.485;   -7.214;   -9.745;  691.199
375.079;   -3.224;   -5.554;  738.685
375.674;   -2.671;   -4.724;  812.970
376.268;   -7.079;   -8.365;  691.759
376.863;  -11.941;   -8.126;  580.327
377.457;   -5.994;   -6.045;  662.490
378.052;   -7.817;   -6.835;  764.884
378.646;   -8.080;   -9.375;  741.167
379.240;   -8.250;   -6.185;  721.176
379.835;   -8.191;   -6.135;  636.978
380.429;  -10.380;   -8.365;  562.557
381.023;   -9.474;   -7.935;  779.205
381.617;  -11.779;   -8.325;  680.106
382.212;   -8.487;   -7.405;  685.303
382.806;   -8.045;   -4.155;  760.690
383.400;  -11.377;   -8.945;  672.281
383.994;  -12.497;   -8.365;  664.870
384.588;   -9.030;   -7.824;  697.701
385.182;   -7.921;   -7.984;  726.624
385.776;   -9.502;  -10.404;  706.875
386.370;  -11.254;   -7.335;  681.968
386.964;  -11.168;   -7.485;  684.155
387.558;   -9.541;   -8.174;  598.360
388.152;  -12.210;  -10.415;  681.959
388.745;   -9.961;   -9.595;  814.707
389.339;   -9.857;   -6.454;  747.642
389.933;   -9.292;   -5.804;  695.370
390.527;   -8.855;   -6.854;  859.029
391.120;  -15.278;   -7.665;  595.318
391.714;  -12.242;   -7.245;  711.633
392.308;   -9.996;   -4.514;  780.253
392.901;  -12.316;   -7.935;  642.460
393.495;  -14.084;   -8.585;  595.414
394.089;  -12.660;   -5.245;  760.452
394.682;  -13.918;   -6.305;  697.188
395.275;  -13.384;   -9.335;  719.927
395.869;  -13.962;   -7.375;  667.314
396.462;  -13.446;   -7.055;  616.609
397.056;   -9.486;   -5.434;  776.621
397.649;  -13.833;   -9.525;  731.575
398.242;  -10.586;   -7.574;  712.645
398.836;  -10.477;   -5.134;  766.408
399.429;  -12.099;   -6.544;  631.041
400.022;  -14.822;   -9.215;  665.902
400.615;  -12.098;   -8.105;  805.609
401.208;  -10.884;   -7.614;  691.451
401.802;  -13.259;   -8.085;  699.329
402.395;  -14.343;   -9.575;  683.502
402.988;  -15.047;   -9.285;  696.627
403.581;  -11.653;   -7.514;  646.878
404.174;   -9.345;   -6.404;  686.568
404.767;  -12.395;   -8.775;  638.583
405.360;  -14.330;   -7.415;  621.445
405.953;   -8.473;   -5.624;  759.034
406.545;   -9.037;   -6.474;  725.342
407.138;  -13.131;   -8.445;  618.350
407.731;  -11.685;  -10.044;  613.303
408.324;   -8.040;   -8.484;  660.554
408.917;   -9.854;   -7.624;  681.864
409.509;  -10.791;   -8.304;  740.396
410.102;  -11.857;   -8.495;  643.948
410.695;   -7.122;   -7.824;  665.758
411.287;   -8.028;   -7.754;  599.821
411.880;   -8.153;   -9.294;  585.421
412.472;  -10.648;   -8.814;  613.092
413.065;   -8.432;   -6.674;  629.408
413.657;   -7.429;   -9.664;  576.678
414.250;   -5.773;  -10.264;  646.681
414.842;   -7.159;   -8.664;  676.353
415.434;   -5.593;   -8.584;  570.463
416.027;   -2.523;   -9.423;  652.196
416.619;   -3.797;  -10.764;  713.400
417.211;   -4.108;   -7.404;  599.352
417.804;   -0.337;   -7.383;  628.499
418.396;   -4.761;   -8.334;  607.643
418.988;   -1.750;   -9.633;  659.238
419.580;   -5.360;  -10.554;  568.276
420.172;   -3.360;   -8.683;  536.196
420.764;    0.498;   -9.713;  672.482
421.356;   -0.364;  -11.303;  636.898
421.948;   -0.851;   -8.453;  677.661
422.540;    3.640;   -5.793;  680.027
423.132;    2.302;   -7.162;  600.641
423.724;   -0.256;   -7.933;  561.267
424.316;    2.290;   -9.083;  621.345
424.908;    4.780;   -8.392;  591.517
425.500;    5.452;   -8.062;  647.978
426.092;    7.144;   -9.692;  648.268
426.683;    5.502;   -8.223;  684.836
427.275;    7.486;   -8.602;  641.471
427.867;    9.920;   -8.382;  668.948
428.458;   10.576;  -10.472;  732.344
429.050;    9.270;   -9.112;  680.749
429.642;   11.700;   -7.752;  743.124
430.233;   10.891;   -8.832;  569.356
430.825;   12.673;   -8.292;  724.809
431.416;   10.898;   -7.522;  698.241
432.008;   14.149;   -9.262;  651.723
432.599;   13.623;   -6.441;  656.073
433.190;   11.917;   -9.222;  637.670
433.782;   11.695;  -11.832;  590.395
434.373;   19.099;   -7.121;  884.765
434.964;   16.969;   -9.141;  602.920
435.556;   14.973;   -9.332;  634.537
436.147;   17.754;   -8.892;  758.490
436.738;   17.212;   -8.151;  701.099
437.329;   22.657;   -8.281;  721.723
437.920;   16.473;   -9.062;  666.688
438.511;   15.941;  -11.182;  564.526
439.103;   22.403;   -7.461;  623.998
439.694;   24.633;   -8.541;  681.583
440.285;   26.483;   -7.351;  764.432
440.876;   24.072;   -8.201;  845.738
441.466;   23.223;  -10.381;  575.162
442.057;   28.136;   -7.620;  665.814
442.648;   27.155;   -8.461;  746.255
443.239;   25.377;   -8.991;  620.477
443.830;   29.619;   -7.910;  704.958
444.421;   31.348;   -7.340;  655.474
445.011;   29.066;   -8.981;  693.619
445.602;   29.238;   -9.341;  743.126
446.193;   30.208;  -11.390;  488.117
446.783;   33.889;  -11.240;  640.397
447.374;   30.856;   -8.471;  692.759
447.964;   31.242;   -8.471;  713.770
448.555;   39.658;   -6.590;  822.742
449.145;   35.545;   -8.200;  662.853
449.736;   36.462;  -11.040;  803.179
450.326;   37.153;   -9.640;  713.626
450.917;   40.871;   -9.480;  675.324
451.507;   40.846;   -8.020;  600.661
452.097;   41.749;  -10.210;  746.267
452.688;   43.370;   -7.810;  742.160
453.278;   42.092;   -9.360;  566.840
453.868;   46.858;   -8.669;  793.550
454.458;   45.140;  -10.950;  651.141
455.048;   45.856;  -10.200;  711.783
455.639;   46.218;   -9.369;  567.096
456.229;   49.847;   -7.739;  710.694
456.819;   52.333;   -8.939;  751.158
457.409;   52.919;   -7.169;  773.993
457.999;   54.595;   -7.779;  737.505
458.589;   54.601;   -7.039;  686.606
459.179;   54.981;   -9.019;  717.658
459.769;   53.442;   -8.909;  627.099
460.358;   57.973;   -8.659;  797.262
460.948;   57.418;   -8.209;  689.503
461.538;   59.556;   -9.879;  660.677
462.128;   57.289;   -9.379;  664.934
462.717;   64.730;   -9.158;  710.326
463.307;   66.297;   -8.638;  705.846
463.897;   63.693;   -8.869;  656.942
464.486;   63.330;   -7.409;  837.128
465.076;   67.489;   -9.618;  733.776
465.666;   69.727;   -7.578;  652.900
466.255;   69.214;   -9.369;  785.651
466.845;   67.545;  -10.049;  666.749
467.434;   70.870;   -8.168;  725.873
468.023;   71.434;   -9.188;  658.357
468.613;   69.880;   -9.849;  713.946
469.202;   74.400;  -12.958;  646.507
469.791;   79.258;   -9.488;  737.811
470.381;   79.677;   -6.468;  742.813
470.970;   80.162;  -10.248;  711.099
471.559;   80.210;  -11.428;  733.291
472.148;   81.716;   -9.738;  675.737
472.738;   85.136;   -7.877;  765.466
473.327;   84.165;  -11.868;  637.529
473.916;   84.953;   -8.578;  737.446
474.505;   89.086;  -11.137;  751.703
475.094;   90.698;   -9.407;  806.570
475.683;   90.729;   -9.977;  797.699
476.272;   92.241;  -10.807;  730.632
476.861;   95.623;  -11.017;  706.754
477.449;  100.308;  -10.316;  728.487
478.038;   96.248;  -10.187;  692.513
478.627;   96.979;  -12.458;  714.852
479.216;  104.307;  -10.127;  769.441
479.805;  106.252;   -6.256;  783.375
480.393;  106.699;   -8.737; 1008.945
480.982;  105.665;   -9.087;  874.501
481.571;  111.050;   -7.806;  858.333
482.159;  111.866;  -10.596;  705.386
482.748;  112.491;  -11.507;  821.385
483.336;  117.396;   -8.366;  858.209
483.925;  117.154;   -7.497;  774.373
484.513;  123.249;   -8.326;  758.962
485.102;  120.970;  -10.277;  810.965
485.690;  130.324;   -8.256; 1011.050
486.278;  131.846;   -7.146;  979.329
486.867;  132.150;   -7.986;  809.662
487.455;  134.241;   -9.926;  898.229
488.043;  136.257;  -10.026;  748.361
488.631;  145.478;   -7.226; 1005.079
489.220;  148.684;   -8.696;  908.626
489.808;  148.325;  -12.276;  741.415
490.396;  156.919;   -9.386;  914.645
490.984;  162.175;   -8.506;  830.161
491.572;  172.199;   -8.226;  940.315
492.160;  179.071;   -9.836;  919.081
492.748;  190.769;  -10.316;  884.341
493.336;  210.997;   -7.146; 1019.693
493.924;  235.401;   -7.965;  958.077
494.512;  266.143;  -10.316; 1066.638
495.100;  303.380;  -10.186; 1103.280
495.687;  363.280;   -7.805; 1206.373
496.275;  427.835;   -9.686; 1150.796
496.863;  516.926;  -11.566; 1281.171
497.451;  605.759;  -11.406; 1386.805
498.038;  715.904;   -8.235; 1556.729
498.626;  845.003;   -7.485; 1741.407
499.214; 1016.166;   -8.646; 2016.609
499.801; 1281.796;   -9.936; 2220.633
500.389; 1515.396;   -8.056; 2312.494
500.976; 1672.591;   -6.166; 2744.849
501.564; 1877.029;   -9.126; 3148.565
502.151; 2175.917;  -12.456; 3515.999
502.738; 2583.122;  -10.056; 3971.274
503.326; 3035.508;  -10.605; 4403.796
503.913; 3451.483;  -10.576; 5161.749
504.500; 3953.229;   -9.056; 5986.420
505.088; 4508.347;  -10.136; 6381.201
505.675; 5213.499;   -9.075; 6925.547
506.262; 5707.367;  -11.346; 7619.060
506.849; 6637.439;   -9.376; 8733.969
507.436; 7447.862;   -7.365; 9790.121
508.023; 7412.815;   -8.686; 9985.472
508.610; 7628.793;   -8.846;10434.618
509.197; 8446.791;   -9.077;11198.435
509.784; 9957.139;  -10.246;12391.194
510.371;11289.853;   -9.825;13603.713
510.958;12452.976;  -10.896;14426.586
511.545;13199.436;   -9.006;15243.775
512.132;12977.456;   -8.765;15945.876
512.719;13482.289;   -8.286;16340.369
513.305;15597.257;   -9.256;18011.766
513.892;17842.047;  -11.106;19754.971
514.479;21061.115;   -8.576;20967.805
515.066;24186.268;   -9.046;22299.793
515.652;25084.813;  -10.676;22908.660
516.239;25743.758;  -10.166;23798.875
516.825;25148.473;  -11.266;25567.275
517.412;24391.363;   -7.446;28154.959
517.998;23900.527;  -10.916;28344.111
518.585;23476.963;   -9.166;27134.219
519.171;22724.820;  -10.135;27268.576
519.758;23861.059;   -8.806;28964.129
520.344;26929.520;   -6.716;30664.494
520.930;29794.926;  -10.166;32550.605
521.516;30090.174;   -9.615;35422.895
522.103;32689.906;   -8.656;38280.004
522.689;33648.703;   -9.646;37835.117
523.275;32831.867;  -10.786;37288.613
523.861;35387.363;   -9.266;37281.395
524.447;36520.078;   -8.285;37846.949
525.033;35947.730;   -9.426;38321.949
525.619;36232.691;   -9.836;38579.285
526.205;38803.434;   -8.136;40622.875
526.791;39724.750;   -9.986;42258.836
527.377;39463.750;   -8.236;42966.902
527.963;38700.074;  -12.117;42018.949
528.549;37086.988;   -8.376;42476.828
529.135;38154.902;   -8.696;41854.852
529.721;40562.672;   -9.686;41237.711
530.306;43061.730;   -8.616;41259.445
530.892;45873.344;   -9.396;41506.047
531.478;46993.246;   -9.926;43559.613
532.063;47389.969;  -10.236;47695.563
532.649;48507.762;   -8.257;50808.324
533.235;49520.883;  -11.476;51787.500
533.820;49522.617;   -8.156;52145.035
534.406;50624.164;  -12.257;51133.488
534.991;47502.520;   -8.686;49996.805
535.576;44588.551;   -9.426;48882.852
536.162;44397.590;   -8.436;46942.285
536.747;45021.125;  -10.957;45711.746
537.333;44483.727;  -13.147;48510.180
537.918;46356.039;   -9.027;50439.891
538.503;48859.191;   -8.256;50863.711
539.088;50063.988;  -10.576;50906.922
539.673;51467.785;  -10.907;52621.965
540.259;53200.410;   -9.126;52368.094
540.844;52738.059;   -9.026;50879.109
541.429;52775.324;   -9.597;52077.777
542.014;55434.629;  -11.447;52716.695
542.599;56638.043;   -9.236;52363.281
543.184;56296.910;  -12.267;53187.137
543.769;57009.840;  -10.367;54697.605
544.354;56753.328;  -10.887;53913.914
544.938;50432.688;  -11.687;49680.164
545.523;45934.543;   -8.286;47386.277
546.108;46781.598;   -9.317;49151.949
546.693;47758.762;  -10.187;51384.637
547.278;45495.352;   -9.926;51853.254
547.862;44602.875;   -9.196;51173.750
548.447;44029.488;   -9.657;51691.395
549.031;45728.637;   -9.127;52456.703
549.616;48560.102;  -10.836;52714.516
550.201;49586.766;   -8.507;52414.598
550.785;50269.109;  -10.537;52355.059
551.370;53759.391;  -11.727;54589.453
551.954;52915.707;   -9.457;58267.348
552.538;51049.973;   -8.147;59062.176
553.123;50650.781;   -9.397;58115.285
553.707;52182.492;   -9.558;56556.285
554.291;51728.086;   -9.417;56201.668
554.876;53726.102;   -7.627;55335.762
555.460;51971.953;  -10.457;54155.703
556.044;47089.484;  -10.078;53721.484
556.628;46259.102;   -9.407;53731.016
557.212;45254.379;   -7.957;54312.531
557.796;44418.270;  -11.327;53797.773
558.380;48648.680;  -10.868;56145.984
558.964;48942.047;   -9.637;57277.930
559.548;47026.613;   -8.807;56459.641
560.132;49377.121;  -10.187;54434.543
560.716;50162.305;   -9.868;54800.617
561.300;51701.781;  -10.217;57606.945
561.884;51966.633;   -4.947;58972.445
562.467;48897.781;   -9.588;57327.570
563.051;44317.949;  -11.138;54962.434
563.635;44835.352;   -9.358;52594.473
564.219;45684.148;   -9.797;50610.410
564.802;44162.945;   -9.918;49551.180
565.386;43154.691;  -10.838;48370.953
565.969;42613.383;   -8.037;48178.871
566.553;41302.297;   -5.667;49957.305
567.136;41143.008;   -8.258;50369.594
567.720;41668.715;  -11.278;49492.004
568.303;39598.988;   -9.028;50616.352
568.887;37983.086;   -7.508;50727.148
569.470;36965.980;  -11.068;51698.379
570.053;39193.414;  -10.028;52122.078
570.637;39396.723;  -11.077;52536.438
571.220;40876.441;   -8.747;51186.098
571.803;43267.832;   -8.868;51032.762
572.386;44573.395;  -10.608;49609.887
572.969;43897.133;  -10.548;48285.926
573.552;41349.176;   -7.898;47624.285
574.135;40540.750;   -9.918;45498.641
574.718;35960.898;  -10.328;41970.434
575.301;33264.047;   -9.548;41447.137
575.884;30567.191;   -8.768;40923.836
576.467;36088.855;   -9.858;45267.723
577.050;36832.211;  -11.018;48175.543
577.633;38338.949;  -10.048;47729.328
578.216;37357.090;  -10.268;47579.793
578.799;35196.156;  -11.808;47820.996
579.381;34317.410;   -7.338;48115.551
579.964;36119.289;   -9.728;47333.766
580.547;36510.633;   -8.928;46668.969
581.129;36344.879;   -9.149;44466.141
581.712;37962.609;  -11.359;44164.922
582.294;37897.305;  -10.738;46477.855
582.877;35818.637;   -8.788;48244.254
583.459;34675.570;   -9.859;47437.895
584.042;35789.512;   -9.649;46943.219
584.624;36345.332;  -10.529;46792.227
585.206;34794.219;  -10.298;46557.250
585.789;32790.215;  -11.029;45793.773
586.371;32838.992;   -9.359;43836.391
586.953;33539.777;   -8.799;42972.492
587.536;33649.805;   -8.928;42487.211
588.118;33046.359;   -9.180;42086.414
588.700;31432.955;  -10.519;43389.930
589.282;30473.127;   -8.098;43646.039
589.864;30537.018;   -8.139;43438.109
590.446;32139.441;  -10.509;43151.926
591.028;35012.984;  -11.119;42781.867
591.610;35961.801;  -10.019;42839.098
592.192;34269.906;   -8.838;42820.402
592.774;31819.451;  -11.549;40724.277
593.356;29371.861;  -11.609;39874.789
593.937;29828.365;  -10.019;39980.648
594.519;32665.467;   -7.839;42069.633
595.101;34013.746;  -10.779;42976.031
595.683;35198.531;  -10.049;44084.441
596.264;35264.160;   -9.969;43478.797
596.846;33861.953;   -9.699;43803.672
597.427;33018.047;  -10.970;42986.934
598.009;34092.637;  -13.090;42832.219
598.591;34422.125;   -9.509;42580.086
599.172;32628.918;   -9.019;43061.805
599.753;30096.258;  -13.310;41691.469
600.335;30363.600;  -11.010;40692.520
600.916;31162.320;  -10.309;39982.422
601.498;31293.680;   -8.209;40318.617
602.079;31341.418;  -11.440;40670.609
602.660;32735.813;   -8.690;41450.898
603.241;34237.332;  -12.759;41137.738
603.823;32485.418;  -10.409;38868.797
604.404;32423.195;  -11.790;38182.785
604.985;30848.516;  -10.280;38078.047
605.566;31474.494;   -8.059;38056.633
606.147;31942.426;   -8.960;37020.418
606.728;31695.182;  -10.710;37883.359
607.309;30932.850;  -12.760;38748.273
607.890;28777.885;   -9.959;38850.230
608.471;27050.506;   -9.780;37457.918
609.051;28860.232;   -8.940;36066.457
609.632;31813.982;  -12.070;35991.074
610.213;33853.047;   -9.610;37402.641
610.794;34038.121;   -8.750;38383.363
611.374;32859.781;  -11.100;40562.387
611.955;33244.371;  -12.200;38533.727
612.536;33042.969;  -10.410;36951.789
613.116;33196.762;  -10.010;37197.891
613.697;32386.779;  -10.480;38411.125
614.277;30779.447;  -12.751;38673.938
614.858;30654.150;  -11.600;37075.863
615.438;30103.773;   -8.190;35092.906
616.019;28607.652;   -8.941;33666.301
616.599;29732.844;  -13.540;34189.023
617.179;30278.518;  -10.890;36952.047
617.760;30910.963;   -7.610;39582.574
618.340;30309.744;  -14.441;38943.977
618.920;29629.098;   -9.180;37594.156
619.500;29607.693;  -11.881;37866.938
620.080;31571.455;   -9.870;37869.043
620.660;31656.293;  -13.211;36868.617
621.241;30523.240;  -11.921;36352.309
621.821;29408.340;  -10.271;35459.520
622.401;29136.684;   -8.200;35207.414
622.980;30108.053;  -11.141;35980.422
623.560;31555.240;  -14.321;37351.328
624.140;31220.729;   -9.360;34388.582
624.720;27714.637;   -7.481;32368.764
625.300;24420.248;  -12.730;32638.629
625.880;29317.986;  -11.441;34599.035
626.459;33121.371;  -10.971;36831.738
627.039;34751.254;   -9.011;38299.098
627.619;34580.977;   -8.521;38289.574
628.198;35606.246;   -9.861;37220.695
628.778;35229.438;   -8.841;37632.563
629.357;33772.637;   -9.891;38003.012
629.937;31480.701;  -11.871;38402.039
630.516;30323.842;  -10.641;37868.801
631.096;32582.561;  -11.391;35760.410
631.675;34155.398;   -6.622;35225.219
632.254;31945.832;  -13.002;35130.289
632.834;30258.303;  -11.622;35794.570
633.413;32174.238;   -8.321;35788.922
633.992;30401.820;   -7.732;34532.863
634.571;29927.559;  -10.992;33590.113
635.151;31448.236;  -10.422;34943.863
635.730;31856.750;  -11.511;35352.523
636.309;31015.875;   -7.901;35366.605
636.888;30106.449;  -11.452;36165.637
637.467;29705.242;  -10.672;37515.902
638.046;29738.662;   -9.301;39288.695
638.625;30829.617;  -11.452;38279.699
639.204;32374.014;  -12.262;37741.598
639.782;31889.973;  -11.892;38364.551
640.361;30499.018;  -11.411;36740.621
640.940;27281.076;  -11.501;34950.082
641.519;27546.514;  -10.921;34137.398
642.097;30858.832;  -10.101;35654.258
642.676;31429.426;  -10.821;35637.957
643.255;33849.789;   -8.631;36567.074
643.833;35950.035;  -11.411;37809.434
644.412;36960.969;  -12.021;37337.293
644.990;36692.434;  -12.271;37018.531
645.569;35748.699;   -9.741;36518.469
646.147;34428.625;   -9.051;36186.430
646.726;32593.600;  -13.861;36267.688
647.304;32750.439;   -9.461;36647.625
647.882;31831.209;  -13.171;39286.742
648.461;31849.057;  -11.911;39157.703
649.039;32149.881;   -9.541;35412.883
649.617;33867.230;   -8.901;34744.918
650.195;31923.123;   -8.591;35403.098
650.773;30419.492;  -13.031;35053.797
651.352;28931.705;  -12.211;33756.816
651.930;25893.615;  -11.361;31868.773
652.508;23239.520;   -8.601;33121.551
653.086;26932.104;   -9.991;33564.793
653.663;31318.143;  -11.931;34054.668
654.241;33015.695;  -10.821;35693.309
654.819;33561.977;   -9.341;36422.906
655.397;31482.211;  -10.851;38213.484
655.975;29827.357;  -11.461;39507.625
656.553;30355.215;   -8.841;39498.223
657.130;29836.391;  -10.371;40395.480
657.708;28860.703;  -11.071;39242.020
658.286;28820.094;  -11.141;38920.020
658.863;31379.156;  -10.861;40202.898
659.441;37032.629;  -11.181;39677.938
660.018;38469.910;  -10.851;40413.355
660.596;37278.793;  -12.571;39931.414
661.173;37795.406;  -12.141;39604.531
661.750;34442.895;  -11.571;39700.070
662.328;31224.113;  -10.780;39292.809
662.905;30091.277;  -10.750;38235.648
663.482;27231.994;  -11.320;36212.305
664.060;26192.951;  -10.160;35944.945
664.637;31822.982;  -13.120;35170.785
665.214;34465.918;  -11.500;34197.523
665.791;32389.891;  -12.430;34549.520
666.368;29948.021;   -9.840;35118.578
666.945;28837.781;  -11.290;36019.418
667.522;29222.693;  -13.540;36048.438
668.099;30016.416;  -10.250;36243.914
668.676;28955.793;  -11.270;35958.875
669.253;28263.227;   -8.210;37384.730
669.830;26960.840;   -9.710;36779.629
670.407;26442.354;   -9.700;35231.289
670.984;26180.979;   -9.190;35544.270
671.560;24924.633;   -9.560;35466.867
672.137;24779.387;  -11.820;34280.863
672.714;27810.070;  -12.460;34632.863
673.290;32060.283;  -10.940;35135.422
673.867;33311.836;  -10.510;36114.480
674.443;31406.689;  -12.110;36152.859
675.020;31307.520;  -11.760;35327.238
675.596;31919.316;   -9.380;35795.176
676.173;31267.928;  -11.120;35430.355
676.749;30409.293;  -13.390;33549.516
677.326;29331.240;  -12.600;32210.012
677.902;28372.111;  -10.830;32068.871
678.478;27721.877;  -12.400;32583.891
679.054;29081.707;   -8.610;32088.928
679.631;30549.088;  -11.640;30978.848
680.207;31260.688;   -8.140;33160.887
680.783;30924.145;  -12.300;35570.363
681.359;29497.830;  -10.910;36125.184
681.935;28719.230;  -11.040;35240.922
682.511;29094.738;  -11.130;34429.961
683.087;29270.051;  -11.080;34463.680
683.663;31065.426;  -10.530;34648.898
684.239;31523.227;  -12.120;34546.457
684.815;30399.279;   -8.870;35586.375
685.390;29035.225;   -8.940;35821.895
685.966;28003.244;  -12.109;35085.871
686.542;26712.785;  -13.539;34198.230
687.118;25929.053;  -10.379;32847.707
687.693;26830.100;  -10.189;32794.027
688.269;26202.184;  -12.939;33072.367
688.844;25047.340;   -8.679;33141.664
689.420;25877.117;  -10.919;33965.742
689.995;26421.389;   -7.489;34655.523
690.571;25843.928;  -12.199;33576.742
691.146;26120.996;   -8.979;32657.219
691.722;27649.492;   -9.119;32526.979
692.297;27699.010;  -10.519;33014.617
692.872;27707.148;  -10.629;34012.254
693.448;27981.049;  -12.119;34237.434
694.023;27297.229;   -8.219;34142.672
694.598;25515.102;  -13.209;34132.031
695.173;24209.723;  -11.879;34205.250
695.748;24691.104;  -12.039;32882.488
696.323;25701.158;  -11.779;32864.906
696.898;26255.965;  -10.219;33170.004
697.473;27763.813;  -13.639;32432.984
698.048;28553.332;  -11.239;31649.303
698.623;30544.422;  -10.859;30778.141
699.198;32407.703;  -13.379;31140.119
699.773;32728.518;  -13.409;31764.299
700.348;31716.570;  -12.329;31780.816
700.922;31585.947;   -8.749;32046.375
701.497;31511.412;  -12.449;32603.574
702.072;29940.248;   -8.879;34799.871
702.646;28046.514;  -10.719;35793.172
703.221;27476.885;   -8.469;35201.590
703.795;28304.748;  -11.389;34764.527
704.370;27284.221;  -12.499;34307.367
704.944;25811.924;  -11.449;33509.887
705.519;25650.799;  -10.659;31388.584
706.093;24999.813;  -12.909;31340.104
706.668;25455.148;  -13.509;32630.281
707.242;26460.980;  -10.049;32728.779
707.816;26350.535;  -10.629;32947.238
708.390;25510.748;  -11.829;33277.855
708.965;24132.229;  -11.159;33834.336
709.539;24402.852;  -11.069;33709.273
710.113;24143.662;  -10.908;33044.313
710.687;22360.512;   -9.488;31953.992
711.261;22648.564;  -13.068;30505.949
711.835;25223.375;  -12.748;30262.369
712.409;27464.135;  -10.678;31254.447
712.983;27027.572;  -11.658;32754.986
713.557;26501.277;  -13.718;34018.824
714.131;27241.822;  -13.388;34579.625
714.704;29794.365;   -9.818;33890.262
715.278;31691.594;  -11.818;33531.102
715.852;31770.822;  -11.328;33601.660
716.425;32199.582;   -9.118;33515.117
716.999;32360.324;  -10.188;33185.555
717.573;31396.689;   -9.808;33905.996
718.146;30262.096;  -11.478;35199.293
718.720;29015.154;  -10.998;35060.551
719.293;28152.303;   -9.508;34973.230
719.867;29181.510;  -12.138;36394.449
720.440;28841.602;  -11.288;36663.008
721.013;31001.348;  -11.428;35102.426
721.587;32520.750;  -11.698;33985.266
722.160;33881.910;  -11.608;33524.965
722.733;34094.730;  -11.428;32987.043
723.306;30889.332;  -12.518;33066.301
723.880;29363.777;   -7.408;33399.500
724.453;29193.580;  -11.048;33468.297
725.026;28095.318;  -11.678;33816.637
725.599;26669.697;  -10.978;32797.996
726.172;24895.467;   -8.838;33187.434
726.745;24605.773;  -11.438;35136.613
727.318;26065.508;   -9.828;35751.730
727.891;26838.984;  -10.868;35890.430
728.463;26828.928;  -11.348;34822.090
729.036;25731.900;  -11.608;32895.086
729.609;25368.811;  -14.738;31823.225
730.182;25671.326;   -8.448;31445.283
730.754;26481.594;  -11.228;32373.223
731.327;26716.346;  -12.018;33676.820
731.900;28483.461;  -13.748;33417.000
732.472;29553.572;  -10.928;31978.498
733.045;29094.045;   -9.478;30368.777
733.617;27283.279;  -12.967;30574.215
734.190;26665.559;  -11.707;31280.975
734.762;26134.396;  -11.067;31674.412
735.334;25088.559;  -10.587;31247.291
735.907;23958.633;  -11.947;29876.211
736.479;24368.217;  -11.667;29808.488
737.051;25984.955;  -10.187;30233.547
737.623;26656.664;   -6.887;31469.086
738.195;27994.604;  -12.117;31784.225
738.768;30100.463;  -14.077;32120.523
739.340;29558.191;  -12.207;32094.342
739.912;27111.029;   -8.977;31312.680
740.484;25568.141;  -11.017;31946.238
741.056;27446.186;  -13.517;32984.059
741.628;30004.199;  -11.507;33897.715
742.199;30548.789;   -7.597;33213.016
742.771;30037.395;  -12.227;31369.113
743.343;28567.756;  -12.427;31865.473
743.915;26694.404;   -9.827;32388.631
744.487;25537.344;  -10.007;31079.568
745.058;24685.127;  -11.887;30570.107
745.630;23667.430;  -10.787;29970.127
746.201;23190.166;  -10.887;29186.766
746.773;24710.760;   -9.707;28805.723
747.344;25805.316;  -11.137;29591.223
747.916;25185.666;  -11.887;31412.201
748.487;24486.186;   -9.707;32194.898
749.059;23994.945;  -10.027;32533.719
749.630;23309.863;  -11.787;32158.518
750.201;22048.113;  -12.767;30855.395
750.773;20228.813;  -11.497;28622.555
751.344;21074.371;   -9.937;28405.732
751.915;21060.205;  -11.567;28461.551
752.486;19085.271;  -13.267;27842.850
753.057;18091.631;  -10.627;27845.008
753.628;18124.570;  -11.657;27728.107
754.199;20388.879;  -12.097;27381.086
754.770;21837.904;  -11.447;25882.203
755.341;22155.615;  -11.997;25886.184
755.912;20591.932;  -10.207;26050.861
756.483;18854.766;  -10.937;26798.779
757.054;19241.775;  -11.527;27048.238
757.625;19439.488;  -12.886;26294.838
758.195;18955.510;  -11.226;26142.076
758.766;19302.229;  -12.366;26392.234
759.337;18157.420;  -11.946;26334.594
759.907;17744.219;  -13.856;27579.652
760.478;19034.961;   -9.606;28352.770
761.048;20541.379;  -11.606;27325.088
761.619;21101.393;  -11.036;26460.428
762.189;19497.148;  -12.206;26029.826
762.760;18650.779;   -9.666;26430.145
763.330;19603.598;   -9.796;26670.902
763.900;19462.199;  -10.896;26603.021
764.471;18970.711;  -11.726;25542.740
765.041;19660.330;   -9.656;24358.459
765.611;20083.518;  -11.276;23991.297
766.181;19583.752;  -12.116;24470.236
766.751;19400.875;  -12.376;24845.975
767.321;19728.789;  -11.626;24533.633
767.891;19509.971;  -10.426;24916.492
768.461;17863.395;  -13.456;24776.771
769.031;15471.873;  -11.616;24757.988
769.601;14522.520;  -11.356;24181.088
770.171;14545.446;  -11.586;23670.387
770.741;15194.288;  -12.696;22960.045
771.311;16832.250;  -10.226;22917.523
771.880;17428.434;  -11.146;23562.941
772.450;17803.891;  -11.716;24216.500
773.020;17786.529;  -13.226;24140.398
773.589;16826.514;  -12.586;24414.857
774.159;16387.674;  -10.246;23858.717
774.729;15756.063;  -11.586;22942.135
775.298;15575.156;  -15.926;22324.033
775.867;15479.779;  -10.426;21140.313
776.437;15045.112;  -11.416;20838.092
777.006;13306.990;  -12.766;20599.510
777.576;13315.188;  -13.666;20508.809
778.145;14644.609;  -10.066;20732.947
778.714;14885.181;  -10.276;21062.465
779.283;14341.466;  -12.086;20949.664
779.853;14068.828;  -14.016;20508.623
780.422;13889.359;  -12.376;20649.082
780.991;13259.016;   -9.246;21527.520
781.560;12993.913;   -9.775;22632.658
782.129;13306.552;  -12.495;23048.277
782.698;13384.511;  -11.775;23438.555
783.267;13304.701;  -10.065;23267.734
783.836;14202.125;  -12.455;22415.133
784.404;14700.371;  -13.385;20443.152
784.973;14562.548;  -11.045;19699.150
785.542;14091.735;   -9.505;19763.828
786.111;13388.310;   -9.385;20341.408
786.679;13159.549;  -13.475;20207.967
787.248;13128.768;  -11.245;19516.465
787.817;11728.899;  -12.485;18900.363
788.385;10293.506;  -11.165;17879.121
788.954;10836.654;  -11.755;17658.301
789.522;11822.023;   -9.625;17788.879
790.090;12178.617;   -9.665;18118.277
790.659;11552.056;   -9.295;18338.736
791.227;11506.317;  -12.175;18508.615
791.795;12270.765;  -12.145;17898.254
792.364;12256.713;  -11.575;17295.133
792.932;11663.417;  -11.085;16822.051
793.500;11248.447;  -11.345;17040.148
794.068;10890.504;  -12.565;17179.787
794.636;11475.322;  -12.105;16664.246
795.204;12506.128;  -11.995;16524.545
795.772;12458.647;  -12.615;17274.564
796.340;11923.381;  -12.425;17891.002
796.908;11504.556;  -11.455;17648.561
797.476;10667.127;  -12.165;17064.080
798.044; 9573.927;  -15.795;16672.777
798.612; 9102.473;  -10.985;17023.996
799.180; 9699.707;  -12.055;16561.615
799.747;10228.307;  -12.525;15962.773
800.315; 9466.155;  -14.765;15296.992
800.883; 8327.774;  -12.435;14801.771
801.450; 8211.620;  -11.295;14534.430
802.018; 8614.141;  -11.185;14173.248
802.585; 8761.021;  -11.625;14029.547
803.153; 8101.951;  -10.665;13836.846
803.720; 7627.167;  -10.275;13567.324
804.287; 7792.829;  -12.865;13360.622
804.855; 8057.200;  -12.324;13681.981
805.422; 8035.602;  -11.574;13536.560
805.989; 7699.707;  -11.004;13355.958
806.556; 7912.169;  -12.214;13747.896
807.124; 8286.326;  -13.304;13987.376
807.691; 8195.010;  -12.034;14038.674
808.258; 8018.654;  -11.014;14120.152
808.825; 7901.866;  -11.804;13860.111
809.392; 7653.044;  -11.544;13268.790
809.959; 7475.906;  -14.954;12680.389
810.526; 7761.702;  -10.214;12427.308
811.093; 7775.813;  -10.754;12030.105
811.659; 7352.581;  -12.194;11653.664
812.226; 6654.705;   -9.194;11637.183
812.793; 6519.396;   -9.644;11611.521
813.360; 7175.247;  -11.544;11885.181
813.926; 8123.768;  -12.814;12770.539
814.493; 8184.424;  -11.524;12677.638
815.060; 7967.335;  -12.254;11974.336
815.626; 7776.170;  -12.114;11594.715
816.193; 7243.856;  -11.994;11579.474
816.759; 6702.317;  -11.464;11666.972
817.325; 6266.203;  -10.444;11325.530
817.892; 6003.000;  -11.124;11105.369
818.458; 6019.979;  -11.864;10843.928
819.024; 6510.980;  -10.634;10714.406
819.591; 6711.603;  -10.554;10469.165
820.157; 6760.559;  -13.334;10235.523
820.723; 6784.654;  -13.044;10847.563
821.289; 6667.473;   -9.664;11040.980
821.855; 6756.759;  -10.994;10357.100
822.421; 7021.506;  -11.784; 9978.918
822.987; 7195.792;  -12.554; 9754.177
823.553; 7205.354;  -12.554;10065.755
824.119; 6830.729;   -8.544;10036.294
824.685; 6053.310;  -12.144;10029.192
825.251; 5712.095;  -12.754;10199.230
825.816; 5406.572;  -11.354; 9820.189
826.382; 5033.372;  -11.004; 9297.248
826.948; 5014.350;  -11.004; 9381.347
827.513; 5202.196;  -12.474; 9450.726
828.079; 5288.781;  -13.084; 9472.444
828.645; 5428.174;  -10.813; 9292.643
829.210; 5288.876;  -11.593; 9065.341
829.776; 5297.768;  -12.633; 9132.620
830.341; 5563.651;  -10.473; 9092.878
830.906; 5459.457;   -8.763; 9078.557
831.472; 4803.058;  -13.453; 8534.535
832.037; 3901.939;  -12.173; 8677.874
832.602; 3614.800;  -14.093; 8628.692
833.167; 3947.961;  -13.593; 8879.031
833.733; 4501.988;  -10.793; 9189.790
834.298; 4854.794;  -14.783; 9052.608
834.863; 4534.083;  -11.023; 8895.087
835.428; 4219.091;  -11.113; 8824.266
835.993; 4529.432;   -9.983; 8845.385
836.558; 4771.013;  -13.003; 8888.563
837.123; 4675.056;  -10.733; 8966.582
837.688; 4333.025;   -9.683; 8617.860
838.253; 4110.091;  -12.253; 8590.699
838.817; 4272.628;  -11.643; 8443.797
839.382; 4464.470;  -11.953; 8799.356
839.947; 4432.328;  -11.443; 8810.595
840.511; 4292.868;  -10.843; 8796.394
841.076; 4287.185;  -13.533; 8347.231
841.641; 4396.924;  -11.743; 8224.330
842.205; 4247.722;  -10.013; 8223.349
842.770; 4108.696;  -11.023; 8622.107
843.334; 4106.730;  -14.273; 8410.386
843.898; 4266.646;  -11.323; 8337.465
844.463; 4625.321;  -10.263; 8506.283
845.027; 4795.083;  -10.353; 8280.962
845.591; 4717.358;  -12.163; 8231.141
846.156; 4524.592;  -12.263; 7969.179
846.720; 4506.910;  -11.553; 7768.278
847.284; 4407.675;  -12.393; 7630.957
847.848; 3825.532;  -12.623; 7472.395
848.412; 3289.888;  -11.863; 7437.394
848.976; 3198.022;  -10.203; 7674.592
849.540; 3279.861;  -10.603; 7836.011
850.104; 3392.213;  -12.423; 7913.669
850.668; 3456.847;  -14.613; 7694.508
851.232; 3404.126;  -12.873; 7756.887
851.796; 3422.833;  -14.192; 7926.545
852.359; 3552.268;  -13.652; 7827.844
852.923; 3524.555;  -11.402; 7641.163
853.487; 3409.260;  -12.022; 7342.501
854.050; 3289.567;  -15.202; 7042.820
854.614; 3292.184;  -14.592; 7151.338
855.177; 3248.726;  -12.572; 7105.077
855.741; 3258.919;   -9.932; 6989.675
856.304; 3407.313;  -12.192; 6596.634
856.868; 3445.020;  -13.462; 6356.272
857.431; 3404.182;  -11.542; 6468.571
857.995; 3426.913;  -12.062; 6373.210
858.558; 3206.384;  -11.142; 6324.448
859.121; 2922.854;  -11.742; 6408.327
859.684; 2756.361;  -10.332; 6347.886
860.247; 2733.409;  -11.962; 6321.264
860.810; 2857.206;  -12.332; 6301.903
861.374; 2905.043;  -10.292; 6607.881
861.937; 2838.725;  -12.062; 6408.200
862.500; 2914.461;  -11.702; 6572.639
863.062; 3070.441;  -13.852; 6387.297
863.625; 3160.300;  -12.972; 6190.836
864.188; 3075.680;  -10.292; 5807.254
864.751; 2951.706;  -12.382; 5682.413
865.314; 2786.292;  -13.232; 5547.492
865.876; 2584.470;  -12.772; 5500.150
866.439; 2418.188;  -11.952; 5415.909
867.002; 2394.596;   -9.332; 5501.567
867.564; 2598.994;  -11.712; 5413.946
868.127; 2772.209;  -12.012; 5160.325
868.689; 2577.696;  -11.882; 5133.183
869.252; 2274.792;  -11.572; 5252.382
869.814; 2150.182;  -10.692; 5297.141
870.377; 2232.723;  -12.392; 5390.919
870.939; 2353.152;  -10.582; 5599.898
871.501; 2368.099;  -12.782; 5248.336
872.063; 2319.100;  -15.612; 4854.235
872.626; 2312.059;  -13.922; 4817.074
873.188; 2218.048;  -13.832; 4987.732
873.750; 2090.212;  -10.962; 4868.651
874.312; 2120.978;  -11.022; 4779.330
874.874; 2157.730;  -13.152; 4866.348
875.436; 2126.666;  -13.401; 4718.887
875.998; 2080.253;   -8.891; 4660.005
876.560; 2020.944;  -12.591; 4462.964
877.122; 1948.262;  -14.531; 4145.042
877.683; 1865.265;  -10.781; 4056.481
878.245; 1793.217;  -14.281; 3950.740
878.807; 1787.872;  -10.311; 4058.958
879.369; 1729.255;  -13.201; 3954.677
879.930; 1683.965;  -12.061; 3941.495
880.492; 1698.585;   -9.181; 4067.014
881.053; 1728.921;  -12.051; 3859.633
881.615; 1707.047;  -11.501; 3776.071
882.176; 1617.125;  -12.221; 3734.750
882.738; 1493.878;   -8.931; 3678.489
883.299; 1380.566;  -13.571; 3405.407
883.860; 1385.827;  -12.331; 3351.106
884.422; 1340.231;  -10.201; 3394.044
884.983; 1200.167;  -12.521; 3166.443
885.544; 1091.989;  -12.291; 3189.802
886.105; 1064.657;  -12.991; 3160.360
886.666; 1069.473;  -12.901; 3093.059
887.227; 1045.568;  -12.061; 2941.957
887.788;  999.283;  -11.641; 2974.836
888.349;  952.605;  -14.691; 2721.214
888.910;  904.360;   -9.681; 2696.493
889.471;  875.395;   -9.971; 2560.172
890.032;  856.669;  -13.151; 2558.190
890.593;  834.150;  -12.051; 2567.669
891.153;  804.581;  -12.841; 2460.307
891.714;  778.504;  -13.561; 2372.046
892.275;  759.859;  -12.401; 2309.505
892.835;  729.166;  -13.191; 2382.543
893.396;  683.958;  -12.551; 2295.502
893.956;  668.331;  -11.981; 2162.420
894.517;  671.085;  -12.221; 2125.439
895.077;  644.275;  -12.021; 2086.978
895.638;  577.223;  -10.891; 2126.316
896.198;  516.256;  -13.171; 1838.275
896.758;  476.081;  -11.891; 1892.813
897.319;  436.818;  -12.491; 1792.232
897.879;  414.682;  -12.401; 1762.751
898.439;  387.886;  -13.431; 1661.149
898.999;  369.083;  -11.340; 1781.468
899.559;  361.367;  -13.930; 1703.347
900.119;  347.214;  -13.730; 1537.525
900.679;  331.293;   -9.210; 1638.384
901.239;  316.158;  -10.860; 1527.902
901.799;  297.491;  -11.450; 1456.441
902.359;  277.141;  -13.800; 1357.140
902.919;  266.671;  -12.130; 1331.118
903.479;  263.313;  -12.650; 1317.257
904.038;  254.254;  -16.110; 1262.595
904.598;  238.215;  -13.690; 1152.034
905.158;  223.728;  -10.290; 1240.893
905.717;  215.525;  -10.670; 1233.691
906.277;  212.764;  -14.040; 1217.330
906.836;  213.282;  -13.510; 1222.408
907.396;  207.515;  -11.530; 1193.047
907.955;  197.930;  -13.190; 1182.526
908.515;  187.523;  -12.950; 1099.364
909.074;  178.936;  -12.390; 1092.863
909.633;  173.347;  -10.340; 1069.121
910.192;  171.453;  -11.170; 1196.460
910.752;  169.344;  -14.200; 1029.960
911.311;  165.688;  -13.810; 1009.780
911.870;  161.786;  -12.750;  971.460
912.429;  162.277;  -12.380; 1094.080
912.988;  160.069;  -11.930; 1081.060
913.547;  155.050;  -10.990;  940.380
914.106;  151.719;  -11.200;  999.420
914.665;  149.719;  -13.150;  984.020
915.224;  146.854;  -13.310; 1035.760
915.782;  145.799;  -13.340;  922.560
916.341;  145.558;  -10.710; 1049.840
916.900;  142.695;  -12.980;  925.260
917.458;  141.676;  -13.060;  884.220
918.017;  139.614;  -10.900;  942.600
918.576;  138.800;  -11.630;  904.440
919.134;  137.193;  -12.860;  837.980
919.693;  139.328;  -15.160;  893.060
920.251;  138.423;  -13.470;  876.500
920.809;  136.938;  -13.700;  839.580
921.368;  136.832;  -13.420;  885.360
921.926;  138.608;  -14.710;  842.940
922.484;  139.231;  -12.560;  903.360
923.042;  138.686;  -11.930;  880.340
923.601;  139.259;  -10.270;  998.680
924.159;  138.278;  -12.960;  935.560
924.717;  135.290;  -13.040;  841.080
925.275;  137.030;  -12.560;  903.240
925.833;  136.955;  -13.040;  779.320
926.391;  140.695;  -13.360;  938.380
926.949;  140.045;  -13.940;  857.680
927.506;  139.837;   -9.400;  903.500
928.064;  139.265;  -10.940;  877.580
928.622;  139.320;  -13.180;  880.100
929.180;  139.920;  -12.730;  814.180
929.737;  139.358;  -12.840;  808.540
930.295;  143.457;  -11.810;  928.480
930.853;  148.126;  -13.650;  849.100
931.410;  152.060;  -13.580;  821.120
931.968;  153.667;  -12.020;  940.660
932.525;  153.516;  -13.320;  909.380
933.082;  153.906;  -13.800;  811.440
933.640;  157.635;  -11.380;  925.900
934.197;  158.982;  -11.480;  886.360
934.754;  161.086;  -13.220;  897.780
935.312;  161.243;  -14.950;  863.340
935.869;  158.444;  -10.940; 1012.980
936.426;  153.078;  -12.100;  872.800
936.983;  152.351;  -12.930;  889.020
937.540;  154.638;  -14.250;  838.280
938.097;  159.742;  -12.600;  940.120
938.654;  165.702;  -11.260;  898.860
939.211;  167.918;  -13.020;  952.480
939.768;  171.093;  -15.760;  915.420
940.324;  174.745;  -13.920;  904.200
940.881;  173.138;  -11.620;  878.500
941.438;  169.148;   -9.870; 1021.200
941.995;  166.670;  -13.920;  992.560
942.551;  163.386;  -12.830;  875.620
943.108;  163.839;  -11.980;  937.920
943.664;  166.401;  -13.740;  869.340
944.221;  175.605;  -12.670; 1088.140
944.777;  174.747;  -13.250;  869.680
945.334;  170.599;  -13.000;  884.840
945.890;  169.223;  -13.020;  946.480
946.446;  168.099;  -13.880;  947.020
947.003;  169.185;  -12.660;  964.940
947.559;  170.427;   -8.730; 1063.040
948.115;  166.965;  -11.960; 1026.540
948.671;  164.143;  -12.360;  967.300
949.227;  159.187;  -12.700;  859.560
949.783;  155.557;  -13.450;  858.900
950.339;  154.963;  -10.620;  991.000
950.895;  152.280;  -14.770; 1023.840
951.451;  149.303;  -13.650;  925.280
952.007;  150.604;  -11.180;  998.540
952.563;  150.368;  -11.680;  937.780
953.118;  149.367;  -13.280;  904.940
953.674;  150.372;  -12.510;  935.780
954.230;  151.598;  -12.220;  949.640
954.785;  147.853;  -12.190;  936.640
955.341;  143.918;  -12.270;  998.160
955.897;  141.258;  -14.900;  834.660
956.452;  142.624;  -12.520;  953.840
957.008;  141.589;   -9.410; 1083.640
957.563;  139.015;  -11.280; 1009.540
958.118;  136.083;  -13.470;  877.700
958.674;  137.243;  -12.190;  946.780
959.229;  137.865;  -12.760; 1013.980
959.784;  142.447;  -15.710;  832.400
960.339;  147.325;  -12.540; 1001.280
960.894;  146.039;  -11.680;  963.760
961.449;  141.243;  -11.410;  859.960
962.004;  141.859;  -10.430; 1212.840
962.559;  133.795;  -14.040;  860.140
963.114;  129.148;  -14.270;  742.480
963.669;  128.409;  -11.320;  915.500
964.224;  128.190;  -14.620;  874.340
964.779;  127.987;  -14.150;  828.420
965.334;  128.137;  -10.850; 1017.860
965.888;  127.117;  -14.530;  875.360
966.443;  129.587;  -13.520;  972.380
966.998;  126.135;  -13.370;  819.460
967.552;  124.267;   -9.960;  908.380
968.107;  119.337;  -12.360;  868.300
968.661;  121.644;  -12.270;  922.440
969.216;  119.240;  -12.140;  856.280
969.770;  119.132;  -11.860;  917.200
970.324;  118.762;  -12.170;  923.140
970.879;  119.239;  -14.160;  947.180
971.433;  117.785;  -12.940;  952.720
971.987;  113.877;  -10.180;  895.340
972.541;  112.407;  -12.130;  917.100
973.095;  113.345;  -14.980; 1009.460
973.649;  111.353;  -14.480;  809.480
974.203;  112.661;  -13.530;  829.040
974.757;  114.873;  -12.060;  855.220
975.311;  113.812;  -13.240;  872.600
975.865;  111.293;  -12.550;  881.820
976.419;  109.970;  -13.180;  857.400
976.973;  108.876;  -14.100;  849.620
977.526;  108.163;  -13.330;  949.920
978.080;  104.500;  -15.390;  796.780
978.634;  103.769;  -11.670;  921.320
979.187;   99.853;  -10.640;  905.400
979.741;  100.739;  -13.330; 1018.380
980.294;   98.869;  -14.480;  789.160
980.848;   97.590;  -13.420;  717.220
981.401;   95.998;  -12.360;  816.540
981.955;   93.228;  -12.480;  844.300
982.508;   88.573;  -14.000;  746.340
983.061;   88.654;  -10.440;  915.260
983.615;   84.378;  -14.340;  798.800
984.168;   83.124;  -14.950;  770.080
984.721;   83.655;  -13.270;  880.760
985.274;   81.163;  -12.240;  867.500
985.827;   78.599;  -12.720;  834.220
986.380;   75.671;  -14.920;  721.340
986.933;   76.103;  -12.860;  864.800
987.486;   74.592;  -10.440;  861.920
988.039;   73.325;  -11.820;  863.100
988.591;   71.278;  -13.760;  893.260
989.144;   69.933;  -14.080;  737.260
989.697;   69.963;  -13.440;  758.740
990.250;   70.703;  -12.050;  858.100
990.802;   69.072;  -14.550;  755.860
991.355;   70.309;  -10.770;  974.880
991.907;   68.324;  -11.710;  864.320
992.460;   66.339;  -12.650;  753.760
993.012;   65.152;  -13.860;  749.540
993.565;   63.798;  -14.310;  711.360
994.117;   62.950;   -9.920;  950.780
994.669;   59.232;  -13.420;  701.320
995.221;   58.941;  -14.200;  791.920
995.774;   58.723;  -13.400;  787.580
996.326;   56.866;  -11.850;  740.220
996.878;   57.032;  -12.230;  838.420
997.430;   55.154;  -14.260;  699.860
997.982;   54.812;  -11.430;  750.140
998.534;   54.451;  -11.590;  739.060
999.086;   54.153;  -11.960;  738.220
999.638;   53.140;  -13.640;  661.380
1000.190;   51.893;  -13.660;  699.320
1000.741;   51.494;   -9.980;  742.700
1001.293;   50.876;  -11.860;  686.020
1001.845;   49.499;  -14.280;  676.640
1002.396;   50.740;  -12.270;  743.400
1002.948;   48.774;  -13.670;  737.400
1003.500;   48.251;  -12.010;  723.780
1004.051;   49.504;  -11.890;  907.580
1004.603;   48.700;  -11.220;  791.820
1005.154;   43.672;  -13.210;  608.980
1005.705;   43.267;  -11.850;  723.960
1006.257;   43.590;  -13.670;  707.220
1006.808;   42.165;  -12.060;  685.460
1007.359;   42.450;  -10.250;  763.240
1007.910;   40.164;  -13.440;  646.640
1008.461;   40.743;  -13.170;  732.940
1009.013;   40.026;  -14.590;  588.340
1009.564;   40.742;  -12.100;  793.520
1010.115;   37.719;  -14.000;  597.040
1010.665;   38.028;  -15.020;  602.160
1011.216;   38.648;  -12.560;  667.920
1011.767;   38.177;  -11.330;  697.920
1012.318;   38.263;  -11.450;  736.980
1012.869;   37.116;  -11.000;  679.000
1013.419;   37.415;  -11.760;  603.120
1013.970;   36.753;  -11.800;  666.640
1014.521;   35.669;  -14.750;  620.620
1015.071;   36.333;  -14.430;  670.380
1015.622;   35.341;  -14.170;  635.460
1016.172;   34.865;  -11.700;  596.820
1016.723;   34.333;  -13.230;  614.380
1017.273;   34.708;  -16.120;  604.160
1017.823;   35.220;  -13.360;  650.340
1018.374;   33.973;  -13.710;  611.760
1018.924;   33.684;  -11.050;  716.880
1019.474;   34.696;  -14.120;  718.880
1020.024;   33.243;  -12.990;  657.580
1020.574;   34.421;  -12.010;  726.160
1021.124;   33.569;  -12.080;  673.580
1021.674;   32.425;  -15.860;  559.120
1022.224;   34.143;  -11.710;  708.940
1022.774;   32.987;  -13.030;  668.820
1023.324;   32.529;  -11.000;  753.520
1023.874;   35.131;  -13.270;  875.760
1024.423;   32.240;  -14.570;  613.700
1024.973;   31.109;  -12.620;  610.760
1025.523;   30.371;  -12.630;  620.960
1026.072;   31.075;  -14.110;  606.420
1026.622;   30.518;  -15.390;  675.740
1027.172;   31.189;   -9.090;  715.660
1027.721;   29.111;  -12.250;  601.220
1028.270;   30.089;  -15.590;  663.400
1028.820;   29.783;  -13.840;  638.080
1029.369;   30.080;  -13.170;  612.700
1029.918;   29.538;  -14.080;  649.840
1030.468;   30.345;  -13.860;  564.780
1031.017;   30.453;  -12.970;  634.800
1031.566;   28.813;  -12.320;  608.900
1032.115;   28.955;  -13.140;  694.500
1032.664;   28.112;  -14.560;  596.480
1033.213;   29.328;  -11.620;  735.420
1033.762;   28.191;  -13.190;  635.620
1034.311;   27.611;  -13.460;  677.220
1034.860;   27.879;  -15.770;  691.000
1035.408;   28.359;  -13.100;  722.720
1035.957;   28.527;  -12.880;  719.540
1036.506;   25.784;  -13.640;  530.800
1037.055;   28.963;  -12.420;  844.320
1037.603;   27.657;  -13.740;  664.000
1038.152;   26.054;  -13.840;  534.760
1038.700;   25.514;  -10.770;  585.740
1039.249;   26.393;  -13.520;  681.220
1039.797;   27.193;  -13.060;  633.360
1040.345;   26.838;  -11.760;  705.420
1040.894;   25.171;  -10.790;  625.300
1041.442;   25.512;  -15.420;  632.200
1041.990;   24.654;  -14.550;  559.160
1042.538;   24.201;  -15.620;  536.180
1043.087;   24.072;  -14.940;  570.860
1043.635;   25.640;  -12.100;  670.500
1044.183;   24.969;  -13.200;  586.400
1044.731;   24.784;  -11.630;  576.000
1045.279;   23.388;  -14.200;  674.920
1045.827;   26.615;  -12.510;  892.400
1046.374;   23.570;  -14.960;  515.420
1046.922;   23.018;  -11.850;  590.580
1047.470;   23.087;  -13.770;  691.300
1048.018;   24.427;  -15.380;  647.960
1048.565;   25.340;  -14.010;  708.600
1049.113;   22.647;  -14.620;  557.000
1049.660;   22.809;  -14.940;  629.660
1050.208;   23.629;  -14.540;  675.640
1050.755;   22.188;  -13.710;  606.580
1051.303;   22.923;  -11.880;  686.820
1051.850;   21.636;  -12.160;  635.120
1052.397;   20.285;  -15.110;  473.960
1052.945;   21.207;  -14.770;  617.760
1053.492;   22.934;  -12.320;  741.840
1054.039;   22.377;  -13.290;  720.180
1054.586;   21.355;  -15.210;  557.240
1055.133;   22.441;  -12.920;  693.140
1055.680;   22.535;  -12.610;  646.620
1056.227;   20.335;  -12.620;  542.780
1056.774;   22.645;  -13.010;  794.980
1057.321;   20.389;  -16.180;  523.260
1057.868;   21.167;  -11.230;  651.320
1058.415;   20.359;  -10.890;  651.980
1058.961;   21.197;  -12.530;  678.940
1059.508;   21.273;  -14.120;  643.820
1060.055;   19.808;  -13.340;  581.780
1060.601;   20.089;  -12.920;  624.300
1061.148;   20.525;  -14.430;  616.820
1061.694;   19.273;  -14.140;  592.580
1062.241;   20.114;  -12.550;  596.320
1062.787;   19.160;  -13.370;  663.140
1063.334;   22.137;  -12.260;  808.560
1063.880;   20.746;  -10.800;  668.360
1064.426;   20.248;   -9.920;  706.820
1064.972;   17.635;  -12.970;  601.340
1065.518;   17.765;  -14.440;  566.640
1066.065;   19.013;  -12.680;  624.460
1066.611;   18.717;  -13.520;  598.800
1067.157;   18.426;  -11.100;  641.860
1067.703;   19.045;  -14.100;  668.480
1068.249;   18.059;  -13.750;  605.220
1068.794;   18.487;  -11.070;  626.880
1069.340;   16.093;  -13.210;  578.960
1069.886;   18.243;  -14.850;  590.700
1070.432;   16.975;  -14.580;  541.720
1070.977;   16.713;  -12.930;  601.080
1071.523;   17.067;  -11.970;  573.060
1072.068;   16.924;  -13.730;  582.000
1072.614;   17.511;  -14.550;  527.760
1073.160;   17.821;  -13.690;  687.040
1073.705;   15.668;  -14.780;  572.520
1074.250;   16.438;  -15.430;  559.900
1074.796;   17.232;  -11.620;  655.160
1075.341;   17.453;  -11.580;  664.100
1075.886;   15.859;  -13.190;  594.240
1076.431;   16.333;  -13.630;  649.880
1076.976;   16.717;  -11.670;  639.220
1077.521;   15.360;  -11.600;  583.080
1078.067;   15.186;  -13.920;  579.400
1078.612;   15.577;  -12.910;  661.620
1079.156;   15.826;  -15.340;  601.540
1079.701;   15.853;  -12.560;  693.260
1080.246;   15.875;  -12.490;  696.300
1080.791;   15.498;  -14.550;  625.020
1081.336;   15.821;  -15.210;  659.320
1081.880;   15.551;  -11.280;  649.680
1082.425;   13.705;  -12.830;  573.480
1082.970;   15.807;  -11.680;  717.040
1083.514;   14.513;  -15.500;  597.000
1084.059;   13.670;  -11.770;  586.720
1084.603;   12.679;  -13.480;  565.840
1085.147;   14.657;  -13.940;  645.220
1085.692;   15.455;  -13.170;  716.800
1086.236;   13.208;  -15.740;  503.140
1086.780;   14.672;  -10.750;  751.440
1087.325;   14.408;  -14.900;  654.620
1087.869;   14.274;  -15.160;  610.700
1088.413;   14.672;  -11.030;  705.040
1088.957;   11.775;  -15.210;  543.400
1089.501;   14.094;  -12.310;  766.640
1090.045;   14.310;  -12.790;  726.480
1090.589;   11.497;  -14.040;  569.920
1091.133;   12.927;  -12.800;  673.340
1091.676;   13.254;  -13.600;  591.940
1092.220;   12.707;  -12.960;  600.920
1092.764;   13.557;  -10.830;  706.960
1093.307;   12.561;  -12.390;  673.780
1093.851;   11.241;  -15.850;  556.540
1094.395;   13.572;  -12.980;  683.140
1094.938;   12.227;  -13.670;  632.520
1095.482;   11.483;  -12.740;  559.800
1096.025;   13.090;  -13.340;  710.880
1096.568;   13.823;  -10.500;  779.280
1097.112;    9.359;  -13.500;  508.180
1097.655;   11.748;  -13.060;  603.000
1098.198;   10.914;  -13.240;  600.180
1098.741;   10.616;  -15.490;  612.860
1099.285;   11.368;  -13.410;  657.300
1099.828;    8.405;  -15.640;  439.400
1100.371;   11.055;  -13.980;  608.160
1100.914;   10.980;  -13.990;  682.660
1101.457;   11.297;  -15.030;  679.900
1101.999;    9.587;  -12.480;  584.680
1102.542;   10.593;  -12.410;  641.440
1103.085;   10.792;  -14.730;  658.500
1103.628;   11.027;  -12.190;  762.060
1104.170;    9.051;  -12.360;  588.280
1104.713;   11.293;  -13.350;  646.700
1105.256;    9.950;  -14.930;  557.440
1105.798;    8.577;  -15.150;  499.980
1106.341;   10.940;  -13.230;  728.900
1106.883;    9.183;  -14.680;  521.340
1107.425;   10.245;  -14.810;  668.180
1107.968;    9.121;  -12.940;  612.380
1108.510;    9.933;  -10.550;  684.960
1109.052;    7.521;  -15.640;  612.620
1109.594;    8.605;  -14.440;  554.440
1110.136;    9.686;  -11.380;  643.220
1110.679;    7.944;  -13.090;  633.080
1111.221;    9.381;  -14.230;  604.460
1111.763;    8.028;  -14.260;  559.220
1112.304;    8.244;  -14.510;  547.140
1112.846;    7.597;  -14.700;  666.240
1113.388;   11.909;  -12.270;  942.180
1113.930;    8.697;  -13.340;  694.200
1114.472;    7.634;  -12.560;  606.540
1115.013;    6.184;  -14.280;  551.280
1115.555;    6.881;  -14.010;  587.100
1116.097;    7.037;  -14.730;  579.480
1116.638;    7.592;  -12.160;  684.600
1117.180;    8.136;  -14.320;  667.740
1117.721;    6.775;  -15.730;  568.580
1118.262;    8.208;  -13.480;  677.960
1118.804;    8.116;  -11.530;  637.340
1119.345;    5.861;  -13.540;  578.400
1119.886;    8.402;  -14.470;  704.040
1120.427;    7.501;  -13.030;  589.020
1120.969;    6.037;  -13.150;  597.920
1121.510;    5.867;  -13.940;  563.060
1122.051;    7.350;  -12.310;  723.580
1122.592;    6.098;  -13.870;  655.420
1123.133;    5.533;  -12.890;  547.940
1123.673;    6.669;  -13.300;  706.480
1124.214;    5.833;  -14.000;  612.460
1124.755;    6.823;  -13.210;  639.460
1125.296;    5.926;  -13.450;  627.320
1125.836;    7.386;  -12.610;  691.500
1126.377;    5.456;  -15.840;  599.660
1126.918;    6.656;  -11.830;  614.980
1127.458;    5.661;  -11.830;  622.220
1127.999;    5.554;  -11.490;  656.980
1128.539;    5.941;  -12.900;  694.240
1129.079;    5.396;  -14.910;  632.720
1129.620;    4.349;  -12.920;  558.100
1130.160;    3.691;  -14.640;  539.480
1130.700;    5.103;  -13.270;  640.840
1131.240;    6.137;  -14.110;  643.700
1131.781;    4.465;  -13.130;  619.680
1132.321;    4.688;  -15.220;  599.120
1132.861;    3.515;  -15.670;  564.200
1133.401;    4.720;  -13.970;  593.940
1133.941;    5.054;  -13.740;  626.280
1134.481;    3.940;  -13.200;  597.580
1135.020;    4.167;  -14.830;  609.160
1135.560;    5.822;  -14.590;  674.940
1136.100;    3.344;  -13.730;  501.160
1136.640;    2.847;  -15.240;  510.480
1137.179;    3.790;  -14.710;  537.960
1137.719;    4.216;  -14.090;  605.400
1138.258;    3.178;  -12.470;  587.360
1138.798;    3.875;  -12.580;  663.780
1139.337;    2.722;  -16.480;  482.840
1139.877;    4.581;  -13.970;  642.360
1140.416;    6.416;   -9.870;  878.060
1140.955;    2.038;  -14.860;  535.380
1141.494;    3.410;  -14.530;  669.280
1142.034;    2.339;  -13.940;  583.520
1142.573;    3.606;  -11.160;  646.280
1143.112;    2.145;  -15.050;  553.480
1143.651;    2.707;  -15.390;  536.480
1144.190;    4.186;  -12.990;  691.640
1144.729;    3.011;  -12.220;  607.420
1145.267;    2.502;  -14.020;  584.900
1145.806;    4.189;  -12.740;  637.040
1146.345;    2.964;  -14.810;  635.020
1146.884;    2.678;  -12.920;  622.500
1147.422;    0.927;  -13.930;  533.060
1147.961;    3.971;  -11.830;  708.460
1148.500;    2.857;  -12.710;  669.720
1149.038;    3.119;  -14.420;  632.500
1149.577;    2.155;  -13.920;  698.640
1150.115;    0.592;  -17.050;  452.280
1150.653;    2.880;  -14.890;  607.340
1151.192;    1.751;  -15.270;  552.920
1151.730;    2.218;  -13.160;  652.560
1152.268;    1.994;  -15.430;  589.520
1152.806;    2.117;  -15.880;  571.180
1153.344;    0.332;  -13.240;  577.640
1153.882;    1.836;  -13.010;  600.060
1154.421;    0.185;  -16.180;  470.620
1154.958;    1.028;  -13.880;  595.240
1155.496;    2.031;  -13.590;  645.280
1156.034;    1.347;  -11.910;  721.880
1156.572;    1.897;  -12.010;  667.060
1157.110;    0.554;  -16.250;  473.940
1157.647;    2.112;  -15.230;  676.960
1158.185;    0.400;  -13.770;  564.320
1158.723;   -0.417;  -15.300;  509.200
1159.260;    1.883;  -13.130;  701.700
1159.798;    2.052;  -11.300;  658.160
1160.335;    0.296;  -13.210;  631.820

