
Integration time [ms]:   3.276
Averaging Nr. [scans]: 1000
Smoothing Nr. [pixels]: 0
Data measured with spectrometer [name]: 7414430SP
Wave   ;Sample   ;Dark     ;Reference
[nm]   ;[counts] ;[counts] ;[counts] 

288.544;  151.218;    7.793;  793.890
289.143;  155.097;    7.462;  681.602
289.742;  154.250;    8.602;  828.814
290.341;  140.157;    1.321;  789.841
290.940;  129.442;   -0.709;  730.702
291.538;  130.487;    0.881;  881.108
292.137;  130.875;    0.122;  792.581
292.736;  134.211;   -1.929;  975.101
293.335;  131.393;   -8.229;  735.086
293.934;  131.376;   -5.279;  781.677
294.532;  130.104;   -1.369; 1031.958
295.131;  116.198;   -7.641;  834.394
295.730;  116.521;   -8.420;  809.588
296.328;  115.905;   -5.611;  783.442
296.927;  116.224;   -5.781;  779.652
297.525;  116.742;   -6.361;  781.236
298.124;  106.408;  -11.382;  654.009
298.722;  111.587;   -7.641;  761.933
299.321;  109.245;   -6.811;  708.597
299.919;  107.143;   -6.991;  751.918
300.518;  104.049;  -10.362;  689.338
301.116;  106.514;   -9.581;  691.381
301.715;  105.905;   -4.891;  730.222
302.313;  104.063;   -8.801;  704.943
302.911;   99.761;   -8.522;  733.830
303.509;  105.860;   -6.171;  925.627
304.108;  103.127;   -7.311;  760.383
304.706;  101.875;   -8.321;  801.664
305.304;   96.230;  -10.222;  796.707
305.902;  102.587;   -6.021;  784.484
306.500;   99.758;   -4.971;  728.200
307.098;   96.259;   -7.061;  746.560
307.696;   93.334;   -8.801;  780.432
308.294;   95.167;   -6.411;  731.359
308.892;   96.767;   -2.901;  759.769
309.490;   93.304;   -5.041;  712.161
310.088;   91.496;   -5.002;  788.444
310.686;   96.333;   -2.041;  821.749
311.284;   91.126;   -2.351;  766.040
311.882;   88.694;   -4.422;  731.225
312.480;   86.778;   -4.192;  697.167
313.078;   87.143;   -1.172;  808.331
313.675;   88.309;   -2.601;  691.600
314.273;   83.209;   -1.312;  797.837
314.871;   82.514;   -3.942;  589.829
315.468;   81.019;   -2.802;  652.090
316.066;   83.505;   -0.701;  694.427
316.664;   75.476;   -4.362;  656.351
317.261;   80.565;   -2.872;  910.128
317.859;   75.782;   -2.022;  768.735
318.456;   76.492;   -0.531;  830.096
319.054;   72.223;   -3.912;  787.828
319.651;   71.498;   -4.752;  759.928
320.249;   70.971;   -2.602;  810.188
320.846;   68.485;   -0.821;  714.286
321.443;   65.180;   -4.642;  832.135
322.041;   62.604;   -5.002;  812.315
322.638;   60.540;   -3.982;  701.456
323.235;   61.813;   -3.411;  665.683
323.833;   58.867;   -7.361;  740.354
324.430;   54.646;   -8.611;  615.900
325.027;   55.545;   -4.061;  876.855
325.624;   55.332;   -4.031;  644.532
326.221;   52.105;   -7.481;  689.717
326.818;   51.581;   -5.281;  818.332
327.415;   55.355;   -7.460;  748.828
328.012;   55.068;   -5.510;  690.585
328.609;   52.714;   -7.880;  731.389
329.206;   51.168;   -8.331;  778.621
329.803;   51.932;   -5.121;  737.841
330.400;   53.751;   -4.510;  704.260
330.997;   55.561;   -6.441;  817.147
331.594;   54.146;   -8.831;  788.185
332.191;   59.360;   -7.621;  728.722
332.787;   61.897;   -4.591;  844.463
333.384;   60.818;   -7.412;  763.093
333.981;   59.989;   -8.293;  815.687
334.578;   62.197;   -7.052;  708.378
335.174;   65.131;   -3.102;  731.469
335.771;   64.368;   -5.943;  836.456
336.367;   60.891;   -7.393;  710.631
336.964;   65.892;   -4.063;  793.266
337.561;   64.074;   -3.813;  731.112
338.157;   59.234;   -4.654;  911.916
338.754;   56.604;   -7.934;  796.589
339.350;   54.745;   -4.414;  722.493
339.946;   57.464;   -4.664;  773.135
340.543;   48.562;   -6.375;  846.136
341.139;   43.311;   -9.815;  720.836
341.735;   42.262;   -4.526;  772.593
342.332;   39.805;   -4.895;  691.472
342.928;   39.967;   -4.295;  795.394
343.524;   34.305;   -5.476;  761.684
344.120;   31.109;   -5.856;  738.562
344.716;   33.775;   -2.155;  723.717
345.313;   31.699;   -6.275;  795.342
345.909;   25.911;   -8.815;  627.336
346.505;   28.981;   -5.305;  740.247
347.101;   28.302;   -2.674;  827.864
347.697;   28.898;   -4.344;  785.398
348.293;   23.444;   -9.975;  627.244
348.889;   24.922;   -5.774;  745.914
349.485;   24.223;   -5.004;  688.205
350.081;   24.699;   -4.704;  772.592
350.676;   19.995;   -6.635;  691.606
351.272;   24.687;   -4.504;  809.530
351.868;   24.461;   -3.914;  780.497
352.464;   20.893;   -9.044;  723.932
353.059;   17.325;   -8.314;  646.017
353.655;   20.846;   -7.024;  777.063
354.251;   22.251;   -5.343;  759.845
354.846;   16.550;   -8.604;  740.646
355.442;   14.868;   -6.945;  753.071
356.038;   16.522;   -7.564;  751.708
356.633;   16.706;   -5.814;  728.594
357.229;   14.320;   -7.364;  724.757
357.824;   12.674;   -8.024;  703.600
358.420;   12.155;   -9.384;  679.726
359.015;   12.777;   -5.104;  695.357
359.610;   13.741;   -6.854;  763.920
360.206;    7.386;  -10.185;  603.240
360.801;   10.695;   -7.054;  646.503
361.396;   12.530;   -5.034;  725.975
361.992;    7.968;   -8.284;  668.220
362.587;    5.422;   -8.625;  670.160
363.182;    7.263;   -7.674;  689.631
363.777;    8.171;   -5.164;  738.242
364.372;    7.626;   -8.604;  737.314
364.967;    3.797;   -9.055;  680.744
365.563;    8.485;   -6.114;  815.567
366.158;    5.488;   -5.814;  685.161
366.753;    5.858;   -7.854;  649.263
367.348;    4.748;   -7.804;  746.056
367.942;    3.865;   -7.954;  697.298
368.537;    3.224;   -4.984;  754.245
369.132;    3.551;   -8.564;  703.428
369.727;   -0.193;   -8.855;  638.079
370.322;    0.559;   -6.245;  580.186
370.917;    0.783;   -6.425;  710.646
371.511;    3.257;   -6.294;  861.834
372.106;   -0.636;   -7.685;  776.964
372.701;   -2.849;   -7.335;  585.988
373.296;    3.167;   -4.564;  863.135
373.890;   -2.522;  -10.235;  647.840
374.485;   -4.921;   -7.885;  691.199
375.079;   -0.140;   -7.324;  738.685
375.674;    0.432;   -3.494;  812.970
376.268;   -3.631;   -8.525;  691.759
376.863;   -8.967;  -10.086;  580.327
377.457;   -2.918;   -7.025;  662.490
378.052;   -4.115;   -3.585;  764.884
378.646;   -5.336;   -7.595;  741.167
379.240;   -5.991;   -8.335;  721.176
379.835;   -5.124;   -5.785;  636.978
380.429;   -7.383;   -4.335;  562.557
381.023;   -7.057;   -6.805;  779.205
381.617;   -9.277;   -9.195;  680.106
382.212;   -5.628;   -6.905;  685.303
382.806;   -4.430;   -3.745;  760.690
383.400;   -9.217;   -7.745;  672.281
383.994;  -10.054;   -9.765;  664.870
384.588;   -6.281;   -6.564;  697.701
385.182;   -4.880;   -5.344;  726.624
385.776;   -7.162;   -8.514;  706.875
386.370;  -10.615;   -9.555;  681.968
386.964;   -8.702;   -8.715;  684.155
387.558;   -7.261;   -6.174;  598.360
388.152;  -10.593;   -8.725;  681.959
388.745;   -9.150;   -7.965;  814.707
389.339;   -6.215;   -5.924;  747.642
389.933;   -5.771;   -5.524;  695.370
390.527;   -7.108;   -7.114;  859.029
391.120;  -13.536;  -10.725;  595.318
391.714;  -10.151;   -8.035;  711.633
392.308;   -7.172;   -3.574;  780.253
392.901;  -11.522;   -7.245;  642.460
393.495;  -12.408;   -9.285;  595.414
394.089;  -10.155;   -5.895;  760.452
394.682;  -10.474;   -4.295;  697.188
395.275;  -12.077;   -9.875;  719.927
395.869;  -12.979;   -8.485;  667.314
396.462;  -10.477;   -7.455;  616.609
397.056;   -6.896;   -5.424;  776.621
397.649;  -12.835;   -6.605;  731.575
398.242;   -9.975;   -8.224;  712.645
398.836;   -7.903;   -7.474;  766.408
399.429;   -9.247;   -7.094;  631.041
400.022;  -13.436;   -9.475;  665.902
400.615;  -10.226;   -7.145;  805.609
401.208;   -8.596;   -7.174;  691.451
401.802;  -10.833;   -5.515;  699.329
402.395;  -11.907;   -9.875;  683.502
402.988;  -13.104;   -8.845;  696.627
403.581;  -10.040;   -8.874;  646.878
404.174;   -7.432;   -5.324;  686.568
404.767;  -10.457;   -9.575;  638.583
405.360;  -12.875;  -10.965;  621.445
405.953;   -6.589;   -8.764;  759.034
406.545;   -6.634;   -7.514;  725.342
407.138;  -11.523;  -10.025;  618.350
407.731;   -9.857;  -10.034;  613.303
408.324;   -5.832;   -9.374;  660.554
408.917;   -6.259;   -6.534;  681.864
409.509;   -9.043;   -8.004;  740.396
410.102;  -10.224;   -9.875;  643.948
410.695;   -4.717;   -8.604;  665.758
411.287;   -5.192;   -6.794;  599.821
411.880;   -7.070;   -9.334;  585.421
412.472;  -10.090;  -10.254;  613.092
413.065;   -6.297;   -6.714;  629.408
413.657;   -4.890;   -7.234;  576.678
414.250;   -4.872;  -10.544;  646.681
414.842;   -6.243;   -9.744;  676.353
415.434;   -3.588;   -6.994;  570.463
416.027;    0.119;   -5.893;  652.196
416.619;   -2.783;   -7.264;  713.400
417.211;   -2.394;  -10.374;  599.352
417.804;    1.590;   -7.993;  628.499
418.396;   -2.440;   -7.234;  607.643
418.988;   -0.019;   -9.443;  659.238
419.580;   -4.001;  -10.724;  568.276
420.172;   -1.524;  -10.323;  536.196
420.764;    2.755;   -8.793;  672.482
421.356;    0.839;  -11.143;  636.898
421.948;    0.349;   -8.293;  677.661
422.540;    5.926;   -7.893;  680.027
423.132;    5.284;   -7.082;  600.641
423.724;    1.173;   -8.653;  561.267
424.316;    3.533;  -10.213;  621.345
424.908;    6.936;   -9.762;  591.517
425.500;    7.755;   -5.572;  647.978
426.092;    7.965;   -8.422;  648.268
426.683;    7.068;   -9.283;  684.836
427.275;   10.298;   -7.852;  641.471
427.867;   11.836;   -5.272;  668.948
428.458;   12.340;   -7.682;  732.344
429.050;   10.122;  -10.612;  680.749
429.642;   13.460;   -9.882;  743.124
430.233;   13.565;   -6.962;  569.356
430.825;   14.271;   -6.842;  724.809
431.416;   11.232;   -9.672;  698.241
432.008;   16.368;   -6.552;  651.723
432.599;   15.749;   -6.891;  656.073
433.190;   13.501;  -10.912;  637.670
433.782;   13.097;  -11.172;  590.395
434.373;   19.778;   -6.061;  884.765
434.964;   19.334;   -8.251;  602.920
435.556;   16.642;   -9.722;  634.537
436.147;   19.263;   -9.082;  758.490
436.738;   19.485;   -8.041;  701.099
437.329;   25.445;   -7.341;  721.723
437.920;   18.354;   -8.162;  666.688
438.511;   17.224;  -11.802;  564.526
439.103;   24.602;  -10.191;  623.998
439.694;   25.901;   -7.601;  681.583
440.285;   26.394;   -8.541;  764.432
440.876;   24.408;   -9.751;  845.738
441.466;   24.371;   -9.401;  575.162
442.057;   30.093;   -7.760;  665.814
442.648;   28.714;   -9.971;  746.255
443.239;   26.243;  -11.001;  620.477
443.830;   31.865;   -7.990;  704.958
444.421;   33.931;   -7.910;  655.474
445.011;   30.526;   -8.131;  693.619
445.602;   30.420;   -7.111;  743.126
446.193;   32.498;  -10.920;  488.117
446.783;   36.665;   -6.500;  640.397
447.374;   31.718;   -8.671;  692.759
447.964;   32.088;  -10.781;  713.770
448.555;   41.218;   -9.650;  822.742
449.145;   38.059;   -8.660;  662.853
449.736;   38.322;   -8.990;  803.179
450.326;   38.418;   -9.500;  713.626
450.917;   43.704;   -8.680;  675.324
451.507;   42.096;   -7.520;  600.661
452.097;   43.174;   -8.590;  746.267
452.688;   44.161;  -11.340;  742.160
453.278;   44.586;  -10.100;  566.840
453.868;   48.002;   -6.019;  793.550
454.458;   46.313;   -9.440;  651.141
455.048;   46.129;  -10.560;  711.783
455.639;   48.796;  -11.799;  567.096
456.229;   52.769;   -6.899;  710.694
456.819;   53.334;   -7.389;  751.158
457.409;   53.529;  -11.119;  773.993
457.999;   57.094;   -9.289;  737.505
458.589;   56.594;   -6.139;  686.606
459.179;   56.571;   -8.729;  717.658
459.769;   55.016;   -9.789;  627.099
460.358;   60.719;  -10.259;  797.262
460.948;   60.738;   -7.299;  689.503
461.538;   60.899;  -10.289;  660.677
462.128;   59.055;  -11.269;  664.934
462.717;   66.166;   -9.368;  710.326
463.307;   69.402;   -7.908;  705.846
463.897;   64.556;   -9.599;  656.942
464.486;   63.519;   -9.769;  837.128
465.076;   69.832;   -8.048;  733.776
465.666;   73.133;   -9.358;  652.900
466.255;   70.017;   -7.919;  785.651
466.845;   69.209;  -11.689;  666.749
467.434;   72.752;   -7.818;  725.873
468.023;   74.541;   -7.678;  658.357
468.613;   71.422;  -10.939;  713.946
469.202;   75.217;  -10.118;  646.507
469.791;   79.628;   -9.108;  737.811
470.381;   82.795;   -6.058;  742.813
470.970;   81.410;  -10.428;  711.099
471.559;   81.052;  -10.268;  733.291
472.148;   84.812;   -8.448;  675.737
472.738;   87.407;   -6.917;  765.466
473.327;   86.021;  -11.978;  637.529
473.916;   86.132;  -11.888;  737.446
474.505;   90.923;   -9.437;  751.703
475.094;   94.241;   -6.747;  806.570
475.683;   93.250;   -9.367;  797.699
476.272;   94.022;  -12.637;  730.632
476.861;   97.463;  -10.027;  706.754
477.449;  104.044;   -8.716;  728.487
478.038;   98.045;   -9.577;  692.513
478.627;   99.270;   -9.718;  714.852
479.216;  105.962;   -8.947;  769.441
479.805;  110.631;   -6.256;  783.375
480.393;  109.525;   -7.937; 1008.945
480.982;  107.095;   -7.717;  874.501
481.571;  114.803;   -9.266;  858.333
482.159;  115.314;   -7.636;  705.386
482.748;  114.820;   -9.667;  821.385
483.336;  119.725;  -10.376;  858.209
483.925;  121.341;   -7.147;  774.373
484.513;  127.796;   -7.996;  758.962
485.102;  124.404;  -10.027;  810.965
485.690;  132.662;  -10.446; 1011.050
486.278;  135.541;   -8.446;  979.329
486.867;  136.354;   -6.356;  809.662
487.455;  138.312;   -9.136;  898.229
488.043;  139.541;  -10.646;  748.361
488.631;  148.653;   -7.456; 1005.079
489.220;  153.436;   -6.636;  908.626
489.808;  152.022;  -11.036;  741.415
490.396;  161.544;  -10.246;  914.645
490.984;  167.610;   -8.556;  830.161
491.572;  178.556;   -5.886;  940.315
492.160;  183.917;   -9.486;  919.081
492.748;  196.463;  -10.976;  884.341
493.336;  220.431;   -8.776; 1019.693
493.924;  249.892;   -5.465;  958.077
494.512;  278.162;   -9.986; 1066.638
495.100;  320.855;  -10.636; 1103.280
495.687;  378.811;  -10.885; 1206.373
496.275;  447.867;   -8.126; 1150.796
496.863;  522.740;  -10.586; 1281.171
497.451;  631.441;  -11.926; 1386.805
498.038;  774.185;  -10.885; 1556.729
498.626;  888.464;   -6.315; 1741.407
499.214; 1043.480;   -7.326; 2016.609
499.801; 1268.951;  -11.906; 2220.633
500.389; 1532.799;  -10.466; 2312.494
500.976; 1879.428;   -5.236; 2744.849
501.564; 2355.305;   -8.936; 3148.565
502.151; 2771.178;  -13.176; 3515.999
502.738; 3268.285;  -10.646; 3971.274
503.326; 3677.034;   -9.525; 4403.796
503.913; 4089.034;  -10.856; 5161.749
504.500; 4483.452;  -11.586; 5986.420
505.088; 4919.741;  -10.336; 6381.201
505.675; 5505.125;   -6.355; 6925.547
506.262; 6284.406;   -9.046; 7619.060
506.849; 7023.405;  -10.416; 8733.969
507.436; 7533.879;  -10.305; 9790.121
508.023; 8157.766;   -5.496; 9985.472
508.610; 8434.445;   -7.856;10434.618
509.197; 9133.306;  -10.097;11198.435
509.784;10631.619;  -10.886;12391.194
510.371;11715.147;   -9.315;13603.713
510.958;12430.156;   -9.936;14426.586
511.545;13268.045;   -9.326;15243.775
512.132;14286.952;  -10.075;15945.876
512.719;15023.600;   -7.796;16340.369
513.305;16045.349;  -10.606;18011.766
513.892;16837.400;  -11.486;19754.971
514.479;18238.664;   -9.126;20967.805
515.066;19630.549;   -6.026;22299.793
515.652;20851.549;   -8.466;22908.660
516.239;22361.809;  -10.886;23798.875
516.825;23669.857;  -11.496;25567.275
517.412;24924.549;   -5.796;28154.959
517.998;25494.744;  -10.506;28344.111
518.585;25428.625;  -10.076;27134.219
519.171;25999.131;   -8.315;27268.576
519.758;27579.934;   -8.596;28964.129
520.344;29299.711;   -8.466;30664.494
520.930;29266.172;  -11.006;32550.605
521.516;31159.635;  -10.495;35422.895
522.103;33678.680;   -5.526;38280.004
522.689;34446.797;   -8.746;37835.117
523.275;33564.512;  -11.376;37288.613
523.861;34360.359;  -11.156;37281.395
524.447;35801.195;   -8.135;37846.949
525.033;35561.449;   -7.896;38321.949
525.619;35627.773;  -12.476;38579.285
526.205;37437.195;   -9.516;40622.875
526.791;39970.922;   -6.926;42258.836
527.377;40136.695;   -8.346;42966.902
527.963;41926.465;   -8.717;42018.949
528.549;40045.777;  -11.016;42476.828
529.135;38709.785;   -8.536;41854.852
529.721;38356.625;   -9.666;41237.711
530.306;37784.598;  -10.066;41259.445
530.892;37433.992;  -11.356;41506.047
531.478;38854.379;   -6.596;43559.613
532.063;41738.016;   -8.836;47695.563
532.649;41847.863;  -10.047;50808.324
533.235;42999.082;   -9.746;51787.500
533.820;44118.160;   -6.566;52145.035
534.406;45596.148;  -10.817;51133.488
534.991;45501.641;   -9.416;49996.805
535.576;44037.449;   -9.036;48882.852
536.162;44335.258;   -6.156;46942.285
536.747;45395.344;  -11.607;45711.746
537.333;49605.348;  -11.787;48510.180
537.918;52207.258;  -12.437;50439.891
538.503;50451.223;   -7.196;50863.711
539.088;47544.973;  -10.556;50906.922
539.673;47490.105;   -8.767;52621.965
540.259;47078.156;  -10.026;52368.094
540.844;44201.980;   -7.416;50879.109
541.429;45321.352;   -9.467;52077.777
542.014;48504.559;   -9.527;52716.695
542.599;47907.504;   -9.946;52363.281
543.184;45850.887;   -7.927;53187.137
543.769;47754.922;   -9.297;54697.605
544.354;46838.875;  -10.127;53913.914
544.938;45490.578;   -9.267;49680.164
545.523;47379.133;   -6.506;47386.277
546.108;49675.984;   -9.787;49151.949
546.693;51947.121;  -11.587;51384.637
547.278;52079.191;  -10.986;51853.254
547.862;48938.020;   -8.206;51173.750
548.447;44102.250;  -10.067;51691.395
549.031;43656.340;   -9.637;52456.703
549.616;48869.727;   -9.926;52714.516
550.201;47765.906;   -6.347;52414.598
550.785;48986.789;   -7.917;52355.059
551.370;48185.227;  -10.867;54589.453
551.954;48415.223;   -9.047;58267.348
552.538;49184.555;   -7.827;59062.176
553.123;47535.367;  -10.287;58115.285
553.707;45653.199;  -12.178;56556.285
554.291;46812.410;   -8.717;56201.668
554.876;48847.426;   -7.457;55335.762
555.460;49396.578;  -10.387;54155.703
556.044;50801.367;   -9.618;53721.484
556.628;49169.617;  -11.567;53731.016
557.212;47682.965;   -8.097;54312.531
557.796;46162.305;  -11.077;53797.773
558.380;45814.203;  -11.108;56145.984
558.964;46152.695;   -9.057;57277.930
559.548;47090.887;   -6.977;56459.641
560.132;45656.012;  -11.457;54434.543
560.716;44643.672;  -11.378;54800.617
561.300;46058.414;   -9.577;57606.945
561.884;47140.645;   -7.127;58972.445
562.467;45748.633;   -7.118;57327.570
563.051;44823.355;  -13.358;54962.434
563.635;45600.531;  -10.178;52594.473
564.219;46162.840;   -7.837;50610.410
564.802;47104.918;  -11.398;49551.180
565.386;47296.289;  -12.788;48370.953
565.969;46792.988;   -9.077;48178.871
566.553;46344.859;   -6.207;49957.305
567.136;46386.168;   -8.568;50369.594
567.720;42141.031;  -11.868;49492.004
568.303;40070.629;   -8.268;50616.352
568.887;40275.590;   -8.698;50727.148
569.470;40391.188;   -6.808;51698.379
570.053;38935.313;  -13.188;52122.078
570.637;37357.980;  -12.037;52536.438
571.220;37108.066;   -8.577;51186.098
571.803;37519.063;   -8.498;51032.762
572.386;40302.527;  -10.498;49609.887
572.969;42812.262;   -9.388;48285.926
573.552;40350.797;   -8.338;47624.285
574.135;38937.207;   -8.518;45498.641
574.718;36518.422;  -13.628;41970.434
575.301;35244.570;  -10.893;41447.137
575.884;33970.719;   -8.158;40923.836
576.467;35364.594;  -10.328;45267.723
577.050;38063.773;  -13.058;48175.543
577.633;39492.852;   -9.458;47729.328
578.216;38074.195;   -8.928;47579.793
578.799;37087.375;   -9.358;47820.996
579.381;35772.984;  -11.388;48115.551
579.964;34419.117;  -11.718;47333.766
580.547;36127.023;   -8.588;46668.969
581.129;37074.891;   -8.859;44466.141
581.712;37477.023;  -10.729;44164.922
582.294;38141.609;  -11.118;46477.855
582.877;38146.230;   -5.218;48244.254
583.459;35534.816;   -8.679;47437.895
584.042;33770.324;  -10.709;46943.219
584.624;34748.918;  -11.669;46792.227
585.206;34175.148;   -8.218;46557.250
585.789;34437.082;  -10.569;45793.773
586.371;37299.063;  -11.859;43836.391
586.953;37574.941;  -10.719;42972.492
587.536;38920.820;   -7.198;42487.211
588.118;38296.516;   -8.720;42086.414
588.700;35101.777;  -10.439;43389.930
589.282;34415.844;   -9.198;43646.039
589.864;35127.996;   -9.199;43438.109
590.446;35772.254;  -11.319;43151.926
591.028;35480.379;  -11.159;42781.867
591.610;34608.012;  -11.779;42839.098
592.192;32338.072;   -7.668;42820.402
592.774;30978.330;  -11.949;40724.277
593.356;29699.057;  -12.129;39874.789
593.937;28679.182;  -10.669;39980.648
594.519;30975.477;   -6.509;42069.633
595.101;33107.363;  -10.849;42976.031
595.683;33133.965;  -11.679;44084.441
596.264;34283.520;   -9.049;43478.797
596.846;33353.488;   -8.849;43803.672
597.427;32979.246;   -9.570;42986.934
598.009;34659.090;  -12.620;42832.219
598.591;34953.117;  -10.039;42580.086
599.172;33844.375;  -10.369;43061.805
599.753;33889.883;   -9.140;41691.469
600.335;35446.176;  -11.430;40692.520
600.916;33895.254;   -9.939;39982.422
601.498;31463.029;   -8.479;40318.617
602.079;29964.406;  -10.920;40670.609
602.660;30208.152;  -11.480;41450.898
603.241;31716.027;  -11.699;41137.738
603.823;30483.865;   -9.579;38868.797
604.404;30619.217;  -10.620;38182.785
604.985;31854.086;  -10.450;38078.047
605.566;31142.602;   -9.129;38056.633
606.147;31343.891;   -7.510;37020.418
606.728;33265.891;  -10.660;37883.359
607.309;31955.580;  -11.740;38748.273
607.890;31246.727;   -9.759;38850.230
608.471;30727.049;   -8.250;37457.918
609.051;29743.211;   -9.240;36066.457
609.632;28739.785;  -12.120;35991.074
610.213;29720.164;   -9.110;37402.641
610.794;30276.699;   -8.030;38383.363
611.374;29641.879;   -8.110;40562.387
611.955;29970.008;  -13.560;38533.727
612.536;31249.488;  -11.400;36951.789
613.116;31414.564;   -8.070;37197.891
613.697;31602.852;  -10.830;38411.125
614.277;30254.303;  -11.641;38673.938
614.858;31140.355;  -13.310;37075.863
615.438;30079.908;   -7.460;35092.906
616.019;27186.563;   -7.601;33666.301
616.599;28020.496;  -12.020;34189.023
617.179;29900.561;  -11.780;36952.047
617.760;30767.408;   -8.570;39582.574
618.340;31878.711;  -11.471;38943.977
618.920;33204.422;  -11.170;37594.156
619.500;33008.008;  -11.071;37866.938
620.080;32296.242;   -7.750;37869.043
620.660;33504.688;  -12.711;36868.617
621.241;34917.965;  -10.211;36352.309
621.821;34941.699;  -10.961;35459.520
622.401;33835.211;   -7.720;35207.414
622.980;33104.914;   -8.981;35980.422
623.560;31733.072;   -9.331;37351.328
624.140;30688.600;   -9.850;34388.582
624.720;25244.496;   -7.451;32368.764
625.300;21632.617;   -9.070;32638.629
625.880;25120.961;  -12.601;34599.035
626.459;29288.266;  -11.751;36831.738
627.039;32521.154;   -9.281;38299.098
627.619;32475.086;   -8.801;38289.574
628.198;30724.238;  -12.071;37220.695
628.778;29795.092;   -9.461;37632.563
629.357;30516.418;   -8.491;38003.012
629.937;30535.795;   -9.721;38402.039
630.516;29778.689;   -9.951;37868.801
631.096;29338.689;  -11.731;35760.410
631.675;32750.969;   -8.572;35225.219
632.254;37816.559;  -11.282;35130.289
632.834;37087.816;  -13.322;35794.570
633.413;34960.891;  -10.301;35788.922
633.992;31783.074;   -8.582;34532.863
634.571;32647.016;   -8.352;33590.113
635.151;35432.160;  -11.912;34943.863
635.730;33873.051;  -10.511;35352.523
636.309;30789.291;   -7.731;35366.605
636.888;28654.783;   -9.952;36165.637
637.467;29779.379;  -11.672;37515.902
638.046;31370.090;   -8.901;39288.695
638.625;34498.461;   -7.912;38279.699
639.204;34071.832;  -10.022;37741.598
639.782;32365.168;  -12.252;38364.551
640.361;28336.480;  -10.041;36740.621
640.940;25475.070;  -11.161;34950.082
641.519;26103.693;   -9.701;34137.398
642.097;29317.486;  -11.271;35654.258
642.676;32250.873;   -8.651;35637.957
643.255;32576.355;   -8.711;36567.074
643.833;31647.047;   -9.581;37809.434
644.412;31840.291;  -13.711;37337.293
644.990;31198.143;  -11.811;37018.531
645.569;31644.703;   -9.411;36518.469
646.147;30403.912;  -10.291;36186.430
646.726;29512.098;  -12.401;36267.688
647.304;30399.924;  -10.411;36647.625
647.882;32633.031;   -9.651;39286.742
648.461;34599.906;   -9.631;39157.703
649.039;32609.121;  -11.881;35412.883
649.617;31854.838;   -9.661;34744.918
650.195;31540.891;   -9.301;35403.098
650.773;29990.738;  -10.511;35053.797
651.352;27715.232;  -11.521;33756.816
651.930;25408.092;  -12.211;31868.773
652.508;23769.932;   -9.171;33121.551
653.086;27722.354;   -9.371;33564.793
653.663;30325.961;  -13.161;34054.668
654.241;29543.764;  -13.031;35693.309
654.819;31363.852;   -9.371;36422.906
655.397;31374.973;  -10.511;38213.484
655.975;31175.479;  -10.371;39507.625
656.553;30720.270;  -10.051;39498.223
657.130;29041.227;  -10.061;40395.480
657.708;28546.559;   -9.561;39242.020
658.286;28485.736;  -11.511;38920.020
658.863;29483.764;  -10.261;40202.898
659.441;32534.609;   -7.531;39677.938
660.018;31953.541;   -9.501;40413.355
660.596;30990.578;  -13.301;39931.414
661.173;33157.660;  -11.211;39604.531
661.750;33330.363;   -9.951;39700.070
662.328;32246.928;   -9.390;39292.809
662.905;31121.021;  -11.330;38235.648
663.482;26400.625;   -9.050;36212.305
664.060;24595.771;   -8.240;35944.945
664.637;27579.277;  -10.050;35170.785
665.214;29466.998;  -11.760;34197.523
665.791;30707.102;  -10.530;34549.520
666.368;29433.902;   -9.690;35118.578
666.945;30571.699;   -9.320;36019.418
667.522;32143.172;  -11.860;36048.438
668.099;31931.723;  -10.770;36243.914
668.676;30801.184;   -6.260;35958.875
669.253;29392.086;   -7.000;37384.730
669.830;30057.576;  -10.190;36779.629
670.407;29712.004;   -9.550;35231.289
670.984;29981.725;   -9.260;35544.270
671.560;30272.627;   -9.280;35466.867
672.137;29045.154;  -11.810;34280.863
672.714;29836.908;  -11.490;34632.863
673.290;30327.924;   -7.740;35135.422
673.867;30641.568;  -10.660;36114.480
674.443;30296.170;  -12.230;36152.859
675.020;28688.854;  -10.450;35327.238
675.596;29931.814;   -9.260;35795.176
676.173;30406.631;  -10.780;35430.355
676.749;30347.719;  -13.690;33549.516
677.326;30412.477;  -11.980;32210.012
677.902;30330.287;   -8.630;32068.871
678.478;29489.350;  -10.730;32583.891
679.054;29037.787;  -10.520;32088.928
679.631;29268.400;  -11.920;30978.848
680.207;30761.195;   -7.490;33160.887
680.783;32421.125;   -9.860;35570.363
681.359;31533.213;  -13.380;36125.184
681.935;30786.049;  -12.480;35240.922
682.511;29664.146;   -7.900;34429.961
683.087;29823.846;   -7.710;34463.680
683.663;29623.291;  -11.480;34648.898
684.239;28314.648;  -14.090;34546.457
684.815;28057.633;   -7.560;35586.375
685.390;28501.404;   -9.910;35821.895
685.966;28956.602;  -11.159;35085.871
686.542;31446.018;  -11.169;34198.230
687.118;33281.633;   -5.959;32847.707
687.693;33186.082;  -10.329;32794.027
688.269;32891.859;  -12.059;33072.367
688.844;31055.166;  -10.909;33141.664
689.420;28809.318;   -8.019;33965.742
689.995;26511.947;   -8.399;34655.523
690.571;25354.744;  -10.949;33576.742
691.146;26024.029;   -9.619;32657.219
691.722;25445.428;   -8.999;32526.979
692.297;25717.146;  -11.589;33014.617
692.872;27614.414;  -11.739;34012.254
693.448;26871.914;  -11.059;34237.434
694.023;26074.729;  -10.139;34142.672
694.598;28179.814;   -9.029;34132.031
695.173;28359.605;  -13.319;34205.250
695.748;27677.787;  -10.169;32882.488
696.323;27602.461;   -8.339;32864.906
696.898;27847.979;   -8.169;33170.004
697.473;27553.002;  -12.309;32432.984
698.048;26970.529;  -10.989;31649.303
698.623;27202.984;   -9.329;30778.141
699.198;29291.723;   -9.849;31140.119
699.773;29966.205;  -12.329;31764.299
700.348;28263.121;  -10.389;31780.816
700.922;28203.521;   -9.269;32046.375
701.497;28703.270;   -9.329;32603.574
702.072;28641.992;  -10.789;34799.871
702.646;27577.504;  -10.839;35793.172
703.221;26071.301;   -9.099;35201.590
703.795;28014.285;  -10.939;34764.527
704.370;28174.242;  -12.859;34307.367
704.944;28675.953;  -11.559;33509.887
705.519;29613.844;   -7.939;31388.584
706.093;31170.088;  -10.499;31340.104
706.668;31313.730;  -11.289;32630.281
707.242;30218.738;  -11.509;32728.779
707.816;28693.289;   -9.639;32947.238
708.390;27126.340;  -11.429;33277.855
708.965;27871.875;  -11.869;33834.336
709.539;28342.844;  -11.689;33709.273
710.113;28842.455;  -10.478;33044.313
710.687;27870.564;  -10.228;31953.992
711.261;26095.646;  -13.698;30505.949
711.835;26125.564;  -13.378;30262.369
712.409;27136.559;   -9.698;31254.447
712.983;28822.346;  -11.898;32754.986
713.557;29532.668;  -15.138;34018.824
714.131;29105.234;  -14.098;34579.625
714.704;28200.871;   -9.958;33890.262
715.278;26106.512;  -10.028;33531.102
715.852;25352.141;  -11.148;33601.660
716.425;26289.740;   -9.068;33515.117
716.999;26914.869;  -10.038;33185.555
717.573;27876.041;   -9.798;33905.996
718.146;28902.959;  -12.378;35199.293
718.720;28583.834;  -11.918;35060.551
719.293;28026.197;   -8.088;34973.230
719.867;30952.094;  -10.888;36394.449
720.440;30410.006;  -11.938;36663.008
721.013;28622.834;  -12.818;35102.426
721.587;27335.834;  -10.298;33985.266
722.160;26610.395;  -10.048;33524.965
722.733;25690.201;  -12.108;32987.043
723.306;26039.123;  -10.818;33066.301
723.880;28156.984;   -8.908;33399.500
724.453;29474.414;   -9.878;33468.297
725.026;28369.801;  -11.188;33816.637
725.599;26221.746;  -11.678;32797.996
726.172;27207.346;   -9.618;33187.434
726.745;28404.307;   -8.258;35136.613
727.318;29767.934;  -12.978;35751.730
727.891;29782.824;  -12.148;35890.430
728.463;29395.758;   -8.968;34822.090
729.036;28530.447;  -10.188;32895.086
729.609;28835.166;  -11.788;31823.225
730.182;25774.098;  -11.788;31445.283
730.754;23295.184;  -10.268;32373.223
731.327;23341.008;   -9.998;33676.820
731.900;23858.645;  -12.228;33417.000
732.472;25337.170;  -13.848;31978.498
733.045;27066.424;   -8.698;30368.777
733.617;27138.965;  -10.607;30574.215
734.190;26476.707;  -11.507;31280.975
734.762;23351.352;  -13.647;31674.412
735.334;21899.102;   -9.767;31247.291
735.907;22732.578;   -9.897;29876.211
736.479;22708.439;  -11.637;29808.488
737.051;22298.182;   -9.567;30233.547
737.623;23273.289;   -8.187;31469.086
738.195;24409.838;  -11.187;31784.225
738.768;26596.549;  -12.337;32120.523
739.340;26253.494;  -12.227;32094.342
739.912;24702.453;  -11.057;31312.680
740.484;23371.959;  -10.207;31946.238
741.056;22625.498;  -10.047;32984.059
741.628;24504.848;  -13.627;33897.715
742.199;26689.301;   -7.177;33213.016
742.771;24987.545;  -10.797;31369.113
743.343;22645.793;  -11.997;31865.473
743.915;21709.113;  -12.867;32388.631
744.487;21867.729;   -7.617;31079.568
745.058;21985.211;   -9.557;30570.107
745.630;22369.377;   -9.877;29970.127
746.201;22939.352;  -14.177;29186.766
746.773;23111.275;   -9.237;28805.723
747.344;23045.385;   -9.847;29591.223
747.916;21921.914;  -11.657;31412.201
748.487;22332.865;  -10.587;32194.898
749.059;23483.611;   -8.707;32533.719
749.630;24168.529;  -10.537;32158.518
750.201;23355.420;  -11.687;30855.395
750.773;21654.594;  -11.647;28622.555
751.344;21771.111;   -7.147;28405.732
751.915;22886.957;   -9.757;28461.551
752.486;22328.230;  -12.427;27842.850
753.057;20117.846;  -12.227;27845.008
753.628;19080.781;  -10.417;27728.107
754.199;20291.322;  -11.767;27381.086
754.770;21282.410;  -11.187;25882.203
755.341;21273.912;  -10.507;25886.184
755.912;21085.936;   -9.387;26050.861
756.483;20484.490;  -10.647;26798.779
757.054;18660.578;  -11.837;27048.238
757.625;17483.854;  -12.716;26294.838
758.195;17468.900;   -9.666;26142.076
758.766;17270.172;   -8.656;26392.234
759.337;18061.055;  -12.856;26334.594
759.907;19863.789;  -13.366;27579.652
760.478;20673.783;   -8.576;28352.770
761.048;19854.049;  -10.526;27325.088
761.619;18964.662;  -11.116;26460.428
762.189;19104.057;  -12.136;26029.826
762.760;20411.883;   -9.456;26430.145
763.330;21339.994;   -7.136;26670.902
763.900;20556.619;  -11.786;26603.021
764.471;17976.582;  -11.546;25542.740
765.041;16742.572;   -8.096;24358.459
765.611;16833.703;   -8.876;23991.297
766.181;17289.145;  -12.196;24470.236
766.751;18220.287;  -11.636;24845.975
767.321;17859.064;  -10.156;24533.633
767.891;15820.317;  -11.766;24916.492
768.461;15406.998;  -14.936;24776.771
769.031;16091.213;  -12.356;24757.988
769.601;17514.992;   -7.526;24181.088
770.171;17190.027;  -10.766;23670.387
770.741;16598.963;  -13.176;22960.045
771.311;16936.504;  -10.616;22917.523
771.880;17126.213;   -9.576;23562.941
772.450;16775.090;  -10.336;24216.500
773.020;16975.367;  -13.516;24140.398
773.589;16463.986;  -13.466;24414.857
774.159;15905.563;   -8.686;23858.717
774.729;15468.811;   -9.476;22942.135
775.298;14863.323;  -13.666;22324.033
775.867;14456.666;  -11.716;21140.313
776.437;14470.043;   -9.906;20838.092
777.006;14214.728;  -12.166;20599.510
777.576;14154.893;  -12.356;20508.809
778.145;14400.693;  -11.646;20732.947
778.714;14257.256;   -8.226;21062.465
779.283;13496.916;   -9.556;20949.664
779.853;13092.554;  -14.116;20508.623
780.422;13562.601;  -11.506;20649.082
780.991;13184.475;   -9.556;21527.520
781.560;12067.529;   -9.095;22632.658
782.129;11860.579;  -12.135;23048.277
782.698;11844.598;  -10.865;23438.555
783.267;11444.966;   -9.335;23267.734
783.836;11483.677;  -11.045;22415.133
784.404;12529.217;  -13.865;20443.152
784.973;13019.432;  -13.095;19699.150
785.542;12937.690;  -11.575;19763.828
786.111;12784.371;   -9.705;20341.408
786.679;12231.731;  -12.105;20207.967
787.248;12045.914;  -12.455;19516.465
787.817;11877.442;  -11.535;18900.363
788.385;11413.385;   -9.765;17879.121
788.954;10798.645;  -14.005;17658.301
789.522;10330.780;  -11.955;17788.879
790.090;10905.429;  -10.135;18118.277
790.659;11225.398;  -10.975;18338.736
791.227;10702.671;  -13.375;18508.615
791.795;11126.940;  -12.375;17898.254
792.364;11405.977;  -10.725;17295.133
792.932;11633.510;   -9.715;16822.051
793.500;11845.839;  -12.675;17040.148
794.068;12135.173;  -13.495;17179.787
794.636;12225.152;  -10.885;16664.246
795.204;11764.045;  -11.045;16524.545
795.772;11853.337;  -13.175;17274.564
796.340;11368.933;  -12.445;17891.002
796.908;11181.807;   -9.735;17648.561
797.476;11025.519;   -9.815;17064.080
798.044;10595.356;  -13.985;16672.777
798.612; 9841.815;  -13.115;17023.996
799.180; 9480.360;  -10.185;16561.615
799.747; 9409.871;   -9.055;15962.773
800.315; 9175.603;  -12.385;15296.992
800.883; 8793.378;  -15.035;14801.771
801.450; 8725.679;  -10.365;14534.430
802.018; 8778.031;   -9.855;14173.248
802.585; 8946.383;  -11.905;14029.547
803.153; 9042.485;  -11.585;13836.846
803.720; 8836.795;   -9.095;13567.324
804.287; 8355.377;   -9.135;13360.622
804.855; 7981.369;  -11.604;13681.981
805.422; 7872.593;  -11.794;13536.560
805.989; 7848.833;  -10.734;13355.958
806.556; 8059.628;  -10.444;13747.896
807.124; 8326.395;  -12.764;13987.376
807.691; 8294.665;  -12.964;14038.674
808.258; 8045.712;  -11.134;14120.152
808.825; 7671.513;   -9.854;13860.111
809.392; 7722.911;  -10.504;13268.790
809.959; 7298.563;  -13.054;12680.389
810.526; 6937.141;   -8.294;12427.308
811.093; 7008.053;   -8.394;12030.105
811.659; 7551.046;  -12.304;11653.664
812.226; 7966.560;  -13.944;11637.183
812.793; 7620.329;  -10.484;11611.521
813.360; 7002.015;  -10.144;11885.181
813.926; 6737.222;  -11.684;12770.539
814.493; 6550.690;  -13.644;12677.638
815.060; 6213.111;   -9.724;11974.336
815.626; 6268.261;   -9.854;11594.715
816.193; 6670.508;  -13.254;11579.474
816.759; 6695.451;  -13.204;11666.972
817.325; 6773.560;   -9.434;11325.530
817.892; 7153.865;  -10.134;11105.369
818.458; 7567.020;  -13.474;10843.928
819.024; 7134.576;  -11.854;10714.406
819.591; 6802.566;  -10.244;10469.165
820.157; 6619.200;  -10.704;10235.523
820.723; 6173.743;  -12.324;10847.563
821.289; 5897.511;   -9.444;11040.980
821.855; 5775.103;   -8.374;10357.100
822.421; 5684.549;  -10.234; 9978.918
822.987; 5646.948;  -13.294; 9754.177
823.553; 5404.855;  -10.884;10065.755
824.119; 5283.277;   -8.884;10036.294
824.685; 5345.173;   -6.784;10029.192
825.251; 5404.189;  -12.004;10199.230
825.816; 5373.090;  -11.474; 9820.189
826.382; 5179.108;   -9.174; 9297.248
826.948; 5426.756;   -9.214; 9381.347
827.513; 5780.396;  -10.774; 9450.726
828.079; 5571.669;  -11.924; 9472.444
828.645; 5065.699;  -10.543; 9292.643
829.210; 5055.570;  -10.533; 9065.341
829.776; 5040.196;  -10.753; 9132.620
830.341; 4913.066;  -10.173; 9092.878
830.906; 5102.371;  -10.743; 9078.557
831.472; 5401.599;  -11.113; 8534.535
832.037; 5072.528;  -10.603; 8677.874
832.602; 4513.356;  -13.323; 8628.692
833.167; 4284.941;  -10.823; 8879.031
833.733; 4229.219;  -10.113; 9189.790
834.298; 4343.682;  -13.583; 9052.608
834.863; 4378.118;  -12.703; 8895.087
835.428; 4356.152;  -10.523; 8824.266
835.993; 4254.958;   -6.963; 8845.385
836.558; 4139.644;  -10.763; 8888.563
837.123; 4294.490;   -9.903; 8966.582
837.688; 4509.930;   -9.913; 8617.860
838.253; 4695.640;  -10.283; 8590.699
838.817; 4873.774;  -12.963; 8443.797
839.382; 4779.976;  -14.243; 8799.356
839.947; 4476.104;  -10.733; 8810.595
840.511; 4156.002;   -9.383; 8796.394
841.076; 3789.151;  -12.563; 8347.231
841.641; 3872.681;  -12.953; 8224.330
842.205; 3971.128;   -7.043; 8223.349
842.770; 4099.145;   -8.163; 8622.107
843.334; 4280.540;  -12.503; 8410.386
843.898; 4251.879;  -11.693; 8337.465
844.463; 4286.285;  -10.203; 8506.283
845.027; 4055.500;   -9.533; 8280.962
845.591; 3884.703;  -13.443; 8231.141
846.156; 3832.176;  -13.143; 7969.179
846.720; 3697.608;   -9.433; 7768.278
847.284; 3563.484;  -11.033; 7630.957
847.848; 3427.176;  -10.403; 7472.395
848.412; 3314.382;  -11.553; 7437.394
848.976; 3341.826;   -8.393; 7674.592
849.540; 3298.833;   -8.713; 7836.011
850.104; 3440.840;  -12.463; 7913.669
850.668; 3767.319;  -12.973; 7694.508
851.232; 3833.642;  -10.793; 7756.887
851.796; 3669.238;  -10.662; 7926.545
852.359; 3390.393;  -13.082; 7827.844
852.923; 3240.954;  -12.192; 7641.163
853.487; 3068.073;  -11.912; 7342.501
854.050; 3007.042;  -10.892; 7042.820
854.614; 3113.219;  -13.992; 7151.338
855.177; 3216.836;  -11.732; 7105.077
855.741; 3246.732;   -8.962; 6989.675
856.304; 3154.239;   -9.442; 6596.634
856.868; 3113.482;  -14.192; 6356.272
857.431; 3221.770;  -12.702; 6468.571
857.995; 3356.361;   -9.942; 6373.210
858.558; 3359.037;   -9.112; 6324.448
859.121; 3091.018;  -12.932; 6408.327
859.684; 2975.554;  -13.442; 6347.886
860.247; 3053.874;  -10.632; 6321.264
860.810; 3025.543;  -11.272; 6301.903
861.374; 2771.210;   -9.832; 6607.881
861.937; 2534.270;  -11.762; 6408.200
862.500; 2538.823;   -9.722; 6572.639
863.062; 2715.595;  -10.512; 6387.297
863.625; 2867.479;  -11.232; 6190.836
864.188; 3012.683;  -14.112; 5807.254
864.751; 3078.196;  -11.302; 5682.413
865.314; 2970.892;  -10.112; 5547.492
865.876; 2790.298;  -12.182; 5500.150
866.439; 2795.517;  -10.722; 5415.909
867.002; 2733.126;   -9.252; 5501.567
867.564; 2516.958;   -9.572; 5413.946
868.127; 2293.999;  -13.142; 5160.325
868.689; 2198.511;  -12.902; 5133.183
869.252; 2101.537;   -9.732; 5252.382
869.814; 2011.948;   -9.432; 5297.141
870.377; 2036.783;  -11.552; 5390.919
870.939; 2113.530;   -9.052; 5599.898
871.501; 2165.684;  -10.982; 5248.336
872.063; 2158.146;  -12.292; 4854.235
872.626; 2125.415;  -14.912; 4817.074
873.188; 2162.184;  -13.112; 4987.732
873.750; 2133.008;  -13.442; 4868.651
874.312; 2046.986;   -9.402; 4779.330
874.874; 1956.940;  -11.062; 4866.348
875.436; 1865.492;  -13.931; 4718.887
875.998; 1855.589;   -9.561; 4660.005
876.560; 1875.380;  -11.321; 4462.964
877.122; 1817.500;  -12.221; 4145.042
877.683; 1740.317;  -12.191; 4056.481
878.245; 1678.832;  -12.101; 3950.740
878.807; 1716.889;   -8.971; 4058.958
879.369; 1732.268;  -12.071; 3954.677
879.930; 1639.744;  -14.621; 3941.495
880.492; 1585.078;  -10.311; 4067.014
881.053; 1540.717;  -10.901; 3859.633
881.615; 1429.017;  -14.411; 3776.071
882.176; 1340.703;  -13.761; 3734.750
882.738; 1301.864;   -9.181; 3678.489
883.299; 1278.574;  -11.791; 3405.407
883.860; 1286.506;  -13.121; 3351.106
884.422; 1285.838;  -11.211; 3394.044
884.983; 1236.490;  -10.091; 3166.443
885.544; 1153.550;   -8.461; 3189.802
886.105; 1074.727;  -12.361; 3160.360
886.666; 1013.778;  -14.141; 3093.059
887.227;  964.836;  -11.361; 2941.957
887.788;  903.769;  -11.401; 2974.836
888.349;  844.020;  -13.791; 2721.214
888.910;  847.142;  -13.191; 2696.493
889.471;  854.333;   -9.881; 2560.172
890.032;  833.744;   -9.881; 2558.190
890.593;  811.094;  -10.371; 2567.669
891.153;  786.076;  -13.301; 2460.307
891.714;  737.132;  -11.431; 2372.046
892.275;  695.282;  -11.291; 2309.505
892.835;  651.900;  -11.471; 2382.543
893.396;  597.518;  -11.541; 2295.502
893.956;  541.345;  -11.181; 2162.420
894.517;  508.876;  -11.741; 2125.439
895.077;  505.885;  -11.671; 2086.978
895.638;  506.842;  -11.311; 2126.316
896.198;  479.112;   -9.831; 1838.275
896.758;  437.660;   -8.421; 1892.813
897.319;  407.532;  -12.351; 1792.232
897.879;  392.251;  -13.511; 1762.751
898.439;  367.159;  -12.001; 1661.149
898.999;  342.684;  -10.180; 1781.468
899.559;  333.209;  -12.030; 1703.347
900.119;  328.562;  -15.710; 1537.525
900.679;  325.061;   -8.900; 1638.384
901.239;  310.484;   -8.340; 1527.902
901.799;  299.568;  -13.910; 1456.441
902.359;  294.757;  -13.460; 1357.140
902.919;  289.083;  -11.490; 1331.118
903.479;  276.463;  -12.110; 1317.257
904.038;  255.221;  -11.720; 1262.595
904.598;  242.175;  -13.610; 1152.034
905.158;  238.314;  -11.040; 1240.893
905.717;  231.793;  -10.900; 1233.691
906.277;  219.043;  -15.080; 1217.330
906.836;  210.179;  -13.380; 1222.408
907.396;  202.174;  -10.780; 1193.047
907.955;  194.797;   -8.500; 1182.526
908.515;  188.952;  -12.760; 1099.364
909.074;  184.328;  -11.900; 1092.863
909.633;  178.566;   -8.950; 1069.121
910.192;  173.833;   -8.770; 1196.460
910.752;  168.107;  -12.390; 1029.960
911.311;  163.826;  -13.680; 1009.780
911.870;  162.824;  -12.370;  971.460
912.429;  164.027;  -10.900; 1094.080
912.988;  162.189;  -11.690; 1081.060
913.547;  157.551;  -13.240;  940.380
914.106;  152.919;  -11.990;  999.420
914.665;  149.973;   -9.990;  984.020
915.224;  149.300;  -12.880; 1035.760
915.782;  149.325;  -12.350;  922.560
916.341;  148.864;   -9.110; 1049.840
916.900;  145.078;   -9.270;  925.260
917.458;  143.323;  -13.240;  884.220
918.017;  142.164;  -13.550;  942.600
918.576;  142.270;  -12.320;  904.440
919.134;  139.977;  -11.490;  837.980
919.693;  138.196;  -13.670;  893.060
920.251;  136.665;  -15.470;  876.500
920.809;  135.368;  -11.290;  839.580
921.368;  135.964;  -10.210;  885.360
921.926;  133.699;  -12.140;  842.940
922.484;  132.755;  -13.080;  903.360
923.042;  133.590;  -11.720;  880.340
923.601;  135.846;   -7.480;  998.680
924.159;  133.884;  -11.570;  935.560
924.717;  129.725;  -13.840;  841.080
925.275;  131.202;  -10.640;  903.240
925.833;  130.676;  -11.540;  779.320
926.391;  130.753;  -12.960;  938.380
926.949;  129.055;  -14.130;  857.680
927.506;  130.410;  -11.750;  903.500
928.064;  130.891;  -10.250;  877.580
928.622;  129.062;  -13.030;  880.100
929.180;  129.095;  -13.400;  814.180
929.737;  130.487;  -10.700;  808.540
930.295;  133.689;  -10.070;  928.480
930.853;  134.769;  -11.960;  849.100
931.410;  135.187;  -13.120;  821.120
931.968;  136.053;  -10.770;  940.660
932.525;  135.416;  -10.680;  909.380
933.082;  134.684;  -13.130;  811.440
933.640;  136.169;  -13.210;  925.900
934.197;  134.901;  -11.060;  886.360
934.754;  135.514;   -9.580;  897.780
935.312;  138.075;  -14.000;  863.340
935.869;  142.266;  -10.710; 1012.980
936.426;  142.006;   -9.860;  872.800
936.983;  143.850;   -9.710;  889.020
937.540;  142.315;  -13.990;  838.280
938.097;  140.363;  -14.040;  940.120
938.654;  140.471;  -10.310;  898.860
939.211;  144.572;  -10.560;  952.480
939.768;  146.951;  -13.900;  915.420
940.324;  150.053;  -14.760;  904.200
940.881;  152.172;  -10.370;  878.500
941.438;  151.264;   -8.260; 1021.200
941.995;  147.149;  -12.540;  992.560
942.551;  145.194;  -14.670;  875.620
943.108;  146.303;  -10.450;  937.920
943.664;  148.053;  -10.750;  869.340
944.221;  151.363;  -11.550; 1088.140
944.777;  149.096;  -14.770;  869.680
945.334;  150.014;  -12.820;  884.840
945.890;  152.215;  -10.130;  946.480
946.446;  150.862;  -13.470;  947.020
947.003;  153.783;  -12.120;  964.940
947.559;  156.539;   -9.980; 1063.040
948.115;  155.448;   -9.080; 1026.540
948.671;  153.853;  -10.830;  967.300
949.227;  152.016;  -12.440;  859.560
949.783;  149.756;  -12.910;  858.900
950.339;  150.610;  -10.270;  991.000
950.895;  150.456;  -13.630; 1023.840
951.451;  149.704;  -15.100;  925.280
952.007;  150.227;  -11.330;  998.540
952.563;  150.665;  -10.580;  937.780
953.118;  148.735;  -13.440;  904.940
953.674;  149.382;  -12.710;  935.780
954.230;  148.819;  -10.350;  949.640
954.785;  145.881;   -9.190;  936.640
955.341;  144.074;  -11.200;  998.160
955.897;  142.279;  -16.560;  834.660
956.452;  143.904;  -12.570;  953.840
957.008;  143.018;   -7.970; 1083.640
957.563;  140.212;  -11.940; 1009.540
958.118;  135.889;  -13.450;  877.700
958.674;  137.877;  -12.030;  946.780
959.229;  138.620;   -9.410; 1013.980
959.784;  136.065;  -12.000;  832.400
960.339;  134.957;  -14.780; 1001.280
960.894;  131.371;   -9.860;  963.760
961.449;  127.964;   -9.970;  859.960
962.004;  127.049;  -10.900; 1212.840
962.559;  122.132;  -13.150;  860.140
963.114;  120.541;  -13.740;  742.480
963.669;  119.943;   -9.820;  915.500
964.224;  118.040;  -13.890;  874.340
964.779;  116.862;  -12.600;  828.420
965.334;  118.102;  -10.950; 1017.860
965.888;  117.526;  -11.170;  875.360
966.443;  120.177;  -12.540;  972.380
966.998;  118.333;  -15.780;  819.460
967.552;  118.541;   -9.760;  908.380
968.107;  115.021;   -9.060;  868.300
968.661;  114.890;  -11.950;  922.440
969.216;  116.261;  -12.800;  856.280
969.770;  116.874;  -11.210;  917.200
970.324;  116.136;  -11.610;  923.140
970.879;  112.554;  -11.370;  947.180
971.433;  109.497;  -12.540;  952.720
971.987;  104.207;  -11.320;  895.340
972.541;  102.457;  -10.720;  917.100
973.095;  101.246;   -9.680; 1009.460
973.649;   99.380;  -11.440;  809.480
974.203;   98.673;  -11.210;  829.040
974.757;   98.766;  -10.240;  855.220
975.311;   98.138;  -13.720;  872.600
975.865;   97.619;  -13.770;  881.820
976.419;   97.159;  -11.690;  857.400
976.973;   96.294;   -9.510;  849.620
977.526;   97.942;  -12.620;  949.920
978.080;   96.939;  -12.010;  796.780
978.634;   98.410;  -10.170;  921.320
979.187;   95.634;   -9.020;  905.400
979.741;   92.862;   -9.820; 1018.380
980.294;   88.725;  -14.870;  789.160
980.848;   87.240;  -12.380;  717.220
981.401;   89.047;  -10.350;  816.540
981.955;   90.338;  -13.720;  844.300
982.508;   89.407;  -11.490;  746.340
983.061;   90.648;  -10.000;  915.260
983.615;   86.794;  -11.480;  798.800
984.168;   83.318;  -13.220;  770.080
984.721;   82.618;  -13.960;  880.760
985.274;   81.978;  -10.870;  867.500
985.827;   81.372;   -9.790;  834.220
986.380;   78.111;  -13.120;  721.340
986.933;   77.551;  -12.450;  864.800
987.486;   76.805;  -10.210;  861.920
988.039;   75.789;   -8.430;  863.100
988.591;   72.344;  -10.520;  893.260
989.144;   70.103;  -14.860;  737.260
989.697;   69.662;  -13.080;  758.740
990.250;   71.309;  -10.150;  858.100
990.802;   68.915;  -13.430;  755.860
991.355;   70.921;  -12.750;  974.880
991.907;   68.862;  -12.040;  864.320
992.460;   66.802;  -11.330;  753.760
993.012;   65.521;  -13.610;  749.540
993.565;   65.012;  -13.460;  711.360
994.117;   66.428;   -9.360;  950.780
994.669;   62.662;  -11.300;  701.320
995.221;   60.118;  -13.540;  791.920
995.774;   58.335;  -13.430;  787.580
996.326;   57.362;  -12.520;  740.220
996.878;   58.045;  -10.950;  838.420
997.430;   54.793;  -14.300;  699.860
997.982;   54.387;  -13.760;  750.140
998.534;   54.786;  -11.530;  739.060
999.086;   53.402;  -10.310;  738.220
999.638;   52.396;  -12.530;  661.380
1000.190;   50.011;  -11.840;  699.320
1000.741;   50.514;  -10.260;  742.700
1001.293;   50.091;   -8.860;  686.020
1001.845;   48.558;  -13.700;  676.640
1002.396;   48.466;  -12.100;  743.400
1002.948;   48.757;  -12.760;  737.400
1003.500;   47.436;  -10.380;  723.780
1004.051;   47.352;  -11.900;  907.580
1004.603;   45.772;  -12.250;  791.820
1005.154;   42.323;  -13.210;  608.980
1005.705;   41.955;  -10.950;  723.960
1006.257;   40.721;  -13.880;  707.220
1006.808;   40.120;  -12.840;  685.460
1007.359;   39.983;  -10.570;  763.240
1007.910;   39.384;   -9.620;  646.640
1008.461;   38.399;  -13.630;  732.940
1009.013;   36.960;  -17.200;  588.340
1009.564;   39.225;  -10.200;  793.520
1010.115;   37.284;  -12.570;  597.040
1010.665;   36.140;  -15.150;  602.160
1011.216;   35.910;  -14.480;  667.920
1011.767;   36.554;  -11.340;  697.920
1012.318;   36.136;   -9.780;  736.980
1012.869;   34.557;  -12.380;  679.000
1013.419;   34.552;  -15.560;  603.120
1013.970;   35.002;  -11.010;  666.640
1014.521;   33.925;  -11.610;  620.620
1015.071;   34.067;  -13.450;  670.380
1015.622;   33.435;  -13.870;  635.460
1016.172;   33.081;  -11.610;  596.820
1016.723;   33.206;  -12.120;  614.380
1017.273;   32.528;  -13.620;  604.160
1017.823;   33.188;  -14.140;  650.340
1018.374;   32.340;  -12.800;  611.760
1018.924;   32.740;  -12.340;  716.880
1019.474;   31.939;  -11.410;  718.880
1020.024;   31.024;  -14.770;  657.580
1020.574;   32.466;   -9.780;  726.160
1021.124;   31.556;   -8.560;  673.580
1021.674;   29.896;  -15.190;  559.120
1022.224;   31.604;  -13.530;  708.940
1022.774;   31.771;  -13.280;  668.820
1023.324;   31.756;  -10.690;  753.520
1023.874;   32.513;  -10.240;  875.760
1024.423;   29.671;  -12.540;  613.700
1024.973;   29.578;  -10.010;  610.760
1025.523;   28.425;  -10.550;  620.960
1026.072;   28.679;  -13.560;  606.420
1026.622;   28.693;  -15.120;  675.740
1027.172;   30.128;  -11.260;  715.660
1027.721;   29.058;  -11.410;  601.220
1028.270;   28.765;  -13.530;  663.400
1028.820;   28.538;  -13.680;  638.080
1029.369;   28.396;  -13.520;  612.700
1029.918;   28.730;  -10.980;  649.840
1030.468;   27.257;  -13.530;  564.780
1031.017;   28.079;  -13.170;  634.800
1031.566;   26.630;  -12.200;  608.900
1032.115;   27.277;   -9.960;  694.500
1032.664;   26.275;  -13.210;  596.480
1033.213;   27.560;  -12.500;  735.420
1033.762;   26.825;  -11.910;  635.620
1034.311;   26.727;   -9.640;  677.220
1034.860;   26.816;  -13.310;  691.000
1035.408;   26.491;  -11.830;  722.720
1035.957;   26.734;  -12.000;  719.540
1036.506;   25.563;  -11.690;  530.800
1037.055;   27.075;  -10.990;  844.320
1037.603;   25.327;  -15.120;  664.000
1038.152;   23.819;  -12.450;  534.760
1038.700;   25.426;  -10.560;  585.740
1039.249;   24.244;  -11.080;  681.220
1039.797;   24.978;  -12.540;  633.360
1040.345;   24.967;  -11.920;  705.420
1040.894;   24.495;  -11.410;  625.300
1041.442;   24.411;  -14.320;  632.200
1041.990;   23.268;  -16.240;  559.160
1042.538;   24.140;  -11.680;  536.180
1043.087;   23.034;  -10.760;  570.860
1043.635;   24.593;  -11.850;  670.500
1044.183;   22.785;  -15.480;  586.400
1044.731;   22.701;  -11.770;  576.000
1045.279;   23.501;  -13.090;  674.920
1045.827;   24.707;  -12.440;  892.400
1046.374;   21.765;  -13.840;  515.420
1046.922;   22.453;  -13.220;  590.580
1047.470;   23.773;  -10.230;  691.300
1048.018;   22.818;  -14.590;  647.960
1048.565;   23.186;  -12.050;  708.600
1049.113;   21.829;  -11.650;  557.000
1049.660;   21.350;  -10.510;  629.660
1050.208;   21.681;  -13.310;  675.640
1050.755;   20.570;  -15.900;  606.580
1051.303;   22.336;  -11.430;  686.820
1051.850;   20.732;   -8.480;  635.120
1052.397;   19.168;  -15.010;  473.960
1052.945;   19.082;  -13.960;  617.760
1053.492;   21.798;  -13.150;  741.840
1054.039;   21.872;   -9.630;  720.180
1054.586;   20.094;  -13.680;  557.240
1055.133;   20.750;  -14.570;  693.140
1055.680;   21.428;  -13.820;  646.620
1056.227;   19.646;  -11.730;  542.780
1056.774;   20.944;  -12.480;  794.980
1057.321;   18.439;  -13.930;  523.260
1057.868;   20.523;  -11.690;  651.320
1058.415;   19.777;   -9.520;  651.980
1058.961;   19.115;  -13.160;  678.940
1059.508;   20.017;  -12.920;  643.820
1060.055;   18.692;  -11.920;  581.780
1060.601;   19.518;  -11.500;  624.300
1061.148;   18.097;  -14.330;  616.820
1061.694;   17.775;  -16.870;  592.580
1062.241;   18.892;  -10.330;  596.320
1062.787;   19.000;  -10.620;  663.140
1063.334;   20.153;  -10.110;  808.560
1063.880;   18.368;  -13.400;  668.360
1064.426;   18.999;  -10.680;  706.820
1064.972;   18.057;   -9.920;  601.340
1065.518;   16.643;  -10.980;  566.640
1066.065;   17.607;  -14.890;  624.460
1066.611;   17.349;  -12.870;  598.800
1067.157;   18.159;  -12.950;  641.860
1067.703;   17.351;  -13.540;  668.480
1068.249;   16.645;  -13.540;  605.220
1068.794;   17.443;  -12.600;  626.880
1069.340;   16.046;  -10.620;  578.960
1069.886;   16.426;  -12.830;  590.700
1070.432;   15.252;  -14.870;  541.720
1070.977;   16.381;  -11.980;  601.080
1071.523;   16.177;   -8.200;  573.060
1072.068;   16.140;  -12.330;  582.000
1072.614;   15.192;  -16.370;  527.760
1073.160;   16.575;  -11.100;  687.040
1073.705;   15.330;  -10.480;  572.520
1074.250;   15.009;  -14.520;  559.900
1074.796;   16.016;  -11.460;  655.160
1075.341;   16.251;  -11.950;  664.100
1075.886;   15.839;  -11.460;  594.240
1076.431;   14.796;  -13.770;  649.880
1076.976;   15.009;  -12.680;  639.220
1077.521;   14.488;  -13.170;  583.080
1078.067;   14.275;  -10.860;  579.400
1078.612;   14.469;  -13.920;  661.620
1079.156;   14.289;  -13.880;  601.540
1079.701;   14.553;  -13.120;  693.260
1080.246;   14.587;   -9.940;  696.300
1080.791;   13.757;  -14.740;  625.020
1081.336;   14.304;  -13.750;  659.320
1081.880;   14.638;  -13.400;  649.680
1082.425;   13.092;  -12.220;  573.480
1082.970;   14.344;  -11.610;  717.040
1083.514;   13.810;  -13.580;  597.000
1084.059;   12.741;  -12.810;  586.720
1084.603;   12.750;  -12.320;  565.840
1085.147;   13.329;  -13.190;  645.220
1085.692;   14.163;  -12.480;  716.800
1086.236;   12.122;  -13.020;  503.140
1086.780;   14.660;   -9.190;  751.440
1087.325;   13.108;  -12.480;  654.620
1087.869;   12.753;  -12.450;  610.700
1088.413;   13.093;  -12.240;  705.040
1088.957;   11.323;   -9.020;  543.400
1089.501;   13.310;  -10.320;  766.640
1090.045;   12.704;  -12.720;  726.480
1090.589;   11.075;  -13.690;  569.920
1091.133;   12.760;  -10.020;  673.340
1091.676;   11.873;  -12.330;  591.940
1092.220;   11.327;  -14.970;  600.920
1092.764;   12.499;  -12.430;  706.960
1093.307;   12.172;   -9.800;  673.780
1093.851;   10.162;  -14.970;  556.540
1094.395;   11.704;  -15.310;  683.140
1094.938;   10.543;  -10.370;  632.520
1095.482;   10.913;  -11.050;  559.800
1096.025;   11.348;  -11.840;  710.880
1096.568;   11.729;  -12.840;  779.280
1097.112;    9.518;  -14.700;  508.180
1097.655;   11.525;   -8.720;  603.000
1098.198;    9.715;  -13.610;  600.180
1098.741;    9.146;  -13.350;  612.860
1099.285;   11.228;  -11.230;  657.300
1099.828;    9.180;  -11.840;  439.400
1100.371;   10.126;  -10.840;  608.160
1100.914;    9.970;  -14.190;  682.660
1101.457;   10.748;  -11.240;  679.900
1101.999;    9.184;  -11.270;  584.680
1102.542;    9.319;  -11.480;  641.440
1103.085;    9.197;  -11.750;  658.500
1103.628;   10.608;  -11.400;  762.060
1104.170;    9.231;  -10.490;  588.280
1104.713;    9.538;  -10.600;  646.700
1105.256;    8.346;  -14.360;  557.440
1105.798;    8.168;  -13.210;  499.980
1106.341;   10.044;  -10.270;  728.900
1106.883;    7.732;  -12.200;  521.340
1107.425;    7.866;  -13.110;  668.180
1107.968;    8.317;  -12.840;  612.380
1108.510;    9.539;   -6.480;  684.960
1109.052;    7.240;  -13.940;  612.620
1109.594;    7.272;  -13.690;  554.440
1110.136;    8.653;  -11.880;  643.220
1110.679;    8.351;   -9.500;  633.080
1111.221;    7.948;  -14.160;  604.460
1111.763;    7.814;  -13.980;  559.220
1112.304;    7.473;  -13.880;  547.140
1112.846;    8.367;  -12.210;  666.240
1113.388;   10.231;  -11.390;  942.180
1113.930;    7.239;  -14.540;  694.200
1114.472;    7.142;  -12.640;  606.540
1115.013;    6.012;  -11.620;  551.280
1115.555;    4.969;  -13.640;  587.100
1116.097;    5.387;  -15.380;  579.480
1116.638;    7.598;  -12.640;  684.600
1117.180;    6.851;   -9.850;  667.740
1117.721;    6.852;  -13.690;  568.580
1118.262;    6.741;  -12.680;  677.960
1118.804;    6.935;  -12.530;  637.340
1119.345;    6.515;  -11.690;  578.400
1119.886;    7.176;  -13.380;  704.040
1120.427;    5.940;  -14.070;  589.020
1120.969;    5.847;  -13.500;  597.920
1121.510;    5.412;  -11.480;  563.060
1122.051;    5.857;  -12.830;  723.580
1122.592;    5.528;  -14.290;  655.420
1123.133;    5.191;  -12.400;  547.940
1123.673;    6.788;  -10.130;  706.480
1124.214;    5.669;  -12.930;  612.460
1124.755;    5.552;  -14.380;  639.460
1125.296;    5.766;  -14.000;  627.320
1125.836;    6.769;  -10.070;  691.500
1126.377;    4.232;  -12.640;  599.660
1126.918;    5.320;  -12.960;  614.980
1127.458;    4.759;  -13.350;  622.220
1127.999;    5.722;  -10.750;  656.980
1128.539;    4.835;  -12.350;  694.240
1129.079;    4.221;  -14.860;  632.720
1129.620;    4.380;  -13.840;  558.100
1130.160;    4.666;  -12.330;  539.480
1130.700;    4.359;  -14.530;  640.840
1131.240;    5.438;  -12.530;  643.700
1131.781;    4.228;  -14.450;  619.680
1132.321;    4.650;   -9.790;  599.120
1132.861;    2.511;  -14.860;  564.200
1133.401;    3.081;  -14.290;  593.940
1133.941;    4.462;  -11.750;  626.280
1134.481;    4.440;   -9.920;  597.580
1135.020;    2.786;  -12.290;  609.160
1135.560;    3.580;  -11.650;  674.940
1136.100;    2.982;  -16.270;  501.160
1136.640;    3.266;  -10.890;  510.480
1137.179;    1.985;  -14.180;  537.960
1137.719;    3.113;  -16.250;  605.400
1138.258;    3.167;  -14.230;  587.360
1138.798;    3.427;   -9.090;  663.780
1139.337;    1.981;  -15.130;  482.840
1139.877;    3.015;  -13.680;  642.360
1140.416;    5.070;  -11.320;  878.060
1140.955;    2.321;  -10.860;  535.380
1141.494;    2.877;  -12.920;  669.280
1142.034;    2.280;  -13.930;  583.520
1142.573;    3.695;  -11.440;  646.280
1143.112;    2.833;  -12.000;  553.480
1143.651;    1.591;  -13.670;  536.480
1144.190;    3.446;  -12.730;  691.640
1144.729;    2.418;  -14.560;  607.420
1145.267;    2.844;  -11.830;  584.900
1145.806;    3.071;  -12.230;  637.040
1146.345;    1.336;  -14.130;  635.020
1146.884;    1.936;  -11.590;  622.500
1147.422;    1.587;  -12.550;  533.060
1147.961;    3.341;  -11.180;  708.460
1148.500;    2.679;  -11.510;  669.720
1149.038;    3.012;  -11.640;  632.500
1149.577;    2.772;  -10.130;  698.640
1150.115;   -0.816;  -13.970;  452.280
1150.653;    1.563;  -14.520;  607.340
1151.192;    1.971;  -12.810;  552.920
1151.730;    1.979;   -9.100;  652.560
1152.268;    0.876;  -12.220;  589.520
1152.806;    0.601;  -14.140;  571.180
1153.344;    0.337;  -12.350;  577.640
1153.882;    1.667;   -8.980;  600.060
1154.421;   -0.607;  -15.190;  470.620
1154.958;    0.245;  -15.210;  595.240
1155.496;    1.964;  -12.850;  645.280
1156.034;    1.182;   -9.940;  721.880
1156.572;    2.080;  -13.570;  667.060
1157.110;   -0.434;  -14.590;  473.940
1157.647;    0.754;  -13.030;  676.960
1158.185;    0.169;  -12.140;  564.320
1158.723;   -0.917;  -14.390;  509.200
1159.260;    0.971;  -14.090;  701.700
1159.798;    0.280;  -11.920;  658.160
1160.335;    0.748;  -11.110;  631.820

