
Integration time [ms]:   3.276
Averaging Nr. [scans]: 1000
Smoothing Nr. [pixels]: 0
Data measured with spectrometer [name]: 7414430SP
Wave   ;Sample   ;Dark     ;Reference
[nm]   ;[counts] ;[counts] ;[counts] 

288.544;  150.086;    7.793;  793.890
289.143;  153.388;    7.462;  681.602
289.742;  154.221;    8.602;  828.814
290.341;  139.727;    1.321;  789.841
290.940;  128.724;   -0.709;  730.702
291.538;  129.151;    0.881;  881.108
292.137;  129.671;    0.122;  792.581
292.736;  134.488;   -1.929;  975.101
293.335;  130.315;   -8.229;  735.086
293.934;  130.988;   -5.279;  781.677
294.532;  129.455;   -1.369; 1031.958
295.131;  115.604;   -7.641;  834.394
295.730;  116.070;   -8.420;  809.588
296.328;  114.091;   -5.611;  783.442
296.927;  115.910;   -5.781;  779.652
297.525;  116.118;   -6.361;  781.236
298.124;  106.513;  -11.382;  654.009
298.722;  110.013;   -7.641;  761.933
299.321;  108.388;   -6.811;  708.597
299.919;  105.842;   -6.991;  751.918
300.518;  103.167;  -10.362;  689.338
301.116;  105.029;   -9.581;  691.381
301.715;  104.625;   -4.891;  730.222
302.313;  103.932;   -8.801;  704.943
302.911;   99.339;   -8.522;  733.830
303.509;  104.819;   -6.171;  925.627
304.108;  102.460;   -7.311;  760.383
304.706;  102.040;   -8.321;  801.664
305.304;   95.413;  -10.222;  796.707
305.902;  101.381;   -6.021;  784.484
306.500;   97.326;   -4.971;  728.200
307.098;   95.356;   -7.061;  746.560
307.696;   93.358;   -8.801;  780.432
308.294;   93.198;   -6.411;  731.359
308.892;   95.674;   -2.901;  759.769
309.490;   92.152;   -5.041;  712.161
310.088;   90.455;   -5.002;  788.444
310.686;   94.297;   -2.041;  821.749
311.284;   90.214;   -2.351;  766.040
311.882;   87.840;   -4.422;  731.225
312.480;   85.384;   -4.192;  697.167
313.078;   86.540;   -1.172;  808.331
313.675;   87.018;   -2.601;  691.600
314.273;   81.854;   -1.312;  797.837
314.871;   82.208;   -3.942;  589.829
315.468;   80.071;   -2.802;  652.090
316.066;   82.649;   -0.701;  694.427
316.664;   75.800;   -4.362;  656.351
317.261;   79.145;   -2.872;  910.128
317.859;   75.200;   -2.022;  768.735
318.456;   75.420;   -0.531;  830.096
319.054;   71.546;   -3.912;  787.828
319.651;   69.756;   -4.752;  759.928
320.249;   69.267;   -2.602;  810.188
320.846;   67.710;   -0.821;  714.286
321.443;   64.892;   -4.642;  832.135
322.041;   60.568;   -5.002;  812.315
322.638;   58.867;   -3.982;  701.456
323.235;   60.413;   -3.411;  665.683
323.833;   57.783;   -7.361;  740.354
324.430;   53.089;   -8.611;  615.900
325.027;   53.320;   -4.061;  876.855
325.624;   53.861;   -4.031;  644.532
326.221;   50.904;   -7.481;  689.717
326.818;   50.276;   -5.281;  818.332
327.415;   53.378;   -7.460;  748.828
328.012;   53.575;   -5.510;  690.585
328.609;   52.037;   -7.880;  731.389
329.206;   49.668;   -8.331;  778.621
329.803;   49.753;   -5.121;  737.841
330.400;   52.719;   -4.510;  704.260
330.997;   53.693;   -6.441;  817.147
331.594;   52.948;   -8.831;  788.185
332.191;   56.686;   -7.621;  728.722
332.787;   61.238;   -4.591;  844.463
333.384;   59.179;   -7.412;  763.093
333.981;   57.756;   -8.293;  815.687
334.578;   60.740;   -7.052;  708.378
335.174;   63.570;   -3.102;  731.469
335.771;   63.455;   -5.943;  836.456
336.367;   60.390;   -7.393;  710.631
336.964;   63.736;   -4.063;  793.266
337.561;   61.552;   -3.813;  731.112
338.157;   57.681;   -4.654;  911.916
338.754;   55.452;   -7.934;  796.589
339.350;   52.964;   -4.414;  722.493
339.946;   55.581;   -4.664;  773.135
340.543;   47.649;   -6.375;  846.136
341.139;   41.953;   -9.815;  720.836
341.735;   39.509;   -4.526;  772.593
342.332;   37.798;   -4.895;  691.472
342.928;   38.892;   -4.295;  795.394
343.524;   32.776;   -5.476;  761.684
344.120;   29.076;   -5.856;  738.562
344.716;   31.894;   -2.155;  723.717
345.313;   29.363;   -6.275;  795.342
345.909;   24.800;   -8.815;  627.336
346.505;   26.228;   -5.305;  740.247
347.101;   26.610;   -2.674;  827.864
347.697;   27.022;   -4.344;  785.398
348.293;   21.661;   -9.975;  627.244
348.889;   23.028;   -5.774;  745.914
349.485;   22.228;   -5.004;  688.205
350.081;   22.726;   -4.704;  772.592
350.676;   17.871;   -6.635;  691.606
351.272;   22.321;   -4.504;  809.530
351.868;   21.915;   -3.914;  780.497
352.464;   18.923;   -9.044;  723.932
353.059;   15.166;   -8.314;  646.017
353.655;   19.200;   -7.024;  777.063
354.251;   19.407;   -5.343;  759.845
354.846;   14.617;   -8.604;  740.646
355.442;   12.042;   -6.945;  753.071
356.038;   14.068;   -7.564;  751.708
356.633;   14.581;   -5.814;  728.594
357.229;   11.793;   -7.364;  724.757
357.824;   10.528;   -8.024;  703.600
358.420;    9.502;   -9.384;  679.726
359.015;   10.287;   -5.104;  695.357
359.610;   11.275;   -6.854;  763.920
360.206;    4.875;  -10.185;  603.240
360.801;    8.009;   -7.054;  646.503
361.396;   10.116;   -5.034;  725.975
361.992;    5.658;   -8.284;  668.220
362.587;    2.999;   -8.625;  670.160
363.182;    4.722;   -7.674;  689.631
363.777;    5.802;   -5.164;  738.242
364.372;    5.730;   -8.604;  737.314
364.967;    1.306;   -9.055;  680.744
365.563;    5.656;   -6.114;  815.567
366.158;    2.935;   -5.814;  685.161
366.753;    3.537;   -7.854;  649.263
367.348;    1.739;   -7.804;  746.056
367.942;    1.357;   -7.954;  697.298
368.537;    0.691;   -4.984;  754.245
369.132;    1.124;   -8.564;  703.428
369.727;   -3.191;   -8.855;  638.079
370.322;   -1.461;   -6.245;  580.186
370.917;   -2.344;   -6.425;  710.646
371.511;   -0.173;   -6.294;  861.834
372.106;   -3.229;   -7.685;  776.964
372.701;   -5.768;   -7.335;  585.988
373.296;   -0.065;   -4.564;  863.135
373.890;   -5.131;  -10.235;  647.840
374.485;   -7.528;   -7.885;  691.199
375.079;   -2.942;   -7.324;  738.685
375.674;   -2.327;   -3.494;  812.970
376.268;   -6.715;   -8.525;  691.759
376.863;  -11.837;  -10.086;  580.327
377.457;   -5.963;   -7.025;  662.490
378.052;   -8.220;   -3.585;  764.884
378.646;   -8.569;   -7.595;  741.167
379.240;   -8.898;   -8.335;  721.176
379.835;   -8.213;   -5.785;  636.978
380.429;   -9.707;   -4.335;  562.557
381.023;   -9.849;   -6.805;  779.205
381.617;  -12.548;   -9.195;  680.106
382.212;   -8.775;   -6.905;  685.303
382.806;   -7.998;   -3.745;  760.690
383.400;  -12.762;   -7.745;  672.281
383.994;  -13.345;   -9.765;  664.870
384.588;   -9.931;   -6.564;  697.701
385.182;   -7.782;   -5.344;  726.624
385.776;  -10.554;   -8.514;  706.875
386.370;  -12.779;   -9.555;  681.968
386.964;  -11.389;   -8.715;  684.155
387.558;  -10.758;   -6.174;  598.360
388.152;  -13.625;   -8.725;  681.959
388.745;  -12.225;   -7.965;  814.707
389.339;   -9.945;   -5.924;  747.642
389.933;   -8.870;   -5.524;  695.370
390.527;  -10.547;   -7.114;  859.029
391.120;  -16.978;  -10.725;  595.318
391.714;  -13.143;   -8.035;  711.633
392.308;  -11.217;   -3.574;  780.253
392.901;  -14.713;   -7.245;  642.460
393.495;  -16.207;   -9.285;  595.414
394.089;  -13.554;   -5.895;  760.452
394.682;  -14.309;   -4.295;  697.188
395.275;  -15.729;   -9.875;  719.927
395.869;  -16.630;   -8.485;  667.314
396.462;  -15.388;   -7.455;  616.609
397.056;  -10.472;   -5.424;  776.621
397.649;  -15.648;   -6.605;  731.575
398.242;  -12.999;   -8.224;  712.645
398.836;  -11.618;   -7.474;  766.408
399.429;  -13.620;   -7.094;  631.041
400.022;  -17.032;   -9.475;  665.902
400.615;  -15.079;   -7.145;  805.609
401.208;  -12.418;   -7.174;  691.451
401.802;  -14.889;   -5.515;  699.329
402.395;  -15.642;   -9.875;  683.502
402.988;  -17.003;   -8.845;  696.627
403.581;  -13.399;   -8.874;  646.878
404.174;  -11.408;   -5.324;  686.568
404.767;  -14.120;   -9.575;  638.583
405.360;  -17.060;  -10.965;  621.445
405.953;  -11.640;   -8.764;  759.034
406.545;  -10.616;   -7.514;  725.342
407.138;  -15.639;  -10.025;  618.350
407.731;  -13.307;  -10.034;  613.303
408.324;   -9.527;   -9.374;  660.554
408.917;  -10.475;   -6.534;  681.864
409.509;  -12.908;   -8.004;  740.396
410.102;  -14.330;   -9.875;  643.948
410.695;   -8.495;   -8.604;  665.758
411.287;  -10.170;   -6.794;  599.821
411.880;  -10.729;   -9.334;  585.421
412.472;  -13.515;  -10.254;  613.092
413.065;  -10.857;   -6.714;  629.408
413.657;   -9.026;   -7.234;  576.678
414.250;   -8.001;  -10.544;  646.681
414.842;  -11.204;   -9.744;  676.353
415.434;   -8.673;   -6.994;  570.463
416.027;   -3.930;   -5.893;  652.196
416.619;   -6.273;   -7.264;  713.400
417.211;   -7.559;  -10.374;  599.352
417.804;   -3.146;   -7.993;  628.499
418.396;   -6.832;   -7.234;  607.643
418.988;   -4.602;   -9.443;  659.238
419.580;   -8.761;  -10.724;  568.276
420.172;   -6.170;  -10.323;  536.196
420.764;   -2.103;   -8.793;  672.482
421.356;   -2.688;  -11.143;  636.898
421.948;   -3.809;   -8.293;  677.661
422.540;    0.533;   -7.893;  680.027
423.132;    0.054;   -7.082;  600.641
423.724;   -2.803;   -8.653;  561.267
424.316;   -1.081;  -10.213;  621.345
424.908;    2.251;   -9.762;  591.517
425.500;    3.218;   -5.572;  647.978
426.092;    3.037;   -8.422;  648.268
426.683;    2.395;   -9.283;  684.836
427.275;    5.301;   -7.852;  641.471
427.867;    6.813;   -5.272;  668.948
428.458;    7.204;   -7.682;  732.344
429.050;    5.478;  -10.612;  680.749
429.642;    8.054;   -9.882;  743.124
430.233;    8.954;   -6.962;  569.356
430.825;    9.161;   -6.842;  724.809
431.416;    6.448;   -9.672;  698.241
432.008;   10.962;   -6.552;  651.723
432.599;   11.829;   -6.891;  656.073
433.190;    8.289;  -10.912;  637.670
433.782;    7.501;  -11.172;  590.395
434.373;   14.712;   -6.061;  884.765
434.964;   13.575;   -8.251;  602.920
435.556;   11.299;   -9.722;  634.537
436.147;   14.120;   -9.082;  758.490
436.738;   14.630;   -8.041;  701.099
437.329;   19.170;   -7.341;  721.723
437.920;   12.333;   -8.162;  666.688
438.511;   12.166;  -11.802;  564.526
439.103;   18.569;  -10.191;  623.998
439.694;   20.464;   -7.601;  681.583
440.285;   21.424;   -8.541;  764.432
440.876;   19.518;   -9.751;  845.738
441.466;   19.007;   -9.401;  575.162
442.057;   23.863;   -7.760;  665.814
442.648;   23.621;   -9.971;  746.255
443.239;   20.894;  -11.001;  620.477
443.830;   25.883;   -7.990;  704.958
444.421;   28.043;   -7.910;  655.474
445.011;   24.653;   -8.131;  693.619
445.602;   24.381;   -7.111;  743.126
446.193;   26.058;  -10.920;  488.117
446.783;   30.528;   -6.500;  640.397
447.374;   25.839;   -8.671;  692.759
447.964;   26.595;  -10.781;  713.770
448.555;   35.224;   -9.650;  822.742
449.145;   31.563;   -8.660;  662.853
449.736;   31.908;   -8.990;  803.179
450.326;   31.852;   -9.500;  713.626
450.917;   37.513;   -8.680;  675.324
451.507;   36.465;   -7.520;  600.661
452.097;   36.581;   -8.590;  746.267
452.688;   38.172;  -11.340;  742.160
453.278;   36.995;  -10.100;  566.840
453.868;   42.286;   -6.019;  793.550
454.458;   39.616;   -9.440;  651.141
455.048;   39.823;  -10.560;  711.783
455.639;   41.885;  -11.799;  567.096
456.229;   45.387;   -6.899;  710.694
456.819;   47.374;   -7.389;  751.158
457.409;   46.964;  -11.119;  773.993
457.999;   49.928;   -9.289;  737.505
458.589;   50.267;   -6.139;  686.606
459.179;   50.015;   -8.729;  717.658
459.769;   47.841;   -9.789;  627.099
460.358;   52.408;  -10.259;  797.262
460.948;   52.497;   -7.299;  689.503
461.538;   54.479;  -10.289;  660.677
462.128;   51.827;  -11.269;  664.934
462.717;   59.021;   -9.368;  710.326
463.307;   62.335;   -7.908;  705.846
463.897;   57.125;   -9.599;  656.942
464.486;   56.487;   -9.769;  837.128
465.076;   60.760;   -8.048;  733.776
465.666;   64.684;   -9.358;  652.900
466.255;   62.874;   -7.919;  785.651
466.845;   61.408;  -11.689;  666.749
467.434;   65.039;   -7.818;  725.873
468.023;   66.736;   -7.678;  658.357
468.613;   63.312;  -10.939;  713.946
469.202;   67.880;  -10.118;  646.507
469.791;   71.706;   -9.108;  737.811
470.381;   72.815;   -6.058;  742.813
470.970;   73.179;  -10.428;  711.099
471.559;   72.711;  -10.268;  733.291
472.148;   75.528;   -8.448;  675.737
472.738;   78.899;   -6.917;  765.466
473.327;   77.931;  -11.978;  637.529
473.916;   78.026;  -11.888;  737.446
474.505;   82.391;   -9.437;  751.703
475.094;   85.221;   -6.747;  806.570
475.683;   83.953;   -9.367;  797.699
476.272;   84.685;  -12.637;  730.632
476.861;   87.860;  -10.027;  706.754
477.449;   94.419;   -8.716;  728.487
478.038;   88.967;   -9.577;  692.513
478.627;   89.984;   -9.718;  714.852
479.216;   95.890;   -8.947;  769.441
479.805;   99.603;   -6.256;  783.375
480.393;   99.543;   -7.937; 1008.945
480.982;   97.812;   -7.717;  874.501
481.571;  104.264;   -9.266;  858.333
482.159;  105.130;   -7.636;  705.386
482.748;  105.288;   -9.667;  821.385
483.336;  108.301;  -10.376;  858.209
483.925;  110.178;   -7.147;  774.373
484.513;  116.310;   -7.996;  758.962
485.102;  112.936;  -10.027;  810.965
485.690;  121.986;  -10.446; 1011.050
486.278;  123.400;   -8.446;  979.329
486.867;  123.905;   -6.356;  809.662
487.455;  125.775;   -9.136;  898.229
488.043;  126.460;  -10.646;  748.361
488.631;  135.352;   -7.456; 1005.079
489.220;  139.107;   -6.636;  908.626
489.808;  139.185;  -11.036;  741.415
490.396;  147.324;  -10.246;  914.645
490.984;  153.636;   -8.556;  830.161
491.572;  162.825;   -5.886;  940.315
492.160;  168.686;   -9.486;  919.081
492.748;  179.604;  -10.976;  884.341
493.336;  201.878;   -8.776; 1019.693
493.924;  226.942;   -5.465;  958.077
494.512;  252.532;   -9.986; 1066.638
495.100;  288.000;  -10.636; 1103.280
495.687;  341.676;  -10.885; 1206.373
496.275;  400.982;   -8.126; 1150.796
496.863;  469.306;  -10.586; 1281.171
497.451;  567.245;  -11.926; 1386.805
498.038;  689.519;  -10.885; 1556.729
498.626;  790.837;   -6.315; 1741.407
499.214;  932.022;   -7.326; 2016.609
499.801; 1113.708;  -11.906; 2220.633
500.389; 1352.279;  -10.466; 2312.494
500.976; 1644.263;   -5.236; 2744.849
501.564; 2058.614;   -8.936; 3148.565
502.151; 2410.645;  -13.176; 3515.999
502.738; 2834.893;  -10.646; 3971.274
503.326; 3216.636;   -9.525; 4403.796
503.913; 3585.017;  -10.856; 5161.749
504.500; 3930.081;  -11.586; 5986.420
505.088; 4325.455;  -10.336; 6381.201
505.675; 4825.137;   -6.355; 6925.547
506.262; 5522.872;   -9.046; 7619.060
506.849; 6210.948;  -10.416; 8733.969
507.436; 6649.266;  -10.305; 9790.121
508.023; 7195.301;   -5.496; 9985.472
508.610; 7468.008;   -7.856;10434.618
509.197; 8107.808;  -10.097;11198.435
509.784; 9423.505;  -10.886;12391.194
510.371;10423.780;   -9.315;13603.713
510.958;11161.867;   -9.936;14426.586
511.545;11938.174;   -9.326;15243.775
512.132;12767.283;  -10.075;15945.876
512.719;13286.288;   -7.796;16340.369
513.305;14169.848;  -10.606;18011.766
513.892;14864.637;  -11.486;19754.971
514.479;16180.049;   -9.126;20967.805
515.066;17737.996;   -6.026;22299.793
515.652;19042.154;   -8.466;22908.660
516.239;20263.283;  -10.886;23798.875
516.825;21284.119;  -11.496;25567.275
517.412;22299.688;   -5.796;28154.959
517.998;22827.721;  -10.506;28344.111
518.585;22880.535;  -10.076;27134.219
519.171;23451.377;   -8.315;27268.576
519.758;24865.414;   -8.596;28964.129
520.344;26755.557;   -8.466;30664.494
520.930;26855.082;  -11.006;32550.605
521.516;28137.660;  -10.495;35422.895
522.103;30397.441;   -5.526;38280.004
522.689;30923.197;   -8.746;37835.117
523.275;30577.787;  -11.376;37288.613
523.861;31991.867;  -11.156;37281.395
524.447;33301.617;   -8.135;37846.949
525.033;33100.160;   -7.896;38321.949
525.619;33377.582;  -12.476;38579.285
526.205;34971.875;   -9.516;40622.875
526.791;37111.793;   -6.926;42258.836
527.377;37435.746;   -8.346;42966.902
527.963;38959.898;   -8.717;42018.949
528.549;37496.988;  -11.016;42476.828
529.135;36299.051;   -8.536;41854.852
529.721;35639.613;   -9.666;41237.711
530.306;34893.078;  -10.066;41259.445
530.892;34786.031;  -11.356;41506.047
531.478;36164.273;   -6.596;43559.613
532.063;39143.027;   -8.836;47695.563
532.649;39624.180;  -10.047;50808.324
533.235;40455.332;   -9.746;51787.500
533.820;41006.340;   -6.566;52145.035
534.406;42421.805;  -10.817;51133.488
534.991;42152.754;   -9.416;49996.805
535.576;40817.449;   -9.036;48882.852
536.162;41449.137;   -6.156;46942.285
536.747;42293.480;  -11.607;45711.746
537.333;45815.582;  -11.787;48510.180
537.918;48860.902;  -12.437;50439.891
538.503;47658.180;   -7.196;50863.711
539.088;44310.199;  -10.556;50906.922
539.673;44032.207;   -8.767;52621.965
540.259;44183.234;  -10.026;52368.094
540.844;41796.391;   -7.416;50879.109
541.429;42902.242;   -9.467;52077.777
542.014;45587.414;   -9.527;52716.695
542.599;45036.637;   -9.946;52363.281
543.184;42824.297;   -7.927;53187.137
543.769;44101.133;   -9.297;54697.605
544.354;43655.984;  -10.127;53913.914
544.938;42447.867;   -9.267;49680.164
545.523;44338.734;   -6.506;47386.277
546.108;47074.328;   -9.787;49151.949
546.693;48928.566;  -11.587;51384.637
547.278;48494.891;  -10.986;51853.254
547.862;45665.016;   -8.206;51173.750
548.447;41440.211;  -10.067;51691.395
549.031;41052.242;   -9.637;52456.703
549.616;45891.055;   -9.926;52714.516
550.201;45201.719;   -6.347;52414.598
550.785;46249.113;   -7.917;52355.059
551.370;45527.934;  -10.867;54589.453
551.954;44986.070;   -9.047;58267.348
552.538;45809.410;   -7.827;59062.176
553.123;44224.836;  -10.287;58115.285
553.707;41959.570;  -12.178;56556.285
554.291;43254.520;   -8.717;56201.668
554.876;45530.910;   -7.457;55335.762
555.460;45664.816;  -10.387;54155.703
556.044;46579.578;   -9.618;53721.484
556.628;45331.973;  -11.567;53731.016
557.212;44233.738;   -8.097;54312.531
557.796;42760.465;  -11.077;53797.773
558.380;42669.398;  -11.108;56145.984
558.964;42988.277;   -9.057;57277.930
559.548;44257.672;   -6.977;56459.641
560.132;42712.898;  -11.457;54434.543
560.716;41321.996;  -11.378;54800.617
561.300;42324.344;   -9.577;57606.945
561.884;43450.328;   -7.127;58972.445
562.467;41896.563;   -7.118;57327.570
563.051;41309.656;  -13.358;54962.434
563.635;42304.449;  -10.178;52594.473
564.219;42330.363;   -7.837;50610.410
564.802;43058.406;  -11.398;49551.180
565.386;43000.973;  -12.788;48370.953
565.969;42331.250;   -9.077;48178.871
566.553;41631.480;   -6.207;49957.305
567.136;42175.445;   -8.568;50369.594
567.720;38758.242;  -11.868;49492.004
568.303;36753.711;   -8.268;50616.352
568.887;36817.609;   -8.698;50727.148
569.470;37089.555;   -6.808;51698.379
570.053;35773.859;  -13.188;52122.078
570.637;34389.031;  -12.037;52536.438
571.220;34255.273;   -8.577;51186.098
571.803;34854.969;   -8.498;51032.762
572.386;36795.824;  -10.498;49609.887
572.969;39085.328;   -9.388;48285.926
573.552;37341.086;   -8.338;47624.285
574.135;36121.238;   -8.518;45498.641
574.718;33800.398;  -13.628;41970.434
575.301;32812.805;  -10.893;41447.137
575.884;31825.211;   -8.158;40923.836
576.467;32886.070;  -10.328;45267.723
577.050;34491.750;  -13.058;48175.543
577.633;35615.594;   -9.458;47729.328
578.216;34385.137;   -8.928;47579.793
578.799;32977.652;   -9.358;47820.996
579.381;31678.738;  -11.388;48115.551
579.964;30417.092;  -11.718;47333.766
580.547;32731.732;   -8.588;46668.969
581.129;34283.340;   -8.859;44466.141
581.712;35255.004;  -10.729;44164.922
582.294;35851.625;  -11.118;46477.855
582.877;35608.598;   -5.218;48244.254
583.459;33117.707;   -8.679;47437.895
584.042;31181.604;  -10.709;46943.219
584.624;31710.652;  -11.669;46792.227
585.206;31128.344;   -8.218;46557.250
585.789;30839.020;  -10.569;45793.773
586.371;33069.641;  -11.859;43836.391
586.953;33042.145;  -10.719;42972.492
587.536;33067.684;   -7.198;42487.211
588.118;31416.012;   -8.720;42086.414
588.700;26588.217;  -10.439;43389.930
589.282;26218.863;   -9.198;43646.039
589.864;29704.783;   -9.199;43438.109
590.446;33062.102;  -11.319;43151.926
591.028;34081.824;  -11.159;42781.867
591.610;33443.820;  -11.779;42839.098
592.192;31002.793;   -7.668;42820.402
592.774;29472.443;  -11.949;40724.277
593.356;28181.533;  -12.129;39874.789
593.937;27094.180;  -10.669;39980.648
594.519;29145.098;   -6.509;42069.633
595.101;31323.604;  -10.849;42976.031
595.683;31428.135;  -11.679;44084.441
596.264;32548.102;   -9.049;43478.797
596.846;32037.912;   -8.849;43803.672
597.427;31874.969;   -9.570;42986.934
598.009;33441.313;  -12.620;42832.219
598.591;33832.211;  -10.039;42580.086
599.172;33040.168;  -10.369;43061.805
599.753;33206.871;   -9.140;41691.469
600.335;34826.727;  -11.430;40692.520
600.916;33142.637;   -9.939;39982.422
601.498;30542.398;   -8.479;40318.617
602.079;29021.006;  -10.920;40670.609
602.660;28879.113;  -11.480;41450.898
603.241;30492.793;  -11.699;41137.738
603.823;29323.486;   -9.579;38868.797
604.404;28738.844;  -10.620;38182.785
604.985;30385.469;  -10.450;38078.047
605.566;30290.453;   -9.129;38056.633
606.147;30423.816;   -7.510;37020.418
606.728;31922.271;  -10.660;37883.359
607.309;30644.473;  -11.740;38748.273
607.890;30155.672;   -9.759;38850.230
608.471;29633.486;   -8.250;37457.918
609.051;28699.445;   -9.240;36066.457
609.632;27665.197;  -12.120;35991.074
610.213;28474.553;   -9.110;37402.641
610.794;29172.697;   -8.030;38383.363
611.374;28718.459;   -8.110;40562.387
611.955;29147.484;  -13.560;38533.727
612.536;30433.416;  -11.400;36951.789
613.116;30367.250;   -8.070;37197.891
613.697;30799.256;  -10.830;38411.125
614.277;29240.625;  -11.641;38673.938
614.858;30016.984;  -13.310;37075.863
615.438;29170.426;   -7.460;35092.906
616.019;26589.695;   -7.601;33666.301
616.599;27233.328;  -12.020;34189.023
617.179;29002.879;  -11.780;36952.047
617.760;29980.084;   -8.570;39582.574
618.340;31084.439;  -11.471;38943.977
618.920;32358.271;  -11.170;37594.156
619.500;32098.543;  -11.071;37866.938
620.080;31131.184;   -7.750;37869.043
620.660;32277.799;  -12.711;36868.617
621.241;33638.453;  -10.211;36352.309
621.821;33926.023;  -10.961;35459.520
622.401;32927.230;   -7.720;35207.414
622.980;32206.646;   -8.981;35980.422
623.560;30795.811;   -9.331;37351.328
624.140;29577.150;   -9.850;34388.582
624.720;24563.508;   -7.451;32368.764
625.300;21113.643;   -9.070;32638.629
625.880;24483.824;  -12.601;34599.035
626.459;28371.371;  -11.751;36831.738
627.039;31359.822;   -9.281;38299.098
627.619;31308.533;   -8.801;38289.574
628.198;29822.963;  -12.071;37220.695
628.778;29015.441;   -9.461;37632.563
629.357;29728.070;   -8.491;38003.012
629.937;29735.496;   -9.721;38402.039
630.516;29228.902;   -9.951;37868.801
631.096;28950.000;  -11.731;35760.410
631.675;31368.152;   -8.572;35225.219
632.254;36343.621;  -11.282;35130.289
632.834;35835.230;  -13.322;35794.570
633.413;34056.059;  -10.301;35788.922
633.992;31364.949;   -8.582;34532.863
634.571;32162.082;   -8.352;33590.113
635.151;35273.086;  -11.912;34943.863
635.730;33608.625;  -10.511;35352.523
636.309;29950.404;   -7.731;35366.605
636.888;27428.752;   -9.952;36165.637
637.467;28164.639;  -11.672;37515.902
638.046;29891.268;   -8.901;39288.695
638.625;32988.980;   -7.912;38279.699
639.204;32905.969;  -10.022;37741.598
639.782;31381.100;  -12.252;38364.551
640.361;27725.164;  -10.041;36740.621
640.940;24813.541;  -11.161;34950.082
641.519;25484.807;   -9.701;34137.398
642.097;28440.717;  -11.271;35654.258
642.676;31342.959;   -8.651;35637.957
643.255;32026.221;   -8.711;36567.074
643.833;31217.971;   -9.581;37809.434
644.412;31235.633;  -13.711;37337.293
644.990;30239.066;  -11.811;37018.531
645.569;30130.994;   -9.411;36518.469
646.147;29039.688;  -10.291;36186.430
646.726;28771.959;  -12.401;36267.688
647.304;30150.965;  -10.411;36647.625
647.882;31949.008;   -9.651;39286.742
648.461;33490.352;   -9.631;39157.703
649.039;31855.598;  -11.881;35412.883
649.617;31327.916;   -9.661;34744.918
650.195;31044.506;   -9.301;35403.098
650.773;29638.842;  -10.511;35053.797
651.352;27145.352;  -11.521;33756.816
651.930;24767.215;  -12.211;31868.773
652.508;23288.281;   -9.171;33121.551
653.086;27203.197;   -9.371;33564.793
653.663;30094.768;  -13.161;34054.668
654.241;28848.826;  -13.031;35693.309
654.819;30493.543;   -9.371;36422.906
655.397;30705.836;  -10.511;38213.484
655.975;30347.455;  -10.371;39507.625
656.553;30173.545;  -10.051;39498.223
657.130;28580.090;  -10.061;40395.480
657.708;27711.865;   -9.561;39242.020
658.286;27740.820;  -11.511;38920.020
658.863;29168.240;  -10.261;40202.898
659.441;32235.217;   -7.531;39677.938
660.018;31739.449;   -9.501;40413.355
660.596;30594.211;  -13.301;39931.414
661.173;32611.021;  -11.211;39604.531
661.750;32673.389;   -9.951;39700.070
662.328;31214.428;   -9.390;39292.809
662.905;30303.873;  -11.330;38235.648
663.482;26258.939;   -9.050;36212.305
664.060;24314.574;   -8.240;35944.945
664.637;27066.193;  -10.050;35170.785
665.214;28982.211;  -11.760;34197.523
665.791;30557.350;  -10.530;34549.520
666.368;29451.258;   -9.690;35118.578
666.945;30017.516;   -9.320;36019.418
667.522;31637.725;  -11.860;36048.438
668.099;31363.656;  -10.770;36243.914
668.676;30209.166;   -6.260;35958.875
669.253;28903.346;   -7.000;37384.730
669.830;29553.369;  -10.190;36779.629
670.407;29329.857;   -9.550;35231.289
670.984;29024.850;   -9.260;35544.270
671.560;29629.971;   -9.280;35466.867
672.137;28965.898;  -11.810;34280.863
672.714;29840.484;  -11.490;34632.863
673.290;30399.465;   -7.740;35135.422
673.867;30559.295;  -10.660;36114.480
674.443;30542.107;  -12.230;36152.859
675.020;28767.826;  -10.450;35327.238
675.596;29796.875;   -9.260;35795.176
676.173;30259.496;  -10.780;35430.355
676.749;29981.182;  -13.690;33549.516
677.326;29993.520;  -11.980;32210.012
677.902;29971.934;   -8.630;32068.871
678.478;29348.123;  -10.730;32583.891
679.054;28698.104;  -10.520;32088.928
679.631;28968.770;  -11.920;30978.848
680.207;30636.094;   -7.490;33160.887
680.783;32358.750;   -9.860;35570.363
681.359;31451.217;  -13.380;36125.184
681.935;30800.467;  -12.480;35240.922
682.511;29957.873;   -7.900;34429.961
683.087;29930.650;   -7.710;34463.680
683.663;29488.799;  -11.480;34648.898
684.239;28340.172;  -14.090;34546.457
684.815;27974.908;   -7.560;35586.375
685.390;28277.031;   -9.910;35821.895
685.966;28777.883;  -11.159;35085.871
686.542;31209.510;  -11.169;34198.230
687.118;33395.438;   -5.959;32847.707
687.693;33752.277;  -10.329;32794.027
688.269;33496.293;  -12.059;33072.367
688.844;31701.016;  -10.909;33141.664
689.420;29407.320;   -8.019;33965.742
689.995;27063.607;   -8.399;34655.523
690.571;25662.338;  -10.949;33576.742
691.146;26096.908;   -9.619;32657.219
691.722;25623.777;   -8.999;32526.979
692.297;25520.078;  -11.589;33014.617
692.872;27425.836;  -11.739;34012.254
693.448;27038.492;  -11.059;34237.434
694.023;26192.814;  -10.139;34142.672
694.598;28040.230;   -9.029;34132.031
695.173;28366.217;  -13.319;34205.250
695.748;27667.633;  -10.169;32882.488
696.323;27848.367;   -8.339;32864.906
696.898;28126.172;   -8.169;33170.004
697.473;28021.814;  -12.309;32432.984
698.048;27498.705;  -10.989;31649.303
698.623;27366.105;   -9.329;30778.141
699.198;29308.340;   -9.849;31140.119
699.773;30252.506;  -12.329;31764.299
700.348;28489.516;  -10.389;31780.816
700.922;28425.994;   -9.269;32046.375
701.497;29317.955;   -9.329;32603.574
702.072;29648.193;  -10.789;34799.871
702.646;28317.672;  -10.839;35793.172
703.221;26062.816;   -9.099;35201.590
703.795;28241.480;  -10.939;34764.527
704.370;28775.471;  -12.859;34307.367
704.944;29166.789;  -11.559;33509.887
705.519;30022.619;   -7.939;31388.584
706.093;31443.650;  -10.499;31340.104
706.668;31746.732;  -11.289;32630.281
707.242;30694.389;  -11.509;32728.779
707.816;29100.182;   -9.639;32947.238
708.390;27545.041;  -11.429;33277.855
708.965;27956.561;  -11.869;33834.336
709.539;27842.262;  -11.689;33709.273
710.113;28340.164;  -10.478;33044.313
710.687;27944.230;  -10.228;31953.992
711.261;26298.672;  -13.698;30505.949
711.835;26144.328;  -13.378;30262.369
712.409;26918.785;   -9.698;31254.447
712.983;28917.533;  -11.898;32754.986
713.557;29913.020;  -15.138;34018.824
714.131;29457.102;  -14.098;34579.625
714.704;28479.363;   -9.958;33890.262
715.278;26266.039;  -10.028;33531.102
715.852;25245.316;  -11.148;33601.660
716.425;25985.615;   -9.068;33515.117
716.999;26651.346;  -10.038;33185.555
717.573;27612.652;   -9.798;33905.996
718.146;28730.264;  -12.378;35199.293
718.720;28817.391;  -11.918;35060.551
719.293;28223.070;   -8.088;34973.230
719.867;31086.318;  -10.888;36394.449
720.440;30950.605;  -11.938;36663.008
721.013;29282.455;  -12.818;35102.426
721.587;27859.355;  -10.298;33985.266
722.160;26873.008;  -10.048;33524.965
722.733;25761.209;  -12.108;32987.043
723.306;26022.859;  -10.818;33066.301
723.880;28496.643;   -8.908;33399.500
724.453;30561.727;   -9.878;33468.297
725.026;29652.807;  -11.188;33816.637
725.599;26876.193;  -11.678;32797.996
726.172;27073.760;   -9.618;33187.434
726.745;28064.689;   -8.258;35136.613
727.318;29387.109;  -12.978;35751.730
727.891;30009.666;  -12.148;35890.430
728.463;29726.494;   -8.968;34822.090
729.036;28720.191;  -10.188;32895.086
729.609;29150.299;  -11.788;31823.225
730.182;26064.896;  -11.788;31445.283
730.754;23558.150;  -10.268;32373.223
731.327;23566.209;   -9.998;33676.820
731.900;23881.555;  -12.228;33417.000
732.472;25278.996;  -13.848;31978.498
733.045;27258.537;   -8.698;30368.777
733.617;27386.775;  -10.607;30574.215
734.190;27097.020;  -11.507;31280.975
734.762;24269.760;  -13.647;31674.412
735.334;22453.410;   -9.767;31247.291
735.907;23051.777;   -9.897;29876.211
736.479;23180.545;  -11.637;29808.488
737.051;22874.703;   -9.567;30233.547
737.623;23794.068;   -8.187;31469.086
738.195;24464.221;  -11.187;31784.225
738.768;26244.652;  -12.337;32120.523
739.340;26569.707;  -12.227;32094.342
739.912;25470.270;  -11.057;31312.680
740.484;23993.391;  -10.207;31946.238
741.056;22853.465;  -10.047;32984.059
741.628;24707.832;  -13.627;33897.715
742.199;26943.150;   -7.177;33213.016
742.771;25207.961;  -10.797;31369.113
743.343;22860.369;  -11.997;31865.473
743.915;21879.430;  -12.867;32388.631
744.487;22000.574;   -7.617;31079.568
745.058;22207.408;   -9.557;30570.107
745.630;22659.432;   -9.877;29970.127
746.201;23539.162;  -14.177;29186.766
746.773;24064.191;   -9.237;28805.723
747.344;23893.297;   -9.847;29591.223
747.916;22543.646;  -11.657;31412.201
748.487;22720.953;  -10.587;32194.898
749.059;23826.400;   -8.707;32533.719
749.630;24377.393;  -10.537;32158.518
750.201;23403.756;  -11.687;30855.395
750.773;21627.123;  -11.647;28622.555
751.344;21584.789;   -7.147;28405.732
751.915;22986.043;   -9.757;28461.551
752.486;23066.760;  -12.427;27842.850
753.057;20722.002;  -12.227;27845.008
753.628;19420.131;  -10.417;27728.107
754.199;20535.893;  -11.767;27381.086
754.770;21503.279;  -11.187;25882.203
755.341;21424.346;  -10.507;25886.184
755.912;21523.162;   -9.387;26050.861
756.483;21068.818;  -10.647;26798.779
757.054;19397.471;  -11.837;27048.238
757.625;18119.260;  -12.716;26294.838
758.195;17766.090;   -9.666;26142.076
758.766;17449.105;   -8.656;26392.234
759.337;18201.754;  -12.856;26334.594
759.907;19874.727;  -13.366;27579.652
760.478;20803.773;   -8.576;28352.770
761.048;20279.248;  -10.526;27325.088
761.619;19465.055;  -11.116;26460.428
762.189;19512.760;  -12.136;26029.826
762.760;20545.029;   -9.456;26430.145
763.330;21687.025;   -7.136;26670.902
763.900;21180.146;  -11.786;26603.021
764.471;18569.119;  -11.546;25542.740
765.041;17336.799;   -8.096;24358.459
765.611;17416.967;   -8.876;23991.297
766.181;17770.246;  -12.196;24470.236
766.751;18661.602;  -11.636;24845.975
767.321;18452.758;  -10.156;24533.633
767.891;16607.090;  -11.766;24916.492
768.461;16080.319;  -14.936;24776.771
769.031;16517.162;  -12.356;24757.988
769.601;18100.777;   -7.526;24181.088
770.171;18043.916;  -10.766;23670.387
770.741;17257.494;  -13.176;22960.045
771.311;17404.816;  -10.616;22917.523
771.880;17773.287;   -9.576;23562.941
772.450;17389.027;  -10.336;24216.500
773.020;17408.295;  -13.516;24140.398
773.589;16787.568;  -13.466;24414.857
774.159;16104.187;   -8.686;23858.717
774.729;15684.406;   -9.476;22942.135
775.298;15225.717;  -13.666;22324.033
775.867;14844.359;  -11.716;21140.313
776.437;14925.757;   -9.906;20838.092
777.006;14737.256;  -12.166;20599.510
777.576;14646.802;  -12.356;20508.809
778.145;14718.280;  -11.646;20732.947
778.714;14574.379;   -8.226;21062.465
779.283;13829.765;   -9.556;20949.664
779.853;13317.815;  -14.116;20508.623
780.422;13815.508;  -11.506;20649.082
780.991;13378.226;   -9.556;21527.520
781.560;12198.896;   -9.095;22632.658
782.129;12084.430;  -12.135;23048.277
782.698;12127.351;  -10.865;23438.555
783.267;11706.413;   -9.335;23267.734
783.836;11642.185;  -11.045;22415.133
784.404;12737.762;  -13.865;20443.152
784.973;13356.690;  -13.095;19699.150
785.542;13234.497;  -11.575;19763.828
786.111;12996.501;   -9.705;20341.408
786.679;12493.288;  -12.105;20207.967
787.248;12247.143;  -12.455;19516.465
787.817;12097.238;  -11.535;18900.363
788.385;11729.732;   -9.765;17879.121
788.954;11156.958;  -14.005;17658.301
789.522;10605.121;  -11.955;17788.879
790.090;11144.357;  -10.135;18118.277
790.659;11552.704;  -10.975;18338.736
791.227;11056.007;  -13.375;18508.615
791.795;11537.396;  -12.375;17898.254
792.364;11972.144;  -10.725;17295.133
792.932;12328.543;   -9.715;16822.051
793.500;12466.414;  -12.675;17040.148
794.068;12635.554;  -13.495;17179.787
794.636;12762.870;  -10.885;16664.246
795.204;12139.048;  -11.045;16524.545
795.772;12231.789;  -13.175;17274.564
796.340;11791.366;  -12.445;17891.002
796.908;11620.553;   -9.735;17648.561
797.476;11507.938;   -9.815;17064.080
798.044;11024.699;  -13.985;16672.777
798.612;10176.475;  -13.115;17023.996
799.180; 9774.454;  -10.185;16561.615
799.747; 9704.563;   -9.055;15962.773
800.315; 9443.877;  -12.385;15296.992
800.883; 9124.953;  -15.035;14801.771
801.450; 9163.563;  -10.365;14534.430
802.018; 9244.760;   -9.855;14173.248
802.585; 9377.726;  -11.905;14029.547
803.153; 9409.519;  -11.585;13836.846
803.720; 9237.096;   -9.095;13567.324
804.287; 8808.048;   -9.135;13360.622
804.855; 8369.789;  -11.604;13681.981
805.422; 8228.088;  -11.794;13536.560
805.989; 8256.697;  -10.734;13355.958
806.556; 8436.521;  -10.444;13747.896
807.124; 8669.265;  -12.764;13987.376
807.691; 8630.259;  -12.964;14038.674
808.258; 8450.815;  -11.134;14120.152
808.825; 8138.060;   -9.854;13860.111
809.392; 8193.823;  -10.504;13268.790
809.959; 7686.796;  -13.054;12680.389
810.526; 7244.527;   -8.294;12427.308
811.093; 7284.597;   -8.394;12030.105
811.659; 7902.434;  -12.304;11653.664
812.226; 8420.598;  -13.944;11637.183
812.793; 8128.998;  -10.484;11611.521
813.360; 7492.197;  -10.144;11885.181
813.926; 7165.583;  -11.684;12770.539
814.493; 6947.459;  -13.644;12677.638
815.060; 6553.985;   -9.724;11974.336
815.626; 6545.434;   -9.854;11594.715
816.193; 6972.077;  -13.254;11579.474
816.759; 6998.621;  -13.204;11666.972
817.325; 7049.289;   -9.434;11325.530
817.892; 7369.191;  -10.134;11105.369
818.458; 7768.751;  -13.474;10843.928
819.024; 7363.951;  -11.854;10714.406
819.591; 6999.190;  -10.244;10469.165
820.157; 6771.601;  -10.704;10235.523
820.723; 6291.817;  -12.324;10847.563
821.289; 5989.920;   -9.444;11040.980
821.855; 5920.505;   -8.374;10357.100
822.421; 5903.379;  -10.234; 9978.918
822.987; 5918.873;  -13.294; 9754.177
823.553; 5593.091;  -10.884;10065.755
824.119; 5393.497;   -8.884;10036.294
824.685; 5481.068;   -6.784;10029.192
825.251; 5580.426;  -12.004;10199.230
825.816; 5539.552;  -11.474; 9820.189
826.382; 5303.526;   -9.174; 9297.248
826.948; 5494.974;   -9.214; 9381.347
827.513; 5897.210;  -10.774; 9450.726
828.079; 5715.411;  -11.924; 9472.444
828.645; 5109.683;  -10.543; 9292.643
829.210; 5007.297;  -10.533; 9065.341
829.776; 5004.089;  -10.753; 9132.620
830.341; 4897.799;  -10.173; 9092.878
830.906; 5080.352;  -10.743; 9078.557
831.472; 5422.010;  -11.113; 8534.535
832.037; 5169.074;  -10.603; 8677.874
832.602; 4625.100;  -13.323; 8628.692
833.167; 4370.236;  -10.823; 8879.031
833.733; 4304.691;  -10.113; 9189.790
834.298; 4439.814;  -13.583; 9052.608
834.863; 4512.978;  -12.703; 8895.087
835.428; 4489.263;  -10.523; 8824.266
835.993; 4337.729;   -6.963; 8845.385
836.558; 4174.074;  -10.763; 8888.563
837.123; 4298.295;   -9.903; 8966.582
837.688; 4531.963;   -9.913; 8617.860
838.253; 4766.547;  -10.283; 8590.699
838.817; 4962.531;  -12.963; 8443.797
839.382; 4873.555;  -14.243; 8799.356
839.947; 4544.574;  -10.733; 8810.595
840.511; 4261.215;   -9.383; 8796.394
841.076; 3903.332;  -12.563; 8347.231
841.641; 3960.777;  -12.953; 8224.330
842.205; 4062.844;   -7.043; 8223.349
842.770; 4172.051;   -8.163; 8622.107
843.334; 4346.062;  -12.503; 8410.386
843.898; 4277.325;  -11.693; 8337.465
844.463; 4280.960;  -10.203; 8506.283
845.027; 4059.440;   -9.533; 8280.962
845.591; 3877.630;  -13.443; 8231.141
846.156; 3867.630;  -13.143; 7969.179
846.720; 3753.609;   -9.433; 7768.278
847.284; 3626.583;  -11.033; 7630.957
847.848; 3502.507;  -10.403; 7472.395
848.412; 3431.088;  -11.553; 7437.394
848.976; 3491.298;   -8.393; 7674.592
849.540; 3424.297;   -8.713; 7836.011
850.104; 3532.611;  -12.463; 7913.669
850.668; 3900.535;  -12.973; 7694.508
851.232; 4003.851;  -10.793; 7756.887
851.796; 3835.219;  -10.662; 7926.545
852.359; 3535.351;  -13.082; 7827.844
852.923; 3366.433;  -12.192; 7641.163
853.487; 3188.855;  -11.912; 7342.501
854.050; 3148.993;  -10.892; 7042.820
854.614; 3301.117;  -13.992; 7151.338
855.177; 3436.518;  -11.732; 7105.077
855.741; 3475.953;   -8.962; 6989.675
856.304; 3356.520;   -9.442; 6596.634
856.868; 3302.858;  -14.192; 6356.272
857.431; 3391.108;  -12.702; 6468.571
857.995; 3496.410;   -9.942; 6373.210
858.558; 3506.143;   -9.112; 6324.448
859.121; 3236.811;  -12.932; 6408.327
859.684; 3107.643;  -13.442; 6347.886
860.247; 3228.556;  -10.632; 6321.264
860.810; 3235.387;  -11.272; 6301.903
861.374; 2982.557;   -9.832; 6607.881
861.937; 2724.195;  -11.762; 6408.200
862.500; 2723.655;   -9.722; 6572.639
863.062; 2909.244;  -10.512; 6387.297
863.625; 3090.125;  -11.232; 6190.836
864.188; 3246.032;  -14.112; 5807.254
864.751; 3300.073;  -11.302; 5682.413
865.314; 3179.825;  -10.112; 5547.492
865.876; 2957.328;  -12.182; 5500.150
866.439; 2935.936;  -10.722; 5415.909
867.002; 2894.207;   -9.252; 5501.567
867.564; 2689.626;   -9.572; 5413.946
868.127; 2465.326;  -13.142; 5160.325
868.689; 2353.476;  -12.902; 5133.183
869.252; 2255.454;   -9.732; 5252.382
869.814; 2164.509;   -9.432; 5297.141
870.377; 2173.795;  -11.552; 5390.919
870.939; 2237.893;   -9.052; 5599.898
871.501; 2303.473;  -10.982; 5248.336
872.063; 2308.312;  -12.292; 4854.235
872.626; 2268.010;  -14.912; 4817.074
873.188; 2295.380;  -13.112; 4987.732
873.750; 2262.147;  -13.442; 4868.651
874.312; 2153.867;   -9.402; 4779.330
874.874; 2056.714;  -11.062; 4866.348
875.436; 1967.538;  -13.931; 4718.887
875.998; 1958.909;   -9.561; 4660.005
876.560; 1983.159;  -11.321; 4462.964
877.122; 1923.656;  -12.221; 4145.042
877.683; 1828.019;  -12.191; 4056.481
878.245; 1755.962;  -12.101; 3950.740
878.807; 1795.633;   -8.971; 4058.958
879.369; 1818.065;  -12.071; 3954.677
879.930; 1716.824;  -14.621; 3941.495
880.492; 1649.319;  -10.311; 4067.014
881.053; 1613.034;  -10.901; 3859.633
881.615; 1508.478;  -14.411; 3776.071
882.176; 1407.666;  -13.761; 3734.750
882.738; 1355.480;   -9.181; 3678.489
883.299; 1324.573;  -11.791; 3405.407
883.860; 1325.503;  -13.121; 3351.106
884.422; 1328.614;  -11.211; 3394.044
884.983; 1287.904;  -10.091; 3166.443
885.544; 1209.961;   -8.461; 3189.802
886.105; 1129.232;  -12.361; 3160.360
886.666; 1058.346;  -14.141; 3093.059
887.227;  998.468;  -11.361; 2941.957
887.788;  933.728;  -11.401; 2974.836
888.349;  869.939;  -13.791; 2721.214
888.910;  868.177;  -13.191; 2696.493
889.471;  874.483;   -9.881; 2560.172
890.032;  859.184;   -9.881; 2558.190
890.593;  834.239;  -10.371; 2567.669
891.153;  805.304;  -13.301; 2460.307
891.714;  754.658;  -11.431; 2372.046
892.275;  716.648;  -11.291; 2309.505
892.835;  677.523;  -11.471; 2382.543
893.396;  627.153;  -11.541; 2295.502
893.956;  570.176;  -11.181; 2162.420
894.517;  532.598;  -11.741; 2125.439
895.077;  525.029;  -11.671; 2086.978
895.638;  524.803;  -11.311; 2126.316
896.198;  495.290;   -9.831; 1838.275
896.758;  452.189;   -8.421; 1892.813
897.319;  420.589;  -12.351; 1792.232
897.879;  403.586;  -13.511; 1762.751
898.439;  378.619;  -12.001; 1661.149
898.999;  353.584;  -10.180; 1781.468
899.559;  345.736;  -12.030; 1703.347
900.119;  341.687;  -15.710; 1537.525
900.679;  337.845;   -8.900; 1638.384
901.239;  323.222;   -8.340; 1527.902
901.799;  312.222;  -13.910; 1456.441
902.359;  305.843;  -13.460; 1357.140
902.919;  299.947;  -11.490; 1331.118
903.479;  286.770;  -12.110; 1317.257
904.038;  266.148;  -11.720; 1262.595
904.598;  249.104;  -13.610; 1152.034
905.158;  245.966;  -11.040; 1240.893
905.717;  239.517;  -10.900; 1233.691
906.277;  228.164;  -15.080; 1217.330
906.836;  217.894;  -13.380; 1222.408
907.396;  208.993;  -10.780; 1193.047
907.955;  202.327;   -8.500; 1182.526
908.515;  195.827;  -12.760; 1099.364
909.074;  189.262;  -11.900; 1092.863
909.633;  184.078;   -8.950; 1069.121
910.192;  179.629;   -8.770; 1196.460
910.752;  173.609;  -12.390; 1029.960
911.311;  169.610;  -13.680; 1009.780
911.870;  167.405;  -12.370;  971.460
912.429;  168.103;  -10.900; 1094.080
912.988;  167.472;  -11.690; 1081.060
913.547;  162.359;  -13.240;  940.380
914.106;  157.490;  -11.990;  999.420
914.665;  154.013;   -9.990;  984.020
915.224;  152.664;  -12.880; 1035.760
915.782;  153.423;  -12.350;  922.560
916.341;  153.182;   -9.110; 1049.840
916.900;  149.698;   -9.270;  925.260
917.458;  147.583;  -13.240;  884.220
918.017;  146.520;  -13.550;  942.600
918.576;  146.648;  -12.320;  904.440
919.134;  144.505;  -11.490;  837.980
919.693;  142.181;  -13.670;  893.060
920.251;  139.844;  -15.470;  876.500
920.809;  139.530;  -11.290;  839.580
921.368;  139.232;  -10.210;  885.360
921.926;  138.180;  -12.140;  842.940
922.484;  137.081;  -13.080;  903.360
923.042;  135.803;  -11.720;  880.340
923.601;  139.686;   -7.480;  998.680
924.159;  138.147;  -11.570;  935.560
924.717;  134.581;  -13.840;  841.080
925.275;  134.921;  -10.640;  903.240
925.833;  134.393;  -11.540;  779.320
926.391;  135.148;  -12.960;  938.380
926.949;  133.462;  -14.130;  857.680
927.506;  134.022;  -11.750;  903.500
928.064;  134.576;  -10.250;  877.580
928.622;  133.538;  -13.030;  880.100
929.180;  133.317;  -13.400;  814.180
929.737;  134.881;  -10.700;  808.540
930.295;  138.675;  -10.070;  928.480
930.853;  140.021;  -11.960;  849.100
931.410;  140.703;  -13.120;  821.120
931.968;  139.340;  -10.770;  940.660
932.525;  138.993;  -10.680;  909.380
933.082;  140.444;  -13.130;  811.440
933.640;  141.498;  -13.210;  925.900
934.197;  139.949;  -11.060;  886.360
934.754;  140.216;   -9.580;  897.780
935.312;  143.542;  -14.000;  863.340
935.869;  147.427;  -10.710; 1012.980
936.426;  148.551;   -9.860;  872.800
936.983;  149.861;   -9.710;  889.020
937.540;  149.144;  -13.990;  838.280
938.097;  147.615;  -14.040;  940.120
938.654;  147.708;  -10.310;  898.860
939.211;  150.408;  -10.560;  952.480
939.768;  154.518;  -13.900;  915.420
940.324;  157.769;  -14.760;  904.200
940.881;  158.767;  -10.370;  878.500
941.438;  160.340;   -8.260; 1021.200
941.995;  155.948;  -12.540;  992.560
942.551;  153.602;  -14.670;  875.620
943.108;  154.449;  -10.450;  937.920
943.664;  156.183;  -10.750;  869.340
944.221;  159.896;  -11.550; 1088.140
944.777;  157.029;  -14.770;  869.680
945.334;  157.154;  -12.820;  884.840
945.890;  159.267;  -10.130;  946.480
946.446;  159.617;  -13.470;  947.020
947.003;  160.891;  -12.120;  964.940
947.559;  165.369;   -9.980; 1063.040
948.115;  164.241;   -9.080; 1026.540
948.671;  161.358;  -10.830;  967.300
949.227;  158.526;  -12.440;  859.560
949.783;  156.802;  -12.910;  858.900
950.339;  158.329;  -10.270;  991.000
950.895;  158.544;  -13.630; 1023.840
951.451;  158.499;  -15.100;  925.280
952.007;  158.442;  -11.330;  998.540
952.563;  159.496;  -10.580;  937.780
953.118;  158.346;  -13.440;  904.940
953.674;  158.251;  -12.710;  935.780
954.230;  157.868;  -10.350;  949.640
954.785;  155.750;   -9.190;  936.640
955.341;  153.334;  -11.200;  998.160
955.897;  150.406;  -16.560;  834.660
956.452;  152.487;  -12.570;  953.840
957.008;  151.511;   -7.970; 1083.640
957.563;  149.008;  -11.940; 1009.540
958.118;  143.158;  -13.450;  877.700
958.674;  143.593;  -12.030;  946.780
959.229;  145.520;   -9.410; 1013.980
959.784;  144.411;  -12.000;  832.400
960.339;  142.819;  -14.780; 1001.280
960.894;  139.272;   -9.860;  963.760
961.449;  135.530;   -9.970;  859.960
962.004;  136.096;  -10.900; 1212.840
962.559;  130.952;  -13.150;  860.140
963.114;  128.191;  -13.740;  742.480
963.669;  127.646;   -9.820;  915.500
964.224;  126.288;  -13.890;  874.340
964.779;  124.193;  -12.600;  828.420
965.334;  125.394;  -10.950; 1017.860
965.888;  126.324;  -11.170;  875.360
966.443;  129.493;  -12.540;  972.380
966.998;  129.041;  -15.780;  819.460
967.552;  127.922;   -9.760;  908.380
968.107;  123.929;   -9.060;  868.300
968.661;  125.068;  -11.950;  922.440
969.216;  125.752;  -12.800;  856.280
969.770;  125.377;  -11.210;  917.200
970.324;  124.604;  -11.610;  923.140
970.879;  121.821;  -11.370;  947.180
971.433;  117.957;  -12.540;  952.720
971.987;  112.908;  -11.320;  895.340
972.541;  110.919;  -10.720;  917.100
973.095;  112.467;   -9.680; 1009.460
973.649;  110.208;  -11.440;  809.480
974.203;  106.166;  -11.210;  829.040
974.757;  100.639;  -10.240;  855.220
975.311;   91.792;  -13.720;  872.600
975.865;   84.225;  -13.770;  881.820
976.419;   79.291;  -11.690;  857.400
976.973;   79.149;   -9.510;  849.620
977.526;   82.339;  -12.620;  949.920
978.080;   82.529;  -12.010;  796.780
978.634;   87.355;  -10.170;  921.320
979.187;   86.692;   -9.020;  905.400
979.741;   86.903;   -9.820; 1018.380
980.294;   82.271;  -14.870;  789.160
980.848;   81.606;  -12.380;  717.220
981.401;   84.773;  -10.350;  816.540
981.955;   87.109;  -13.720;  844.300
982.508;   87.075;  -11.490;  746.340
983.061;   87.238;  -10.000;  915.260
983.615;   84.163;  -11.480;  798.800
984.168;   81.585;  -13.220;  770.080
984.721;   81.295;  -13.960;  880.760
985.274;   80.399;  -10.870;  867.500
985.827;   80.157;   -9.790;  834.220
986.380;   78.422;  -13.120;  721.340
986.933;   77.659;  -12.450;  864.800
987.486;   76.283;  -10.210;  861.920
988.039;   75.704;   -8.430;  863.100
988.591;   73.363;  -10.520;  893.260
989.144;   71.376;  -14.860;  737.260
989.697;   70.411;  -13.080;  758.740
990.250;   71.469;  -10.150;  858.100
990.802;   70.709;  -13.430;  755.860
991.355;   71.458;  -12.750;  974.880
991.907;   69.337;  -12.040;  864.320
992.460;   67.215;  -11.330;  753.760
993.012;   67.095;  -13.610;  749.540
993.565;   65.521;  -13.460;  711.360
994.117;   67.875;   -9.360;  950.780
994.669;   64.448;  -11.300;  701.320
995.221;   62.468;  -13.540;  791.920
995.774;   60.311;  -13.430;  787.580
996.326;   57.609;  -12.520;  740.220
996.878;   57.378;  -10.950;  838.420
997.430;   53.929;  -14.300;  699.860
997.982;   52.161;  -13.760;  750.140
998.534;   52.752;  -11.530;  739.060
999.086;   52.595;  -10.310;  738.220
999.638;   51.613;  -12.530;  661.380
1000.190;   51.099;  -11.840;  699.320
1000.741;   50.907;  -10.260;  742.700
1001.293;   50.500;   -8.860;  686.020
1001.845;   49.078;  -13.700;  676.640
1002.396;   49.291;  -12.100;  743.400
1002.948;   48.578;  -12.760;  737.400
1003.500;   47.350;  -10.380;  723.780
1004.051;   47.981;  -11.900;  907.580
1004.603;   46.129;  -12.250;  791.820
1005.154;   42.590;  -13.210;  608.980
1005.705;   42.141;  -10.950;  723.960
1006.257;   42.011;  -13.880;  707.220
1006.808;   41.168;  -12.840;  685.460
1007.359;   41.066;  -10.570;  763.240
1007.910;   40.023;   -9.620;  646.640
1008.461;   39.498;  -13.630;  732.940
1009.013;   38.099;  -17.200;  588.340
1009.564;   40.037;  -10.200;  793.520
1010.115;   37.019;  -12.570;  597.040
1010.665;   37.631;  -15.150;  602.160
1011.216;   37.293;  -14.480;  667.920
1011.767;   36.671;  -11.340;  697.920
1012.318;   36.816;   -9.780;  736.980
1012.869;   35.511;  -12.380;  679.000
1013.419;   35.044;  -15.560;  603.120
1013.970;   35.540;  -11.010;  666.640
1014.521;   34.861;  -11.610;  620.620
1015.071;   35.763;  -13.450;  670.380
1015.622;   34.969;  -13.870;  635.460
1016.172;   34.285;  -11.610;  596.820
1016.723;   33.388;  -12.120;  614.380
1017.273;   33.691;  -13.620;  604.160
1017.823;   33.649;  -14.140;  650.340
1018.374;   32.689;  -12.800;  611.760
1018.924;   33.183;  -12.340;  716.880
1019.474;   33.226;  -11.410;  718.880
1020.024;   31.415;  -14.770;  657.580
1020.574;   32.841;   -9.780;  726.160
1021.124;   33.198;   -8.560;  673.580
1021.674;   31.623;  -15.190;  559.120
1022.224;   32.824;  -13.530;  708.940
1022.774;   32.413;  -13.280;  668.820
1023.324;   32.615;  -10.690;  753.520
1023.874;   33.407;  -10.240;  875.760
1024.423;   29.970;  -12.540;  613.700
1024.973;   30.381;  -10.010;  610.760
1025.523;   30.000;  -10.550;  620.960
1026.072;   30.251;  -13.560;  606.420
1026.622;   30.025;  -15.120;  675.740
1027.172;   30.728;  -11.260;  715.660
1027.721;   29.306;  -11.410;  601.220
1028.270;   29.223;  -13.530;  663.400
1028.820;   29.340;  -13.680;  638.080
1029.369;   29.019;  -13.520;  612.700
1029.918;   29.683;  -10.980;  649.840
1030.468;   28.656;  -13.530;  564.780
1031.017;   28.765;  -13.170;  634.800
1031.566;   28.172;  -12.200;  608.900
1032.115;   28.647;   -9.960;  694.500
1032.664;   27.507;  -13.210;  596.480
1033.213;   27.817;  -12.500;  735.420
1033.762;   28.137;  -11.910;  635.620
1034.311;   27.628;   -9.640;  677.220
1034.860;   27.946;  -13.310;  691.000
1035.408;   27.431;  -11.830;  722.720
1035.957;   27.670;  -12.000;  719.540
1036.506;   26.216;  -11.690;  530.800
1037.055;   28.199;  -10.990;  844.320
1037.603;   26.010;  -15.120;  664.000
1038.152;   24.616;  -12.450;  534.760
1038.700;   25.447;  -10.560;  585.740
1039.249;   25.119;  -11.080;  681.220
1039.797;   25.954;  -12.540;  633.360
1040.345;   25.547;  -11.920;  705.420
1040.894;   25.521;  -11.410;  625.300
1041.442;   24.934;  -14.320;  632.200
1041.990;   23.783;  -16.240;  559.160
1042.538;   23.759;  -11.680;  536.180
1043.087;   24.165;  -10.760;  570.860
1043.635;   25.118;  -11.850;  670.500
1044.183;   23.560;  -15.480;  586.400
1044.731;   24.081;  -11.770;  576.000
1045.279;   23.568;  -13.090;  674.920
1045.827;   25.551;  -12.440;  892.400
1046.374;   22.114;  -13.840;  515.420
1046.922;   22.344;  -13.220;  590.580
1047.470;   23.683;  -10.230;  691.300
1048.018;   22.953;  -14.590;  647.960
1048.565;   23.379;  -12.050;  708.600
1049.113;   22.119;  -11.650;  557.000
1049.660;   22.323;  -10.510;  629.660
1050.208;   22.499;  -13.310;  675.640
1050.755;   21.301;  -15.900;  606.580
1051.303;   21.918;  -11.430;  686.820
1051.850;   21.959;   -8.480;  635.120
1052.397;   20.073;  -15.010;  473.960
1052.945;   20.509;  -13.960;  617.760
1053.492;   22.335;  -13.150;  741.840
1054.039;   22.451;   -9.630;  720.180
1054.586;   20.401;  -13.680;  557.240
1055.133;   20.970;  -14.570;  693.140
1055.680;   20.790;  -13.820;  646.620
1056.227;   20.680;  -11.730;  542.780
1056.774;   21.617;  -12.480;  794.980
1057.321;   19.141;  -13.930;  523.260
1057.868;   20.464;  -11.690;  651.320
1058.415;   20.088;   -9.520;  651.980
1058.961;   20.199;  -13.160;  678.940
1059.508;   19.779;  -12.920;  643.820
1060.055;   19.640;  -11.920;  581.780
1060.601;   20.058;  -11.500;  624.300
1061.148;   20.209;  -14.330;  616.820
1061.694;   18.843;  -16.870;  592.580
1062.241;   19.569;  -10.330;  596.320
1062.787;   19.679;  -10.620;  663.140
1063.334;   20.038;  -10.110;  808.560
1063.880;   18.503;  -13.400;  668.360
1064.426;   18.775;  -10.680;  706.820
1064.972;   17.966;   -9.920;  601.340
1065.518;   17.301;  -10.980;  566.640
1066.065;   17.551;  -14.890;  624.460
1066.611;   17.391;  -12.870;  598.800
1067.157;   18.278;  -12.950;  641.860
1067.703;   18.336;  -13.540;  668.480
1068.249;   17.484;  -13.540;  605.220
1068.794;   17.842;  -12.600;  626.880
1069.340;   16.806;  -10.620;  578.960
1069.886;   17.119;  -12.830;  590.700
1070.432;   15.924;  -14.870;  541.720
1070.977;   16.747;  -11.980;  601.080
1071.523;   16.634;   -8.200;  573.060
1072.068;   17.201;  -12.330;  582.000
1072.614;   15.930;  -16.370;  527.760
1073.160;   16.497;  -11.100;  687.040
1073.705;   15.546;  -10.480;  572.520
1074.250;   15.286;  -14.520;  559.900
1074.796;   16.345;  -11.460;  655.160
1075.341;   16.484;  -11.950;  664.100
1075.886;   16.221;  -11.460;  594.240
1076.431;   15.287;  -13.770;  649.880
1076.976;   15.061;  -12.680;  639.220
1077.521;   15.279;  -13.170;  583.080
1078.067;   14.407;  -10.860;  579.400
1078.612;   14.962;  -13.920;  661.620
1079.156;   14.822;  -13.880;  601.540
1079.701;   15.870;  -13.120;  693.260
1080.246;   16.426;   -9.940;  696.300
1080.791;   14.699;  -14.740;  625.020
1081.336;   14.397;  -13.750;  659.320
1081.880;   14.690;  -13.400;  649.680
1082.425;   13.969;  -12.220;  573.480
1082.970;   15.722;  -11.610;  717.040
1083.514;   14.156;  -13.580;  597.000
1084.059;   12.868;  -12.810;  586.720
1084.603;   13.188;  -12.320;  565.840
1085.147;   14.202;  -13.190;  645.220
1085.692;   14.610;  -12.480;  716.800
1086.236;   12.373;  -13.020;  503.140
1086.780;   14.953;   -9.190;  751.440
1087.325;   13.745;  -12.480;  654.620
1087.869;   12.736;  -12.450;  610.700
1088.413;   14.541;  -12.240;  705.040
1088.957;   11.454;   -9.020;  543.400
1089.501;   13.789;  -10.320;  766.640
1090.045;   12.725;  -12.720;  726.480
1090.589;   11.240;  -13.690;  569.920
1091.133;   13.064;  -10.020;  673.340
1091.676;   12.740;  -12.330;  591.940
1092.220;   12.051;  -14.970;  600.920
1092.764;   13.410;  -12.430;  706.960
1093.307;   12.536;   -9.800;  673.780
1093.851;   11.505;  -14.970;  556.540
1094.395;   12.541;  -15.310;  683.140
1094.938;   10.908;  -10.370;  632.520
1095.482;   12.005;  -11.050;  559.800
1096.025;   11.832;  -11.840;  710.880
1096.568;   12.745;  -12.840;  779.280
1097.112;    9.597;  -14.700;  508.180
1097.655;   11.653;   -8.720;  603.000
1098.198;   10.134;  -13.610;  600.180
1098.741;   10.184;  -13.350;  612.860
1099.285;   11.322;  -11.230;  657.300
1099.828;    9.632;  -11.840;  439.400
1100.371;   10.393;  -10.840;  608.160
1100.914;   11.192;  -14.190;  682.660
1101.457;   10.864;  -11.240;  679.900
1101.999;    9.759;  -11.270;  584.680
1102.542;   10.535;  -11.480;  641.440
1103.085;    9.528;  -11.750;  658.500
1103.628;   10.770;  -11.400;  762.060
1104.170;   10.250;  -10.490;  588.280
1104.713;    9.739;  -10.600;  646.700
1105.256;    9.209;  -14.360;  557.440
1105.798;    8.287;  -13.210;  499.980
1106.341;   11.080;  -10.270;  728.900
1106.883;    9.263;  -12.200;  521.340
1107.425;    8.657;  -13.110;  668.180
1107.968;    8.448;  -12.840;  612.380
1108.510;    9.194;   -6.480;  684.960
1109.052;    8.415;  -13.940;  612.620
1109.594;    7.598;  -13.690;  554.440
1110.136;    8.440;  -11.880;  643.220
1110.679;    8.074;   -9.500;  633.080
1111.221;    8.962;  -14.160;  604.460
1111.763;    7.343;  -13.980;  559.220
1112.304;    7.308;  -13.880;  547.140
1112.846;    8.481;  -12.210;  666.240
1113.388;   10.675;  -11.390;  942.180
1113.930;    7.109;  -14.540;  694.200
1114.472;    6.402;  -12.640;  606.540
1115.013;    5.531;  -11.620;  551.280
1115.555;    6.628;  -13.640;  587.100
1116.097;    6.296;  -15.380;  579.480
1116.638;    7.274;  -12.640;  684.600
1117.180;    7.396;   -9.850;  667.740
1117.721;    6.506;  -13.690;  568.580
1118.262;    7.298;  -12.680;  677.960
1118.804;    7.277;  -12.530;  637.340
1119.345;    6.535;  -11.690;  578.400
1119.886;    7.895;  -13.380;  704.040
1120.427;    6.082;  -14.070;  589.020
1120.969;    5.607;  -13.500;  597.920
1121.510;    5.857;  -11.480;  563.060
1122.051;    6.173;  -12.830;  723.580
1122.592;    4.860;  -14.290;  655.420
1123.133;    5.035;  -12.400;  547.940
1123.673;    6.652;  -10.130;  706.480
1124.214;    5.717;  -12.930;  612.460
1124.755;    6.630;  -14.380;  639.460
1125.296;    5.801;  -14.000;  627.320
1125.836;    6.826;  -10.070;  691.500
1126.377;    5.126;  -12.640;  599.660
1126.918;    5.559;  -12.960;  614.980
1127.458;    5.112;  -13.350;  622.220
1127.999;    6.035;  -10.750;  656.980
1128.539;    5.612;  -12.350;  694.240
1129.079;    4.601;  -14.860;  632.720
1129.620;    5.369;  -13.840;  558.100
1130.160;    4.011;  -12.330;  539.480
1130.700;    5.400;  -14.530;  640.840
1131.240;    5.898;  -12.530;  643.700
1131.781;    4.408;  -14.450;  619.680
1132.321;    4.690;   -9.790;  599.120
1132.861;    3.735;  -14.860;  564.200
1133.401;    3.515;  -14.290;  593.940
1133.941;    3.846;  -11.750;  626.280
1134.481;    3.988;   -9.920;  597.580
1135.020;    3.677;  -12.290;  609.160
1135.560;    4.022;  -11.650;  674.940
1136.100;    3.208;  -16.270;  501.160
1136.640;    2.678;  -10.890;  510.480
1137.179;    3.268;  -14.180;  537.960
1137.719;    3.620;  -16.250;  605.400
1138.258;    4.189;  -14.230;  587.360
1138.798;    3.683;   -9.090;  663.780
1139.337;    2.979;  -15.130;  482.840
1139.877;    2.704;  -13.680;  642.360
1140.416;    4.926;  -11.320;  878.060
1140.955;    2.534;  -10.860;  535.380
1141.494;    2.729;  -12.920;  669.280
1142.034;    2.984;  -13.930;  583.520
1142.573;    3.434;  -11.440;  646.280
1143.112;    2.454;  -12.000;  553.480
1143.651;    2.608;  -13.670;  536.480
1144.190;    3.721;  -12.730;  691.640
1144.729;    2.678;  -14.560;  607.420
1145.267;    2.380;  -11.830;  584.900
1145.806;    3.967;  -12.230;  637.040
1146.345;    2.348;  -14.130;  635.020
1146.884;    1.757;  -11.590;  622.500
1147.422;    1.781;  -12.550;  533.060
1147.961;    3.849;  -11.180;  708.460
1148.500;    1.994;  -11.510;  669.720
1149.038;    2.891;  -11.640;  632.500
1149.577;    2.421;  -10.130;  698.640
1150.115;   -0.004;  -13.970;  452.280
1150.653;    2.088;  -14.520;  607.340
1151.192;    1.632;  -12.810;  552.920
1151.730;    1.802;   -9.100;  652.560
1152.268;    0.870;  -12.220;  589.520
1152.806;    1.212;  -14.140;  571.180
1153.344;    0.470;  -12.350;  577.640
1153.882;    1.131;   -8.980;  600.060
1154.421;   -0.113;  -15.190;  470.620
1154.958;    0.924;  -15.210;  595.240
1155.496;    2.223;  -12.850;  645.280
1156.034;    2.044;   -9.940;  721.880
1156.572;    2.217;  -13.570;  667.060
1157.110;    0.053;  -14.590;  473.940
1157.647;    1.189;  -13.030;  676.960
1158.185;    0.417;  -12.140;  564.320
1158.723;   -0.432;  -14.390;  509.200
1159.260;    0.797;  -14.090;  701.700
1159.798;    1.080;  -11.920;  658.160
1160.335;    0.908;  -11.110;  631.820

