
Integration time [ms]:   3.882
Averaging Nr. [scans]: 1000
Smoothing Nr. [pixels]: 0
Data measured with spectrometer [name]: 7414430SP
Wave   ;Sample   ;Dark     ;Reference
[nm]   ;[counts] ;[counts] ;[counts] 

288.544;  121.570;   10.292;  793.890
289.143;  123.673;    4.564;  681.602
289.742;  125.721;    6.144;  828.814
290.341;  114.149;    4.396;  789.841
290.940;  104.314;    0.938;  730.702
291.538;  104.980;   -0.684;  881.108
292.137;  103.701;   -2.845;  792.581
292.736;  107.321;   -0.144;  975.101
293.335;  104.257;   -6.352;  735.086
293.934;  103.306;   -7.642;  781.677
294.532;  104.940;   -4.992; 1031.958
295.131;   92.062;   -5.478;  834.394
295.730;   92.717;   -6.549;  809.588
296.328;   89.617;   -9.558;  783.442
296.927;   88.675;   -8.118;  779.652
297.525;   90.018;   -6.908;  781.236
298.124;   82.093;   -9.195;  654.009
298.722;   86.607;   -8.198;  761.933
299.321;   84.843;   -8.817;  708.597
299.919;   83.185;   -7.716;  751.918
300.518;   79.211;  -10.745;  689.338
301.116;   80.242;   -9.647;  691.381
301.715;   81.215;  -10.828;  730.222
302.313;   80.749;   -6.087;  704.943
302.911;   75.459;   -6.824;  733.830
303.509;   80.865;   -8.807;  925.627
304.108;   78.464;   -8.198;  760.383
304.706;   78.391;   -6.218;  801.664
305.304;   73.767;   -7.185;  796.707
305.902;   79.165;   -8.568;  784.484
306.500;   74.481;   -7.737;  728.200
307.098;   73.226;   -6.026;  746.560
307.696;   71.927;   -7.176;  780.432
308.294;   72.462;   -8.656;  731.359
308.892;   74.266;   -6.838;  759.769
309.490;   70.664;   -2.596;  712.161
310.088;   68.923;   -4.485;  788.444
310.686;   73.941;   -3.907;  821.749
311.284;   69.831;   -2.806;  766.040
311.882;   67.697;   -2.845;  731.225
312.480;   63.971;   -3.274;  697.167
313.078;   66.063;   -3.645;  808.331
313.675;   66.460;   -4.997;  691.600
314.273;   62.599;   -0.894;  797.837
314.871;   61.641;   -2.854;  589.829
315.468;   60.163;   -3.644;  652.090
316.066;   62.854;   -3.947;  694.427
316.664;   56.886;   -1.824;  656.351
317.261;   61.669;    1.565;  910.128
317.859;   56.980;   -3.955;  768.735
318.456;   57.606;   -2.886;  830.096
319.054;   54.356;   -0.995;  787.828
319.651;   53.588;   -1.765;  759.928
320.249;   52.715;   -3.685;  810.188
320.846;   50.127;   -3.736;  714.286
321.443;   49.013;   -2.065;  832.135
322.041;   47.146;   -5.635;  812.315
322.638;   45.319;   -5.985;  701.456
323.235;   46.034;   -6.677;  665.683
323.833;   44.810;   -3.497;  740.354
324.430;   40.148;   -6.756;  615.900
325.027;   42.706;   -7.647;  876.855
325.624;   42.866;   -7.598;  644.532
326.221;   40.437;   -5.848;  689.717
326.818;   40.176;   -5.777;  818.332
327.415;   41.583;   -8.769;  748.828
328.012;   41.522;   -6.299;  690.585
328.609;   40.314;   -6.639;  731.389
329.206;   38.405;   -6.358;  778.621
329.803;   37.369;   -8.698;  737.841
330.400;   39.024;   -8.379;  704.260
330.997;   40.107;   -6.178;  817.147
331.594;   37.229;   -5.646;  788.185
332.191;   40.720;   -6.928;  728.722
332.787;   42.882;   -6.057;  844.463
333.384;   41.014;   -6.445;  763.093
333.981;   38.555;   -8.002;  815.687
334.578;   39.828;   -8.443;  708.378
335.174;   42.247;   -6.053;  731.469
335.771;   42.430;   -5.791;  836.456
336.367;   39.748;   -6.570;  710.631
336.964;   42.014;   -6.741;  793.266
337.561;   41.799;   -5.710;  731.112
338.157;   38.812;   -3.928;  911.916
338.754;   35.787;   -5.577;  796.589
339.350;   32.956;   -9.667;  722.493
339.946;   37.528;   -5.269;  773.135
340.543;   30.346;   -4.485;  846.136
341.139;   25.461;   -7.584;  720.836
341.735;   23.845;   -8.553;  772.593
342.332;   22.996;   -4.984;  691.472
342.928;   23.267;   -3.475;  795.394
343.524;   18.985;   -6.653;  761.684
344.120;   16.027;   -7.173;  738.562
344.716;   19.319;   -4.385;  723.717
345.313;   16.875;   -3.565;  795.342
345.909;   12.593;   -7.495;  627.336
346.505;   14.641;   -8.276;  740.247
347.101;   15.306;   -5.697;  827.864
347.697;   16.646;   -4.767;  785.398
348.293;   10.214;   -7.226;  627.244
348.889;   12.306;   -7.547;  745.914
349.485;   11.219;   -9.147;  688.205
350.081;   12.140;   -6.568;  772.592
350.676;    6.294;   -6.516;  691.606
351.272;   12.115;   -7.378;  809.530
351.868;   12.596;   -6.759;  780.497
352.464;    9.524;   -4.798;  723.932
353.059;    5.802;   -7.977;  646.017
353.655;    9.525;   -8.769;  777.063
354.251;   10.511;   -5.920;  759.845
354.846;    5.356;   -7.647;  740.646
355.442;    3.285;   -6.956;  753.071
356.038;    3.688;   -9.928;  751.708
356.633;    4.791;   -7.698;  728.594
357.229;    3.603;   -6.307;  724.757
357.824;    2.096;   -7.647;  703.600
358.420;    1.803;  -10.047;  679.726
359.015;    1.809;   -7.458;  695.357
359.610;    2.755;   -5.748;  763.920
360.206;   -3.225;   -9.346;  603.240
360.801;   -0.399;  -11.268;  646.503
361.396;    2.188;   -8.789;  725.975
361.992;   -1.057;   -6.347;  668.220
362.587;   -4.468;   -6.476;  670.160
363.182;   -2.439;   -9.457;  689.631
363.777;   -1.369;   -7.147;  738.242
364.372;   -1.437;   -5.507;  737.314
364.967;   -5.637;   -6.386;  680.744
365.563;   -0.539;   -7.858;  815.567
366.158;   -3.487;   -8.517;  685.161
366.753;   -3.107;   -8.728;  649.263
367.348;   -3.791;   -7.677;  746.056
367.942;   -4.560;  -10.387;  697.298
368.537;   -6.012;   -7.187;  754.245
369.132;   -5.210;   -8.587;  703.428
369.727;   -9.087;   -8.606;  638.079
370.322;   -7.886;  -10.426;  580.186
370.917;   -7.173;   -5.776;  710.646
371.511;   -4.474;   -6.007;  861.834
372.106;   -7.747;   -6.686;  776.964
372.701;  -11.031;   -9.335;  585.988
373.296;   -4.784;   -6.777;  863.135
373.890;  -10.190;   -7.546;  647.840
374.485;  -12.403;   -8.755;  691.199
375.079;   -8.251;   -9.797;  738.685
375.674;   -6.528;   -6.327;  812.970
376.268;  -10.615;   -9.046;  691.759
376.863;  -16.392;   -7.993;  580.327
377.457;  -10.344;   -9.206;  662.490
378.052;  -11.749;   -5.345;  764.884
378.646;  -12.668;   -5.605;  741.167
379.240;  -12.588;   -6.825;  721.176
379.835;  -12.314;  -10.476;  636.978
380.429;  -13.808;   -8.676;  562.557
381.023;  -13.680;   -4.945;  779.205
381.617;  -15.886;   -8.094;  680.106
382.212;  -13.118;  -10.646;  685.303
382.806;  -11.299;   -8.136;  760.690
383.400;  -15.451;   -7.855;  672.281
383.994;  -15.774;   -8.125;  664.870
384.588;  -13.074;   -7.637;  697.701
385.182;  -10.613;   -7.458;  726.624
385.776;  -12.153;   -6.277;  706.875
386.370;  -15.934;   -7.485;  681.968
386.964;  -14.139;   -9.416;  684.155
387.558;  -12.565;   -8.518;  598.360
388.152;  -16.014;   -7.096;  681.959
388.745;  -13.697;   -7.656;  814.707
389.339;  -12.478;   -8.927;  747.642
389.933;  -11.037;   -9.538;  695.370
390.527;  -11.829;   -5.857;  859.029
391.120;  -18.701;   -9.455;  595.318
391.714;  -15.022;   -9.746;  711.633
392.308;  -12.057;   -7.857;  780.253
392.901;  -15.692;   -9.106;  642.460
393.495;  -17.318;  -10.365;  595.414
394.089;  -14.520;   -9.696;  760.452
394.682;  -16.518;   -7.016;  697.188
395.275;  -16.764;   -8.466;  719.927
395.869;  -17.356;   -8.985;  667.314
396.462;  -16.269;  -11.496;  616.609
397.056;  -11.545;   -7.838;  776.621
397.649;  -16.588;   -6.895;  731.575
398.242;  -13.704;   -5.017;  712.645
398.836;  -13.251;   -8.787;  766.408
399.429;  -14.527;   -8.967;  631.041
400.022;  -17.330;   -8.815;  665.902
400.615;  -14.130;   -6.276;  805.609
401.208;  -13.116;   -8.407;  691.451
401.802;  -14.982;   -7.296;  699.329
402.395;  -16.881;   -7.585;  683.502
402.988;  -17.249;   -8.015;  696.627
403.581;  -13.883;   -9.577;  646.878
404.174;  -11.900;   -7.588;  686.568
404.767;  -14.176;   -7.906;  638.583
405.360;  -16.828;   -7.875;  621.445
405.953;  -11.468;   -8.127;  759.034
406.545;  -10.595;   -7.198;  725.342
407.138;  -14.537;   -8.916;  618.350
407.731;  -13.597;   -9.767;  613.303
408.324;   -9.924;  -10.659;  660.554
408.917;  -10.376;   -8.068;  681.864
409.509;  -12.576;   -9.837;  740.396
410.102;  -13.856;   -8.146;  643.948
410.695;   -8.219;   -7.969;  665.758
411.287;   -8.643;   -8.579;  599.821
411.880;   -9.220;   -6.968;  585.421
412.472;  -12.515;   -9.487;  613.092
413.065;  -10.644;  -10.338;  629.408
413.657;   -8.485;   -9.169;  576.678
414.250;   -7.632;  -10.119;  646.681
414.842;   -9.462;   -9.938;  676.353
415.434;   -7.896;  -10.409;  570.463
416.027;   -3.699;   -9.591;  652.196
416.619;   -5.091;   -7.379;  713.400
417.211;   -6.155;   -9.159;  599.352
417.804;   -2.632;   -9.191;  628.499
418.396;   -6.355;   -8.159;  607.643
418.988;   -3.126;   -6.960;  659.238
419.580;   -7.451;  -11.389;  568.276
420.172;   -5.058;  -13.460;  536.196
420.764;   -0.280;  -10.701;  672.482
421.356;   -2.258;   -8.961;  636.898
421.948;   -2.560;   -9.770;  677.661
422.540;    2.144;   -8.832;  680.027
423.132;    1.733;   -8.153;  600.641
423.724;   -2.078;   -8.481;  561.267
424.316;    0.741;   -9.261;  621.345
424.908;    3.608;   -9.643;  591.517
425.500;    3.890;   -8.663;  647.978
426.092;    5.281;   -8.503;  648.268
426.683;    4.535;  -10.522;  684.836
427.275;    6.784;  -11.734;  641.471
427.867;    9.527;  -10.264;  668.948
428.458;    9.269;   -7.644;  732.344
429.050;    6.966;   -7.853;  680.749
429.642;    9.329;   -8.904;  743.124
430.233;   10.236;  -10.795;  569.356
430.825;   11.721;   -7.665;  724.809
431.416;    9.713;   -8.843;  698.241
432.008;   12.328;   -9.885;  651.723
432.599;   13.750;   -9.966;  656.073
433.190;   10.955;   -9.164;  637.670
433.782;    9.611;   -8.584;  590.395
434.373;   17.860;   -8.296;  884.765
434.964;   16.202;   -9.896;  602.920
435.556;   13.339;   -8.255;  634.537
436.147;   16.869;   -8.075;  758.490
436.738;   16.113;   -9.716;  701.099
437.329;   21.982;   -7.318;  721.723
437.920;   15.094;   -6.694;  666.688
438.511;   14.670;   -9.644;  564.526
439.103;   20.905;   -9.427;  623.998
439.694;   23.768;  -10.748;  681.583
440.285;   24.115;   -7.997;  764.432
440.876;   22.294;  -10.046;  845.738
441.466;   21.494;  -13.467;  575.162
442.057;   27.264;   -9.329;  665.814
442.648;   25.855;   -7.707;  746.255
443.239;   23.612;   -9.017;  620.477
443.830;   28.871;  -10.279;  704.958
444.421;   29.985;  -12.630;  655.474
445.011;   27.407;   -8.697;  693.619
445.602;   27.455;   -7.787;  743.126
446.193;   28.402;  -13.329;  488.117
446.783;   33.129;   -9.171;  640.397
447.374;   29.706;   -7.457;  692.759
447.964;   29.701;   -9.277;  713.770
448.555;   37.646;   -9.041;  822.742
449.145;   34.336;   -8.969;  662.853
449.736;   34.488;   -6.809;  803.179
450.326;   36.112;   -7.229;  713.626
450.917;   39.730;  -11.391;  675.324
451.507;   39.310;   -9.501;  600.661
452.097;   40.203;   -8.460;  746.267
452.688;   41.037;  -10.080;  742.160
453.278;   40.949;  -12.861;  566.840
453.868;   45.203;   -8.372;  793.550
454.458;   43.097;   -8.131;  651.141
455.048;   43.915;   -8.520;  711.783
455.639;   44.760;  -13.632;  567.096
456.229;   48.135;  -10.143;  710.694
456.819;   50.556;   -9.163;  751.158
457.409;   50.447;   -8.652;  773.993
457.999;   53.577;   -9.933;  737.505
458.589;   53.226;  -10.363;  686.606
459.179;   53.346;  -10.633;  717.658
459.769;   52.170;  -12.442;  627.099
460.358;   56.998;   -9.844;  797.262
460.948;   56.194;   -9.924;  689.503
461.538;   57.666;  -10.484;  660.677
462.128;   55.682;  -10.703;  664.934
462.717;   62.263;  -11.486;  710.326
463.307;   65.835;  -10.767;  705.846
463.897;   61.288;   -8.814;  656.942
464.486;   60.972;   -8.182;  837.128
465.076;   65.444;   -9.985;  733.776
465.666;   68.332;  -10.447;  652.900
466.255;   67.210;   -7.754;  785.651
466.845;   65.848;  -10.884;  666.749
467.434;   68.682;  -12.525;  725.873
468.023;   69.535;  -11.456;  658.357
468.613;   67.096;   -9.173;  713.946
469.202;   71.041;   -9.306;  646.507
469.791;   74.967;   -8.917;  737.811
470.381;   77.994;   -9.657;  742.813
470.970;   76.920;   -9.947;  711.099
471.559;   77.763;   -9.256;  733.291
472.148;   80.389;  -13.397;  675.737
472.738;   82.788;   -9.928;  765.466
473.327;   82.175;  -10.897;  637.529
473.916;   82.186;   -8.526;  737.446
474.505;   87.079;  -11.078;  751.703
475.094;   89.604;   -9.559;  806.570
475.683;   88.898;   -8.838;  797.699
476.272;   90.394;  -10.198;  730.632
476.861;   92.931;  -11.489;  706.754
477.449;   99.705;  -10.721;  728.487
478.038;   93.291;   -9.818;  692.513
478.627;   94.606;   -9.887;  714.852
479.216;  101.269;  -10.030;  769.441
479.805;  104.430;   -9.401;  783.375
480.393;  103.881;   -5.739; 1008.945
480.982;  102.289;   -7.838;  874.501
481.571;  109.851;   -9.111;  858.333
482.159;  110.122;  -10.601;  705.386
482.748;  110.520;   -8.500;  821.385
483.336;  114.762;   -9.241;  858.209
483.925;  115.593;  -10.440;  774.373
484.513;  122.694;  -11.063;  758.962
485.102;  118.821;   -9.540;  810.965
485.690;  128.410;   -6.742; 1011.050
486.278;  129.891;   -8.442;  979.329
486.867;  130.719;  -10.472;  809.662
487.455;  133.066;   -8.811;  898.229
488.043;  134.660;  -10.721;  748.361
488.631;  144.247;  -10.393; 1005.079
489.220;  147.859;  -10.843;  908.626
489.808;  148.381;  -10.572;  741.415
490.396;  157.486;  -10.482;  914.645
490.984;  163.208;  -11.542;  830.161
491.572;  174.571;   -8.463;  940.315
492.160;  183.043;   -8.491;  919.081
492.748;  195.541;   -9.681;  884.341
493.336;  221.226;  -10.493; 1019.693
493.924;  252.481;   -9.354;  958.077
494.512;  291.252;   -9.132; 1066.638
495.100;  333.695;   -9.001; 1103.280
495.687;  391.784;  -11.924; 1206.373
496.275;  476.625;  -11.193; 1150.796
496.863;  566.408;   -9.241; 1281.171
497.451;  678.484;  -11.341; 1386.805
498.038;  802.704;  -11.364; 1556.729
498.626;  920.323;   -8.104; 1741.407
499.214; 1140.060;   -8.842; 2016.609
499.801; 1430.251;  -10.112; 2220.633
500.389; 1664.475;  -11.953; 2312.494
500.976; 1873.896;  -10.023; 2744.849
501.564; 2158.553;   -8.662; 3148.565
502.151; 2594.178;  -10.531; 3515.999
502.738; 3095.413;  -13.853; 3971.274
503.326; 3633.451;  -10.794; 4403.796
503.913; 4247.133;   -8.663; 5161.749
504.500; 4816.479;  -10.172; 5986.420
505.088; 5772.199;  -13.472; 6381.201
505.675; 6487.599;  -10.924; 6925.547
506.262; 6763.400;   -8.551; 7619.060
506.849; 7543.827;  -10.523; 8733.969
507.436; 8583.041;  -10.834; 9790.121
508.023; 8822.798;   -9.093; 9985.472
508.610; 9157.211;  -10.073;10434.618
509.197;10391.568;   -9.500;11198.435
509.784;12377.590;  -13.242;12391.194
510.371;13252.583;  -10.964;13603.713
510.958;14117.176;   -9.772;14426.586
511.545;14740.849;   -7.842;15243.775
512.132;14843.569;  -12.184;15945.876
512.719;16452.777;   -9.733;16340.369
513.305;18973.652;   -9.172;18011.766
513.892;20063.467;   -9.581;19754.971
514.479;20911.791;  -10.253;20967.805
515.066;21253.285;   -8.183;22299.793
515.652;22128.918;   -9.253;22908.660
516.239;23595.426;   -9.412;23798.875
516.825;24685.379;  -11.153;25567.275
517.412;23713.592;  -10.263;28154.959
517.998;22809.904;   -8.802;28344.111
518.585;22550.100;  -10.401;27134.219
519.171;22050.609;  -12.744;27268.576
519.758;22364.748;  -11.793;28964.129
520.344;24812.889;   -8.912;30664.494
520.930;28167.629;  -10.901;32550.605
521.516;29467.307;  -12.034;35422.895
522.103;31936.389;  -10.473;38280.004
522.689;34547.586;   -8.311;37835.117
523.275;36425.363;  -10.691;37288.613
523.861;37325.035;  -11.193;37281.395
524.447;35128.645;  -11.484;37846.949
525.033;35378.723;   -7.702;38321.949
525.619;36027.977;  -11.241;38579.285
526.205;36365.508;  -12.152;40622.875
526.791;37355.945;  -11.423;42258.836
527.377;38008.992;   -7.981;42966.902
527.963;37666.855;   -9.450;42018.949
528.549;38122.797;  -11.351;42476.828
529.135;39309.297;  -10.202;41854.852
529.721;38776.012;   -8.672;41237.711
530.306;36584.262;   -9.111;41259.445
530.892;38662.094;  -11.252;41506.047
531.478;41448.031;  -10.432;43559.613
532.063;43225.797;  -10.721;47695.563
532.649;44779.797;   -7.450;50808.324
533.235;45752.004;  -11.811;51787.500
533.820;44988.215;   -9.383;52145.035
534.406;42314.188;   -9.400;51133.488
534.991;42494.414;   -8.861;49996.805
535.576;43883.145;  -10.612;48882.852
536.162;41290.820;   -7.322;46942.285
536.747;41205.238;   -9.360;45711.746
537.333;43794.246;  -10.450;48510.180
537.918;46778.922;  -12.610;50439.891
538.503;46922.039;  -12.132;50863.711
539.088;43938.625;  -10.831;50906.922
539.673;43940.379;  -11.220;52621.965
540.259;46038.949;  -11.481;52368.094
540.844;45750.148;  -11.462;50879.109
541.429;47068.516;   -7.869;52077.777
542.014;45241.238;  -11.859;52716.695
542.599;42564.199;  -11.061;52363.281
543.184;42482.910;  -12.300;53187.137
543.769;43815.949;   -9.369;54697.605
544.354;44185.531;  -12.020;53913.914
544.938;40180.711;  -10.350;49680.164
545.523;36776.223;  -10.841;47386.277
546.108;38193.930;   -8.579;49151.949
546.693;38130.180;   -8.818;51384.637
547.278;36828.965;  -11.331;51853.254
547.862;38303.953;  -10.292;51173.750
548.447;42520.219;   -8.349;51691.395
549.031;44676.477;  -10.838;52456.703
549.616;46883.699;  -11.681;52714.516
550.201;48439.617;  -11.140;52414.598
550.785;46305.125;   -8.649;52355.059
551.370;47774.426;  -11.889;54589.453
551.954;47918.730;  -11.239;58267.348
552.538;48891.547;   -8.850;59062.176
553.123;50534.863;  -10.829;58115.285
553.707;50926.855;   -8.887;56556.285
554.291;48237.801;  -10.430;56201.668
554.876;48094.012;   -9.799;55335.762
555.460;45355.824;  -10.018;54155.703
556.044;45454.207;   -7.307;53721.484
556.628;48174.012;  -12.229;53731.016
557.212;48706.754;   -9.820;54312.531
557.796;46883.055;   -9.109;53797.773
558.380;45174.324;   -9.707;56145.984
558.964;47839.664;  -10.980;57277.930
559.548;50468.961;  -12.010;56459.641
560.132;51054.098;   -7.928;54434.543
560.716;54076.414;  -10.247;54800.617
561.300;54002.730;  -11.250;57606.945
561.884;51820.070;  -10.568;58972.445
562.467;49143.738;   -9.727;57327.570
563.051;45687.734;  -11.847;54962.434
563.635;45417.840;  -10.747;52594.473
564.219;44063.453;  -13.108;50610.410
564.802;42768.309;  -11.417;49551.180
565.386;41572.273;  -10.457;48370.953
565.969;44972.738;   -8.959;48178.871
566.553;45991.063;  -10.328;49957.305
567.136;45578.980;  -10.257;50369.594
567.720;44173.918;  -10.186;49492.004
568.303;43550.902;  -10.027;50616.352
568.887;44556.391;  -10.397;50727.148
569.470;45954.172;   -8.185;51698.379
570.053;44009.188;  -11.596;52122.078
570.637;42111.980;  -11.378;52536.438
571.220;42090.164;   -9.138;51186.098
571.803;41443.012;   -7.675;51032.762
572.386;40728.906;   -8.976;49609.887
572.969;41605.129;  -12.477;48285.926
573.552;41055.602;   -9.767;47624.285
574.135;38848.023;   -8.175;45498.641
574.718;34678.539;  -11.096;41970.434
575.301;34363.613;  -11.966;41447.137
575.884;34048.691;  -12.836;40923.836
576.467;39505.605;   -9.116;45267.723
577.050;41366.996;  -10.536;48175.543
577.633;39991.434;  -11.027;47729.328
578.216;39182.402;   -9.946;47579.793
578.799;39890.520;   -9.645;47820.996
579.381;38975.891;   -9.446;48115.551
579.964;38542.617;  -12.217;47333.766
580.547;38897.273;  -10.586;46668.969
581.129;38906.105;   -8.374;44466.141
581.712;38388.875;  -10.434;44164.922
582.294;37823.801;  -10.896;46477.855
582.877;38742.813;   -8.906;48244.254
583.459;38826.660;   -9.994;47437.895
584.042;37683.684;  -10.084;46943.219
584.624;36108.953;  -13.534;46792.227
585.206;36447.410;  -12.716;46557.250
585.789;36914.891;  -11.614;45793.773
586.371;36495.352;  -10.203;43836.391
586.953;35090.367;  -10.314;42972.492
587.536;33792.070;   -9.776;42487.211
588.118;34051.059;   -9.821;42086.414
588.700;35055.863;  -10.073;43389.930
589.282;36824.910;  -12.395;43646.039
589.864;37464.434;  -11.514;43438.109
590.446;37985.383;  -10.803;43151.926
591.028;39023.215;  -11.043;42781.867
591.610;37903.074;  -13.244;42839.098
592.192;35316.375;  -11.095;42820.402
592.774;33100.117;  -10.823;40724.277
593.356;32838.270;  -11.052;39874.789
593.937;34043.785;  -11.664;39980.648
594.519;35396.215;  -10.454;42069.633
595.101;35513.539;  -10.322;42976.031
595.683;34554.441;  -10.042;44084.441
596.264;34049.082;  -14.334;43478.797
596.846;34839.328;  -10.863;43803.672
597.427;35276.742;   -9.901;42986.934
598.009;34669.340;  -10.911;42832.219
598.591;33588.605;  -10.483;42580.086
599.172;32802.016;   -9.663;43061.805
599.753;32975.371;  -10.631;41691.469
600.335;33383.426;   -9.371;40692.520
600.916;35598.461;  -13.992;39982.422
601.498;36808.051;   -8.352;40318.617
602.079;35322.566;   -8.411;40670.609
602.660;37936.031;  -10.841;41450.898
603.241;37557.477;  -12.963;41137.738
603.823;34009.512;  -11.523;38868.797
604.404;31797.605;  -11.881;38182.785
604.985;33334.215;  -11.721;38078.047
605.566;33970.027;   -9.293;38056.633
606.147;32781.719;  -10.940;37020.418
606.728;31952.080;  -11.840;37883.359
607.309;30944.279;  -11.781;38748.273
607.890;30515.816;  -11.262;38850.230
608.471;29436.252;  -10.111;37457.918
609.051;29769.846;   -7.709;36066.457
609.632;30219.977;  -12.409;35991.074
610.213;28596.311;  -10.811;37402.641
610.794;28513.350;  -11.630;38383.363
611.374;29790.779;   -8.030;40562.387
611.955;31050.092;  -10.809;38533.727
612.536;32629.600;  -10.531;36951.789
613.116;33072.516;  -12.820;37197.891
613.697;32791.711;  -11.419;38411.125
614.277;31664.453;   -9.768;38673.938
614.858;29977.656;  -10.251;37075.863
615.438;26758.090;  -11.981;35092.906
616.019;26543.664;   -8.978;33666.301
616.599;29230.566;  -12.219;34189.023
617.179;31730.236;  -14.170;36952.047
617.760;33618.520;   -9.211;39582.574
618.340;33798.418;   -9.018;38943.977
618.920;32122.875;   -9.249;37594.156
619.500;32958.059;  -12.728;37866.938
620.080;34784.680;  -12.939;37869.043
620.660;33227.492;  -11.586;36868.617
621.241;32430.855;  -11.538;36352.309
621.821;32674.318;  -11.398;35459.520
622.401;33871.789;  -10.179;35207.414
622.980;32930.379;  -11.587;35980.422
623.560;31790.270;  -12.888;37351.328
624.140;29838.330;  -13.149;34388.582
624.720;25440.605;   -9.928;32368.764
625.300;25345.607;  -10.869;32638.629
625.880;29248.014;   -8.617;34599.035
626.459;33160.250;  -12.138;36831.738
627.039;33873.672;  -12.267;38299.098
627.619;33819.277;   -7.476;38289.574
628.198;34608.574;  -11.347;37220.695
628.778;33432.758;  -11.678;37632.563
629.357;30985.061;  -12.438;38003.012
629.937;29437.441;   -9.576;38402.039
630.516;28458.131;  -11.096;37868.801
631.096;28572.768;  -11.828;35760.410
631.675;29408.686;  -11.565;35225.219
632.254;30034.619;  -11.845;35130.289
632.834;30956.775;  -11.545;35794.570
633.413;32253.900;  -10.887;35788.922
633.992;33582.117;  -10.175;34532.863
634.571;32563.799;   -9.704;33590.113
635.151;30479.742;  -10.815;34943.863
635.730;30668.678;  -11.617;35352.523
636.309;30951.584;  -10.836;35366.605
636.888;31864.705;   -9.755;36165.637
637.467;32591.461;  -11.684;37515.902
638.046;34816.230;  -11.987;39288.695
638.625;35212.844;  -10.455;38279.699
639.204;33449.574;  -11.234;37741.598
639.782;30172.613;  -12.023;38364.551
640.361;29515.254;  -11.506;36740.621
640.940;29501.066;  -12.316;34950.082
641.519;30450.297;  -11.616;34137.398
642.097;33349.004;   -9.266;35654.258
642.676;33769.059;  -12.936;35637.957
643.255;33387.664;   -9.966;36567.074
643.833;33469.551;   -8.916;37809.434
644.412;34890.137;  -10.936;37337.293
644.990;36434.496;  -12.176;37018.531
645.569;35855.477;  -12.246;36518.469
646.147;35005.508;  -12.107;36186.430
646.726;34917.906;  -12.937;36267.688
647.304;38046.738;  -12.547;36647.625
647.882;38026.523;  -12.597;39286.742
648.461;35585.332;   -9.427;39157.703
649.039;33146.824;   -8.937;35412.883
649.617;32187.768;  -11.067;34744.918
650.195;32102.688;  -10.657;35403.098
650.773;31048.682;  -10.097;35053.797
651.352;28780.975;  -11.887;33756.816
651.930;25003.947;  -13.557;31868.773
652.508;22648.766;  -11.767;33121.551
653.086;23350.869;  -10.777;33564.793
653.663;27705.512;  -12.067;34054.668
654.241;30789.705;  -14.918;35693.309
654.819;30978.352;  -11.788;36422.906
655.397;30291.648;  -11.268;38213.484
655.975;31348.770;  -11.738;39507.625
656.553;31167.330;  -11.018;39498.223
657.130;29983.201;  -12.848;40395.480
657.708;29276.525;  -10.098;39242.020
658.286;29471.432;  -11.678;38920.020
658.863;30401.320;  -11.498;40202.898
659.441;31380.582;  -11.008;39677.938
660.018;32317.340;  -11.048;40413.355
660.596;31986.881;  -12.058;39931.414
661.173;31955.363;  -14.158;39604.531
661.750;31751.342;  -12.298;39700.070
662.328;31361.922;  -10.699;39292.809
662.905;29910.330;  -12.119;38235.648
663.482;26183.814;  -11.829;36212.305
664.060;24956.936;  -11.009;35944.945
664.637;27610.688;  -10.369;35170.785
665.214;28463.445;  -10.459;34197.523
665.791;27140.359;  -12.599;34549.520
666.368;26685.018;  -12.919;35118.578
666.945;28316.086;  -10.699;36019.418
667.522;28868.305;  -11.359;36048.438
668.099;29133.424;  -13.529;36243.914
668.676;29953.844;  -10.229;35958.875
669.253;29838.488;   -9.279;37384.730
669.830;29946.939;  -11.370;36779.629
670.407;31386.381;  -10.950;35231.289
670.984;31990.883;  -12.850;35544.270
671.560;31810.670;   -8.440;35466.867
672.137;30167.332;  -13.520;34280.863
672.714;28642.389;  -13.620;34632.863
673.290;28329.361;  -10.450;35135.422
673.867;27218.900;  -10.960;36114.480
674.443;26228.398;  -13.300;36152.859
675.020;26797.066;  -12.370;35327.238
675.596;26751.994;  -11.250;35795.176
676.173;27302.223;  -11.080;35430.355
676.749;27982.498;  -13.220;33549.516
677.326;30904.367;  -13.000;32210.012
677.902;31563.482;  -12.701;32068.871
678.478;30780.930;  -12.801;32583.891
679.054;30084.197;   -8.601;32088.928
679.631;31594.234;  -12.631;30978.848
680.207;31609.402;   -9.451;33160.887
680.783;30069.246;  -11.701;35570.363
681.359;29917.486;  -12.701;36125.184
681.935;28579.555;  -13.271;35240.922
682.511;27488.920;  -10.791;34429.961
683.087;28626.291;  -10.791;34463.680
683.663;29347.402;   -8.121;34648.898
684.239;30831.947;  -13.261;34546.457
684.815;29073.748;  -10.581;35586.375
685.390;26439.107;   -9.961;35821.895
685.966;25492.506;  -11.182;35085.871
686.542;25313.930;  -13.512;34198.230
687.118;26105.111;  -11.472;32847.707
687.693;26181.801;  -10.152;32794.027
688.269;27914.309;  -14.442;33072.367
688.844;29210.191;  -11.852;33141.664
689.420;27342.143;  -13.942;33965.742
689.995;25926.590;   -9.702;34655.523
690.571;25926.121;  -11.312;33576.742
691.146;25769.904;  -14.332;32657.219
691.722;27748.012;  -11.192;32526.979
692.297;29068.412;  -10.962;33014.617
692.872;27748.623;  -11.082;34012.254
693.448;27261.260;  -14.732;34237.434
694.023;27274.641;  -12.363;34142.672
694.598;27539.188;  -12.393;34132.031
695.173;27002.393;  -11.023;34205.250
695.748;27133.432;  -12.743;32882.488
696.323;28743.988;  -11.103;32864.906
696.898;29827.283;   -8.123;33170.004
697.473;29472.813;  -12.603;32432.984
698.048;28203.729;  -12.553;31649.303
698.623;29027.010;  -12.573;30778.141
699.198;30845.328;  -12.743;31140.119
699.773;28624.416;  -12.843;31764.299
700.348;28049.916;  -16.683;31780.816
700.922;28887.443;  -11.403;32046.375
701.497;29518.416;  -11.253;32603.574
702.072;29171.395;  -10.044;34799.871
702.646;27493.385;  -13.054;35793.172
703.221;26268.273;  -11.414;35201.590
703.795;27103.998;  -10.644;34764.527
704.370;28185.488;  -13.484;34307.367
704.944;27793.104;  -12.144;33509.887
705.519;27058.363;  -12.024;31388.584
706.093;26125.898;  -11.234;31340.104
706.668;24772.449;   -9.874;32630.281
707.242;24651.197;  -12.404;32728.779
707.816;24333.279;  -10.644;32947.238
708.390;24648.477;  -11.174;33277.855
708.965;25903.477;  -10.324;33834.336
709.539;25532.943;  -12.014;33709.273
710.113;25486.869;  -12.295;33044.313
710.687;26155.131;  -10.965;31953.992
711.261;26596.096;  -13.685;30505.949
711.835;25846.707;  -15.335;30262.369
712.409;25561.109;  -13.785;31254.447
712.983;26915.363;  -10.525;32754.986
713.557;28138.982;  -13.175;34018.824
714.131;28850.957;  -13.245;34579.625
714.704;29834.941;  -13.175;33890.262
715.278;30433.391;  -11.545;33531.102
715.852;28907.705;  -10.975;33601.660
716.425;28320.176;  -10.075;33515.117
716.999;28133.561;  -12.185;33185.555
717.573;28940.738;   -9.685;33905.996
718.146;29977.084;  -10.516;35199.293
718.720;26519.766;  -12.106;35060.551
719.293;26354.477;  -12.386;34973.230
719.867;28220.975;  -12.456;36394.449
720.440;27502.742;  -10.686;36663.008
721.013;27697.838;  -12.596;35102.426
721.587;28194.402;  -13.956;33985.266
722.160;27781.348;   -9.806;33524.965
722.733;28453.600;  -11.676;32987.043
723.306;28441.090;  -14.276;33066.301
723.880;28305.883;  -12.126;33399.500
724.453;28790.295;  -10.156;33468.297
725.026;27648.498;  -12.956;33816.637
725.599;26112.590;  -11.676;32797.996
726.172;25680.371;  -12.337;33187.434
726.745;27037.203;  -11.277;35136.613
727.318;26112.340;  -11.927;35751.730
727.891;25067.258;  -13.607;35890.430
728.463;25236.436;  -11.327;34822.090
729.036;25272.146;  -11.917;32895.086
729.609;26347.029;  -12.697;31823.225
730.182;27362.447;  -11.787;31445.283
730.754;28168.803;  -12.957;32373.223
731.327;28638.832;  -11.017;33676.820
731.900;27176.781;  -12.797;33417.000
732.472;25247.930;  -10.677;31978.498
733.045;24766.182;  -12.797;30368.777
733.617;25042.357;  -13.908;30574.215
734.190;24855.195;  -12.258;31280.975
734.762;25793.795;  -13.438;31674.412
735.334;25699.365;  -11.758;31247.291
735.907;25739.873;  -11.158;29876.211
736.479;26717.141;  -11.258;29808.488
737.051;28434.010;  -10.918;30233.547
737.623;29599.678;  -11.038;31469.086
738.195;28791.730;  -12.188;31784.225
738.768;26029.439;  -11.378;32120.523
739.340;25608.854;  -12.598;32094.342
739.912;26430.951;  -11.568;31312.680
740.484;26107.678;   -9.348;31946.238
741.056;25423.086;  -12.628;32984.059
741.628;25783.121;  -13.349;33897.715
742.199;26162.107;  -11.309;33213.016
742.771;26878.080;  -12.699;31369.113
743.343;28436.307;  -11.919;31865.473
743.915;28399.264;  -11.679;32388.631
744.487;26940.904;  -12.249;31079.568
745.058;25555.713;  -11.119;30570.107
745.630;24406.350;   -9.439;29970.127
746.201;24087.846;  -11.949;29186.766
746.773;23589.631;  -12.639;28805.723
747.344;22975.641;  -11.039;29591.223
747.916;22133.783;  -12.549;31412.201
748.487;21461.535;  -12.659;32194.898
749.059;21679.107;  -13.059;32533.719
749.630;22298.102;  -12.080;32158.518
750.201;21356.445;  -13.100;30855.395
750.773;20237.959;  -15.310;28622.555
751.344;20367.172;  -12.240;28405.732
751.915;20665.379;  -11.960;28461.551
752.486;20838.414;  -13.200;27842.850
753.057;20316.691;  -15.230;27845.008
753.628;19653.961;  -13.130;27728.107
754.199;19714.193;  -12.720;27381.086
754.770;19702.461;  -10.680;25882.203
755.341;19814.332;  -11.010;25886.184
755.912;19107.834;  -12.990;26050.861
756.483;18115.365;  -11.110;26798.779
757.054;17717.150;  -12.190;27048.238
757.625;17819.930;  -13.981;26294.838
758.195;18292.260;  -11.041;26142.076
758.766;19650.563;  -11.861;26392.234
759.337;20243.953;  -11.461;26334.594
759.907;20268.746;  -15.001;27579.652
760.478;19987.762;   -9.681;28352.770
761.048;19391.910;  -12.421;27325.088
761.619;18567.324;  -11.761;26460.428
762.189;17376.387;  -12.391;26029.826
762.760;17305.744;  -10.201;26430.145
763.330;18475.484;  -10.811;26670.902
763.900;20501.758;  -10.261;26603.021
764.471;19674.627;  -13.061;25542.740
765.041;18719.445;  -11.051;24358.459
765.611;18771.240;  -11.032;23991.297
766.181;18548.635;  -10.532;24470.236
766.751;18134.248;  -13.502;24845.975
767.321;18012.508;  -11.392;24533.633
767.891;18312.133;  -11.522;24916.492
768.461;19028.486;  -13.672;24776.771
769.031;18568.916;  -14.652;24757.988
769.601;17322.928;  -10.182;24181.088
770.171;15483.271;  -11.752;23670.387
770.741;14768.753;  -12.272;22960.045
771.311;15039.649;  -13.112;22917.523
771.880;15175.330;  -14.122;23562.941
772.450;16405.797;  -11.782;24216.500
773.020;17495.727;  -12.642;24140.398
773.589;16325.682;  -13.043;24414.857
774.159;14449.451;  -11.783;23858.717
774.729;14063.591;  -13.473;22942.135
775.298;15489.823;  -14.523;22324.033
775.867;16357.930;  -12.013;21140.313
776.437;15428.286;  -12.113;20838.092
777.006;13962.887;  -13.543;20599.510
777.576;12483.819;  -12.523;20508.809
778.145;12632.151;  -12.173;20732.947
778.714;13783.536;  -12.153;21062.465
779.283;14203.201;  -11.833;20949.664
779.853;14569.355;  -13.483;20508.623
780.422;14945.458;  -12.933;20649.082
780.991;14216.365;  -13.173;21527.520
781.560;12869.523;  -10.224;22632.658
782.129;12765.495;  -12.684;23048.277
782.698;14050.498;  -11.284;23438.555
783.267;14857.770;  -11.684;23267.734
783.836;13844.856;  -10.974;22415.133
784.404;12823.052;  -13.534;20443.152
784.973;12923.904;  -16.734;19699.150
785.542;12882.857;  -12.594;19763.828
786.111;12520.319;  -11.644;20341.408
786.679;13031.147;  -11.384;20207.967
787.248;13639.566;  -12.014;19516.465
787.817;12623.476;  -12.804;18900.363
788.385;11479.500;  -11.994;17879.121
788.954;11486.793;  -12.564;17658.301
789.522;12503.265;  -12.225;17788.879
790.090;12521.517;  -13.775;18118.277
790.659;11709.846;  -12.485;18338.736
791.227;11518.117;  -12.295;18508.615
791.795;11684.196;  -13.415;17898.254
792.364;11262.261;  -12.995;17295.133
792.932;10925.626;   -8.365;16822.051
793.500;11021.032;  -11.925;17040.148
794.068;11087.735;  -13.245;17179.787
794.636;10920.557;  -13.815;16664.246
795.204;10401.527;  -13.375;16524.545
795.772;10522.973;  -12.125;17274.564
796.340;10958.088;  -13.855;17891.002
796.908;11064.242;  -13.456;17648.561
797.476;10489.259;  -13.116;17064.080
798.044;10183.350;  -13.226;16672.777
798.612;10902.625;  -11.236;17023.996
799.180;11695.927;  -10.476;16561.615
799.747;11685.932;  -11.746;15962.773
800.315;10821.289;  -12.366;15296.992
800.883;10041.297;  -14.616;14801.771
801.450; 9957.064;  -11.996;14534.430
802.018;10454.014;  -11.206;14173.248
802.585; 9660.506;  -12.466;14029.547
803.153; 8618.658;  -12.846;13836.846
803.720; 8401.370;  -12.136;13567.324
804.287; 8625.542;  -10.966;13360.622
804.855; 9097.691;   -9.797;13681.981
805.422; 8948.307;  -13.037;13536.560
805.989; 8641.651;  -12.697;13355.958
806.556; 8843.138;  -11.737;13747.896
807.124; 9171.781;  -11.997;13987.376
807.691; 8739.787;  -13.997;14038.674
808.258; 8654.222;  -10.927;14120.152
808.825; 9192.991;  -13.727;13860.111
809.392; 9528.734;  -11.847;13268.790
809.959; 8746.974;  -14.217;12680.389
810.526; 7939.900;   -8.277;12427.308
811.093; 7873.782;   -9.647;12030.105
811.659; 7720.151;  -10.987;11653.664
812.226; 7242.256;  -13.447;11637.183
812.793; 7382.002;  -14.418;11611.521
813.360; 7806.879;  -13.908;11885.181
813.926; 7857.004;  -12.918;12770.539
814.493; 7827.713;  -14.888;12677.638
815.060; 7896.834;  -12.758;11974.336
815.626; 8154.637;  -13.478;11594.715
816.193; 8108.202;  -13.898;11579.474
816.759; 7777.755;  -13.588;11666.972
817.325; 7639.333;  -12.018;11325.530
817.892; 7121.597;  -14.068;11105.369
818.458; 6531.865;  -13.458;10843.928
819.024; 6334.974;  -11.968;10714.406
819.591; 6059.483;  -11.028;10469.165
820.157; 5821.708;  -12.088;10235.523
820.723; 5692.487;  -12.599;10847.563
821.289; 5980.107;  -10.419;11040.980
821.855; 6703.294;  -10.939;10357.100
822.421; 7207.708;  -12.539; 9978.918
822.987; 7028.579;  -13.259; 9754.177
823.553; 6437.217;  -15.369;10065.755
824.119; 6180.853;  -10.779;10036.294
824.685; 5743.571;   -9.999;10029.192
825.251; 5392.272;  -11.819;10199.230
825.816; 5184.404;  -13.369; 9820.189
826.382; 5333.721;  -12.679; 9297.248
826.948; 5483.851;  -11.199; 9381.347
827.513; 5332.517;  -11.179; 9450.726
828.079; 5333.838;  -13.489; 9472.444
828.645; 5615.410;  -12.500; 9292.643
829.210; 5801.620;  -15.120; 9065.341
829.776; 5655.147;  -12.590; 9132.620
830.341; 5523.091;  -11.540; 9092.878
830.906; 5607.988;  -12.400; 9078.557
831.472; 5506.962;  -12.720; 8534.535
832.037; 5003.177;  -11.490; 8677.874
832.602; 4546.277;  -14.380; 8628.692
833.167; 4743.709;  -12.780; 8879.031
833.733; 5028.981;  -11.100; 9189.790
834.298; 5282.824;  -12.080; 9052.608
834.863; 5155.685;  -13.910; 8895.087
835.428; 4871.540;  -13.470; 8824.266
835.993; 5177.792;  -11.760; 8845.385
836.558; 5622.000;  -12.731; 8888.563
837.123; 5668.447;  -12.431; 8966.582
837.688; 5376.455;  -11.241; 8617.860
838.253; 5040.149;  -13.681; 8590.699
838.817; 4867.497;  -12.531; 8443.797
839.382; 5101.060;  -12.671; 8799.356
839.947; 5041.019;  -11.541; 8810.595
840.511; 4842.620;  -12.021; 8796.394
841.076; 4771.963;  -13.071; 8347.231
841.641; 4609.558;  -11.411; 8224.330
842.205; 4481.277;  -13.671; 8223.349
842.770; 4535.545;  -11.291; 8622.107
843.334; 4633.166;  -12.951; 8410.386
843.898; 4641.028;  -11.221; 8337.465
844.463; 4547.394;  -11.322; 8506.283
845.027; 4264.895;  -11.412; 8280.962
845.591; 4037.095;  -11.512; 8231.141
846.156; 4236.289;  -14.042; 7969.179
846.720; 4482.751;  -12.152; 7768.278
847.284; 4476.442;  -10.922; 7630.957
847.848; 4191.969;  -10.962; 7472.395
848.412; 3877.938;  -14.612; 7437.394
848.976; 3908.166;  -11.492; 7674.592
849.540; 3964.372;   -9.172; 7836.011
850.104; 4328.149;  -11.232; 7913.669
850.668; 4606.773;  -15.182; 7694.508
851.232; 4260.825;  -15.332; 7756.887
851.796; 4072.968;  -13.703; 7926.545
852.359; 4161.650;  -11.113; 7827.844
852.923; 4017.125;  -11.843; 7641.163
853.487; 3814.701;  -11.173; 7342.501
854.050; 3625.838;  -13.443; 7042.820
854.614; 3544.118;  -13.823; 7151.338
855.177; 3671.608;  -16.393; 7105.077
855.741; 3784.856;  -11.693; 6989.675
856.304; 3771.192;  -10.843; 6596.634
856.868; 3676.767;  -13.783; 6356.272
857.431; 3460.925;  -11.953; 6468.571
857.995; 3331.896;  -13.683; 6373.210
858.558; 3289.487;  -11.433; 6324.448
859.121; 3254.231;  -12.493; 6408.327
859.684; 3328.367;  -12.384; 6347.886
860.247; 3358.427;  -14.774; 6321.264
860.810; 3185.798;  -13.154; 6301.903
861.374; 3046.775;  -11.264; 6607.881
861.937; 2995.938;  -15.424; 6408.200
862.500; 3036.885;  -12.854; 6572.639
863.062; 3093.235;  -12.344; 6387.297
863.625; 3109.154;  -13.314; 6190.836
864.188; 2966.421;  -14.724; 5807.254
864.751; 2897.481;  -13.464; 5682.413
865.314; 2867.176;  -11.684; 5547.492
865.876; 2856.281;  -11.104; 5500.150
866.439; 2840.021;  -12.344; 5415.909
867.002; 2647.154;  -13.494; 5501.567
867.564; 2382.277;  -10.935; 5413.946
868.127; 2045.580;  -12.665; 5160.325
868.689; 1775.057;  -14.515; 5133.183
869.252; 1698.786;  -13.425; 5252.382
869.814; 1773.749;  -11.595; 5297.141
870.377; 1933.855;  -12.175; 5390.919
870.939; 2038.879;  -10.265; 5599.898
871.501; 2087.677;  -12.375; 5248.336
872.063; 2089.372;  -14.355; 4854.235
872.626; 2080.037;  -14.435; 4817.074
873.188; 2010.296;  -12.415; 4987.732
873.750; 2003.403;  -14.555; 4868.651
874.312; 2078.883;  -11.185; 4779.330
874.874; 2102.805;  -12.715; 4866.348
875.436; 2031.230;  -13.196; 4718.887
875.998; 1939.955;  -11.426; 4660.005
876.560; 1878.043;   -9.786; 4462.964
877.122; 1853.988;  -12.796; 4145.042
877.683; 1780.343;  -13.226; 4056.481
878.245; 1653.695;  -12.036; 3950.740
878.807; 1553.101;  -11.536; 4058.958
879.369; 1587.197;  -10.806; 3954.677
879.930; 1735.978;  -13.946; 3941.495
880.492; 1793.863;  -11.876; 4067.014
881.053; 1647.960;  -13.216; 3859.633
881.615; 1545.120;  -12.226; 3776.071
882.176; 1493.835;  -12.946; 3734.750
882.738; 1482.046;  -10.736; 3678.489
883.299; 1441.428;  -12.057; 3405.407
883.860; 1358.529;  -12.677; 3351.106
884.422; 1309.161;  -14.097; 3394.044
884.983; 1258.974;  -13.667; 3166.443
885.544; 1205.006;  -10.717; 3189.802
886.105; 1144.374;  -14.357; 3160.360
886.666; 1080.895;  -14.287; 3093.059
887.227; 1016.475;  -14.297; 2941.957
887.788;  966.585;  -13.137; 2974.836
888.349;  905.065;  -14.637; 2721.214
888.910;  859.655;  -12.247; 2696.493
889.471;  860.634;  -10.577; 2560.172
890.032;  868.816;  -12.937; 2558.190
890.593;  871.373;  -12.487; 2567.669
891.153;  849.192;  -11.898; 2460.307
891.714;  816.720;  -14.278; 2372.046
892.275;  792.193;  -13.308; 2309.505
892.835;  729.422;  -12.058; 2382.543
893.396;  649.770;  -15.268; 2295.502
893.956;  606.889;  -13.278; 2162.420
894.517;  588.430;  -11.968; 2125.439
895.077;  588.430;  -12.798; 2086.978
895.638;  564.707;  -11.908; 2126.316
896.198;  537.881;  -13.288; 1838.275
896.758;  515.771;  -12.198; 1892.813
897.319;  490.677;  -13.048; 1792.232
897.879;  457.900;  -13.718; 1762.751
898.439;  416.766;  -14.138; 1661.149
898.999;  390.320;  -13.659; 1781.468
899.559;  378.875;  -14.699; 1703.347
900.119;  360.805;  -14.339; 1537.525
900.679;  338.667;  -11.789; 1638.384
901.239;  311.795;  -13.629; 1527.902
901.799;  291.479;  -13.679; 1456.441
902.359;  281.551;  -13.679; 1357.140
902.919;  273.445;  -14.159; 1331.118
903.479;  259.508;  -13.419; 1317.257
904.038;  243.144;  -14.899; 1262.595
904.598;  230.278;  -14.339; 1152.034
905.158;  220.688;  -13.959; 1240.893
905.717;  216.485;  -12.749; 1233.691
906.277;  212.111;  -11.889; 1217.330
906.836;  205.748;  -12.870; 1222.408
907.396;  199.208;  -11.790; 1193.047
907.955;  191.693;  -13.750; 1182.526
908.515;  182.868;  -14.760; 1099.364
909.074;  178.617;  -12.540; 1092.863
909.633;  173.446;  -12.120; 1069.121
910.192;  169.186;  -12.550; 1196.460
910.752;  163.224;  -12.760; 1029.960
911.311;  159.874;  -14.750; 1009.780
911.870;  158.400;  -13.860;  971.460
912.429;  158.375;  -13.480; 1094.080
912.988;  158.584;  -12.370; 1081.060
913.547;  154.080;  -14.670;  940.380
914.106;  152.863;  -12.800;  999.420
914.665;  151.366;  -11.370;  984.020
915.224;  148.079;  -11.430; 1035.760
915.782;  145.957;  -12.260;  922.560
916.341;  144.758;  -12.540; 1049.840
916.900;  141.676;  -12.540;  925.260
917.458;  139.383;  -13.480;  884.220
918.017;  139.978;  -12.470;  942.600
918.576;  139.941;  -13.450;  904.440
919.134;  138.435;  -12.890;  837.980
919.693;  137.145;  -15.480;  893.060
920.251;  136.095;  -14.420;  876.500
920.809;  134.826;  -12.170;  839.580
921.368;  134.234;  -13.650;  885.360
921.926;  132.115;  -12.750;  842.940
922.484;  131.377;  -14.150;  903.360
923.042;  132.250;  -15.100;  880.340
923.601;  134.158;  -10.990;  998.680
924.159;  136.666;  -12.470;  935.560
924.717;  137.055;  -15.640;  841.080
925.275;  136.318;  -12.380;  903.240
925.833;  131.978;  -12.710;  779.320
926.391;  130.678;  -11.200;  938.380
926.949;  129.510;  -16.000;  857.680
927.506;  131.029;  -12.260;  903.500
928.064;  135.274;  -11.300;  877.580
928.622;  136.066;  -13.750;  880.100
929.180;  136.489;  -15.290;  814.180
929.737;  137.018;  -14.500;  808.540
930.295;  140.072;  -10.630;  928.480
930.853;  142.103;  -14.590;  849.100
931.410;  143.216;  -14.450;  821.120
931.968;  145.385;  -14.390;  940.660
932.525;  147.332;  -13.050;  909.380
933.082;  151.405;  -15.620;  811.440
933.640;  159.677;  -15.650;  925.900
934.197;  163.916;  -13.610;  886.360
934.754;  166.271;  -13.320;  897.780
935.312;  166.558;  -13.370;  863.340
935.869;  169.711;  -12.780; 1012.980
936.426;  170.717;  -14.480;  872.800
936.983;  173.837;  -13.180;  889.020
937.540;  173.992;  -15.710;  838.280
938.097;  173.352;  -14.980;  940.120
938.654;  171.579;  -13.060;  898.860
939.211;  170.678;  -12.760;  952.480
939.768;  172.447;  -16.230;  915.420
940.324;  175.806;  -10.940;  904.200
940.881;  180.732;  -12.570;  878.500
941.438;  183.264;  -13.650; 1021.200
941.995;  179.622;  -13.300;  992.560
942.551;  178.438;  -15.800;  875.620
943.108;  176.606;  -14.180;  937.920
943.664;  170.792;  -13.890;  869.340
944.221;  170.435;  -12.640; 1088.140
944.777;  169.299;  -14.700;  869.680
945.334;  174.545;  -13.010;  884.840
945.890;  174.302;  -13.480;  946.480
946.446;  172.234;  -14.920;  947.020
947.003;  173.304;  -13.860;  964.940
947.559;  174.093;  -12.000; 1063.040
948.115;  170.459;  -10.510; 1026.540
948.671;  169.128;  -12.760;  967.300
949.227;  167.341;  -15.390;  859.560
949.783;  163.889;  -15.570;  858.900
950.339;  163.069;  -12.800;  991.000
950.895;  159.950;  -13.780; 1023.840
951.451;  157.250;  -13.810;  925.280
952.007;  156.243;  -12.390;  998.540
952.563;  152.019;  -11.980;  937.780
953.118;  151.054;  -14.070;  904.940
953.674;  149.923;  -14.140;  935.780
954.230;  149.892;  -12.680;  949.640
954.785;  151.276;  -12.770;  936.640
955.341;  152.618;  -11.450;  998.160
955.897;  147.810;  -15.350;  834.660
956.452;  146.505;  -14.200;  953.840
957.008;  145.841;  -10.820; 1083.640
957.563;  142.365;  -13.200; 1009.540
958.118;  137.145;  -14.460;  877.700
958.674;  138.871;  -13.840;  946.780
959.229;  141.101;  -10.670; 1013.980
959.784;  141.141;  -17.040;  832.400
960.339;  142.969;  -12.970; 1001.280
960.894;  143.726;  -12.700;  963.760
961.449;  141.882;  -13.790;  859.960
962.004;  146.638;  -11.760; 1212.840
962.559;  144.765;  -14.840;  860.140
963.114;  144.035;  -14.530;  742.480
963.669;  145.697;  -12.780;  915.500
964.224;  143.012;  -14.330;  874.340
964.779;  139.219;  -14.380;  828.420
965.334;  135.070;  -12.460; 1017.860
965.888;  132.206;  -13.490;  875.360
966.443;  131.773;  -14.140;  972.380
966.998;  129.104;  -16.240;  819.460
967.552;  127.199;  -12.730;  908.380
968.107;  124.342;  -14.510;  868.300
968.661;  125.151;  -11.850;  922.440
969.216;  124.445;  -14.370;  856.280
969.770;  122.453;  -13.010;  917.200
970.324;  120.386;  -12.460;  923.140
970.879;  119.108;  -11.580;  947.180
971.433;  119.258;  -13.130;  952.720
971.987;  116.970;  -12.360;  895.340
972.541;  116.660;  -14.330;  917.100
973.095;  116.813;  -13.310; 1009.460
973.649;  115.931;  -15.830;  809.480
974.203;  117.537;  -15.830;  829.040
974.757;  119.487;  -13.480;  855.220
975.311;  119.197;  -13.720;  872.600
975.865;  116.989;  -15.780;  881.820
976.419;  112.969;  -14.290;  857.400
976.973;  110.924;  -13.210;  849.620
977.526;  110.139;  -12.300;  949.920
978.080;  106.376;  -14.840;  796.780
978.634;  106.100;  -13.100;  921.320
979.187;  102.668;  -12.300;  905.400
979.741;  100.941;  -12.020; 1018.380
980.294;   94.651;  -14.590;  789.160
980.848;   90.543;  -14.390;  717.220
981.401;   91.024;  -14.280;  816.540
981.955;   91.877;  -11.920;  844.300
982.508;   88.841;  -15.790;  746.340
983.061;   88.277;  -12.070;  915.260
983.615;   85.979;  -13.260;  798.800
984.168;   83.764;  -15.540;  770.080
984.721;   83.762;  -13.230;  880.760
985.274;   82.181;  -11.820;  867.500
985.827;   80.153;  -13.510;  834.220
986.380;   77.401;  -14.840;  721.340
986.933;   76.618;  -13.970;  864.800
987.486;   75.644;  -12.450;  861.920
988.039;   74.040;  -11.170;  863.100
988.591;   72.688;  -13.070;  893.260
989.144;   68.241;  -15.530;  737.260
989.697;   66.808;  -14.300;  758.740
990.250;   67.029;  -13.310;  858.100
990.802;   64.900;  -14.490;  755.860
991.355;   66.945;  -12.980;  974.880
991.907;   65.244;  -13.715;  864.320
992.460;   63.543;  -14.450;  753.760
993.012;   61.721;  -12.590;  749.540
993.565;   60.467;  -15.180;  711.360
994.117;   61.968;  -11.630;  950.780
994.669;   58.918;  -13.760;  701.320
995.221;   57.725;  -12.710;  791.920
995.774;   57.058;  -14.620;  787.580
996.326;   56.161;  -13.150;  740.220
996.878;   57.105;  -12.880;  838.420
997.430;   55.804;  -14.580;  699.860
997.982;   53.995;  -14.030;  750.140
998.534;   53.855;  -12.190;  739.060
999.086;   52.403;  -12.990;  738.220
999.638;   51.331;  -13.180;  661.380
1000.190;   50.397;  -14.970;  699.320
1000.741;   50.320;  -12.200;  742.700
1001.293;   50.589;  -13.400;  686.020
1001.845;   49.466;  -14.490;  676.640
1002.396;   50.277;  -15.280;  743.400
1002.948;   49.129;  -12.380;  737.400
1003.500;   48.399;  -13.260;  723.780
1004.051;   49.720;  -13.730;  907.580
1004.603;   48.093;  -12.300;  791.820
1005.154;   44.078;  -15.330;  608.980
1005.705;   43.806;  -12.800;  723.960
1006.257;   42.889;  -13.900;  707.220
1006.808;   42.385;  -14.430;  685.460
1007.359;   42.162;  -12.010;  763.240
1007.910;   40.472;  -12.690;  646.640
1008.461;   40.089;  -13.610;  732.940
1009.013;   39.018;  -14.990;  588.340
1009.564;   40.042;  -11.860;  793.520
1010.115;   37.066;  -12.640;  597.040
1010.665;   37.324;  -14.570;  602.160
1011.216;   37.407;  -15.190;  667.920
1011.767;   36.408;  -13.470;  697.920
1012.318;   37.398;  -13.760;  736.980
1012.869;   36.349;  -15.950;  679.000
1013.419;   36.686;  -15.880;  603.120
1013.970;   36.545;  -14.540;  666.640
1014.521;   35.631;  -13.220;  620.620
1015.071;   35.904;  -15.020;  670.380
1015.622;   35.341;  -17.510;  635.460
1016.172;   34.003;  -14.130;  596.820
1016.723;   33.648;  -14.220;  614.380
1017.273;   33.901;  -15.370;  604.160
1017.823;   34.146;  -15.290;  650.340
1018.374;   33.532;  -13.420;  611.760
1018.924;   33.141;  -11.740;  716.880
1019.474;   34.768;  -12.250;  718.880
1020.024;   32.727;  -15.850;  657.580
1020.574;   33.656;  -13.280;  726.160
1021.124;   33.646;  -13.560;  673.580
1021.674;   31.258;  -13.790;  559.120
1022.224;   33.089;  -14.610;  708.940
1022.774;   32.176;  -13.100;  668.820
1023.324;   32.795;  -11.470;  753.520
1023.874;   34.198;  -11.990;  875.760
1024.423;   30.802;  -14.550;  613.700
1024.973;   30.292;  -14.440;  610.760
1025.523;   30.392;  -13.250;  620.960
1026.072;   29.893;  -15.200;  606.420
1026.622;   30.048;  -14.590;  675.740
1027.172;   29.948;  -11.080;  715.660
1027.721;   29.138;  -14.010;  601.220
1028.270;   29.428;  -13.690;  663.400
1028.820;   29.908;  -15.380;  638.080
1029.369;   29.180;  -14.980;  612.700
1029.918;   29.481;  -13.100;  649.840
1030.468;   28.514;  -13.680;  564.780
1031.017;   29.308;  -13.770;  634.800
1031.566;   27.046;  -14.100;  608.900
1032.115;   28.849;  -11.770;  694.500
1032.664;   26.963;  -14.940;  596.480
1033.213;   27.994;  -13.370;  735.420
1033.762;   27.795;  -13.660;  635.620
1034.311;   28.019;  -13.650;  677.220
1034.860;   27.722;  -13.820;  691.000
1035.408;   27.765;  -12.860;  722.720
1035.957;   28.139;  -13.060;  719.540
1036.506;   24.934;  -14.510;  530.800
1037.055;   29.639;  -13.470;  844.320
1037.603;   26.916;  -14.800;  664.000
1038.152;   24.975;  -14.190;  534.760
1038.700;   25.990;  -11.810;  585.740
1039.249;   25.838;  -12.850;  681.220
1039.797;   26.149;  -14.610;  633.360
1040.345;   25.838;  -15.220;  705.420
1040.894;   25.604;  -13.480;  625.300
1041.442;   24.986;  -13.310;  632.200
1041.990;   23.683;  -14.510;  559.160
1042.538;   23.190;  -15.700;  536.180
1043.087;   23.794;  -13.910;  570.860
1043.635;   25.217;  -13.620;  670.500
1044.183;   23.639;  -14.230;  586.400
1044.731;   24.017;  -13.730;  576.000
1045.279;   24.030;  -13.970;  674.920
1045.827;   26.306;  -10.750;  892.400
1046.374;   22.376;  -15.230;  515.420
1046.922;   22.324;  -15.390;  590.580
1047.470;   23.800;  -12.320;  691.300
1048.018;   22.482;  -13.230;  647.960
1048.565;   24.092;  -13.390;  708.600
1049.113;   21.764;  -15.030;  557.000
1049.660;   22.143;  -12.540;  629.660
1050.208;   22.763;  -15.040;  675.640
1050.755;   22.201;  -14.680;  606.580
1051.303;   22.560;  -13.610;  686.820
1051.850;   21.984;  -14.340;  635.120
1052.397;   20.136;  -16.330;  473.960
1052.945;   21.220;  -15.710;  617.760
1053.492;   22.143;  -12.320;  741.840
1054.039;   22.103;  -13.730;  720.180
1054.586;   20.680;  -16.140;  557.240
1055.133;   21.974;  -14.020;  693.140
1055.680;   21.594;  -13.430;  646.620
1056.227;   20.411;  -14.570;  542.780
1056.774;   22.341;  -14.400;  794.980
1057.321;   19.645;  -14.230;  523.260
1057.868;   19.761;  -14.220;  651.320
1058.415;   19.631;  -14.060;  651.980
1058.961;   20.118;  -14.640;  678.940
1059.508;   19.924;  -13.970;  643.820
1060.055;   18.966;  -15.100;  581.780
1060.601;   20.052;  -12.180;  624.300
1061.148;   19.374;  -15.010;  616.820
1061.694;   18.703;  -14.750;  592.580
1062.241;   18.765;  -14.130;  596.320
1062.787;   19.401;  -14.770;  663.140
1063.334;   20.387;  -13.130;  808.560
1063.880;   19.103;  -14.420;  668.360
1064.426;   18.991;  -13.130;  706.820
1064.972;   17.520;  -13.960;  601.340
1065.518;   17.241;  -13.680;  566.640
1066.065;   18.491;  -15.720;  624.460
1066.611;   17.228;  -13.970;  598.800
1067.157;   17.853;  -13.920;  641.860
1067.703;   18.087;  -14.760;  668.480
1068.249;   17.651;  -14.490;  605.220
1068.794;   17.395;  -14.740;  626.880
1069.340;   17.183;  -13.220;  578.960
1069.886;   17.404;  -14.930;  590.700
1070.432;   16.046;  -14.700;  541.720
1070.977;   15.971;  -14.470;  601.080
1071.523;   16.455;  -14.330;  573.060
1072.068;   16.303;  -14.960;  582.000
1072.614;   16.100;  -16.220;  527.760
1073.160;   17.072;  -11.280;  687.040
1073.705;   14.925;  -15.990;  572.520
1074.250;   15.719;  -16.550;  559.900
1074.796;   16.775;  -14.600;  655.160
1075.341;   17.188;  -13.440;  664.100
1075.886;   15.638;  -14.450;  594.240
1076.431;   15.552;  -13.160;  649.880
1076.976;   15.603;  -14.710;  639.220
1077.521;   15.440;  -14.000;  583.080
1078.067;   14.380;  -14.470;  579.400
1078.612;   14.712;  -14.530;  661.620
1079.156;   15.422;  -15.660;  601.540
1079.701;   15.226;  -16.120;  693.260
1080.246;   15.515;  -12.960;  696.300
1080.791;   15.146;  -13.700;  625.020
1081.336;   15.124;  -15.540;  659.320
1081.880;   14.673;  -14.640;  649.680
1082.425;   13.719;  -14.220;  573.480
1082.970;   15.608;  -11.890;  717.040
1083.514;   13.971;  -13.820;  597.000
1084.059;   13.519;  -14.280;  586.720
1084.603;   12.633;  -12.890;  565.840
1085.147;   14.237;  -13.590;  645.220
1085.692;   14.414;  -14.050;  716.800
1086.236;   11.935;  -14.990;  503.140
1086.780;   15.491;  -12.640;  751.440
1087.325;   13.583;  -15.550;  654.620
1087.869;   13.581;  -14.980;  610.700
1088.413;   13.947;  -13.440;  705.040
1088.957;   11.469;  -12.170;  543.400
1089.501;   14.056;  -12.730;  766.640
1090.045;   13.844;  -14.650;  726.480
1090.589;   11.281;  -14.500;  569.920
1091.133;   12.680;  -12.320;  673.340
1091.676;   12.080;  -16.130;  591.940
1092.220;   11.781;  -13.930;  600.920
1092.764;   13.020;  -12.820;  706.960
1093.307;   12.286;  -11.700;  673.780
1093.851;   10.608;  -15.600;  556.540
1094.395;   12.267;  -13.920;  683.140
1094.938;   11.190;  -16.090;  632.520
1095.482;   11.352;  -13.820;  559.800
1096.025;   12.692;  -12.720;  710.880
1096.568;   12.415;  -12.100;  779.280
1097.112;    8.864;  -15.450;  508.180
1097.655;   10.955;  -14.310;  603.000
1098.198;    9.222;  -14.740;  600.180
1098.741;   10.378;  -15.550;  612.860
1099.285;   11.101;  -12.600;  657.300
1099.828;    8.498;  -15.050;  439.400
1100.371;   10.546;  -14.800;  608.160
1100.914;   10.552;  -16.480;  682.660
1101.457;   10.453;  -12.990;  679.900
1101.999;    9.643;  -14.110;  584.680
1102.542;   10.420;  -11.450;  641.440
1103.085;    9.940;  -13.350;  658.500
1103.628;   10.704;  -13.200;  762.060
1104.170;    9.252;  -12.310;  588.280
1104.713;   10.128;  -14.320;  646.700
1105.256;    8.766;  -16.110;  557.440
1105.798;    7.449;  -15.910;  499.980
1106.341;   10.583;  -12.200;  728.900
1106.883;    8.592;  -14.910;  521.340
1107.425;   10.294;  -14.960;  668.180
1107.968;    8.693;  -13.440;  612.380
1108.510;    9.887;  -14.010;  684.960
1109.052;    7.986;  -15.430;  612.620
1109.594;    8.205;  -15.290;  554.440
1110.136;    8.899;  -13.360;  643.220
1110.679;    8.158;  -13.820;  633.080
1111.221;    9.116;  -13.690;  604.460
1111.763;    7.662;  -14.890;  559.220
1112.304;    7.560;  -14.550;  547.140
1112.846;    8.241;  -12.760;  666.240
1113.388;   11.283;  -10.780;  942.180
1113.930;    8.587;  -12.690;  694.200
1114.472;    7.268;  -15.730;  606.540
1115.013;    6.221;  -14.620;  551.280
1115.555;    6.235;  -14.950;  587.100
1116.097;    6.400;  -16.460;  579.480
1116.638;    7.554;  -13.730;  684.600
1117.180;    7.440;  -13.810;  667.740
1117.721;    6.847;  -13.280;  568.580
1118.262;    7.409;  -15.080;  677.960
1118.804;    7.412;  -14.040;  637.340
1119.345;    6.195;  -15.430;  578.400
1119.886;    7.434;  -15.240;  704.040
1120.427;    6.395;  -15.820;  589.020
1120.969;    5.828;  -14.550;  597.920
1121.510;    5.434;  -14.030;  563.060
1122.051;    6.766;  -11.990;  723.580
1122.592;    6.402;  -16.490;  655.420
1123.133;    4.659;  -15.580;  547.940
1123.673;    6.737;  -12.850;  706.480
1124.214;    6.242;  -13.630;  612.460
1124.755;    6.887;  -14.830;  639.460
1125.296;    5.703;  -13.110;  627.320
1125.836;    6.609;  -11.320;  691.500
1126.377;    5.517;  -14.330;  599.660
1126.918;    6.360;  -12.800;  614.980
1127.458;    5.742;  -13.580;  622.220
1127.999;    6.074;  -10.330;  656.980
1128.539;    6.001;  -13.390;  694.240
1129.079;    5.301;  -16.420;  632.720
1129.620;    4.567;  -15.700;  558.100
1130.160;    3.829;  -14.790;  539.480
1130.700;    5.266;  -12.910;  640.840
1131.240;    5.484;  -15.610;  643.700
1131.781;    4.317;  -12.920;  619.680
1132.321;    4.101;  -15.300;  599.120
1132.861;    3.567;  -14.760;  564.200
1133.401;    4.268;  -15.470;  593.940
1133.941;    4.617;  -13.710;  626.280
1134.481;    4.134;  -11.820;  597.580
1135.020;    4.103;  -14.810;  609.160
1135.560;    5.133;  -13.660;  674.940
1136.100;    3.294;  -13.940;  501.160
1136.640;    3.046;  -15.410;  510.480
1137.179;    3.280;  -16.920;  537.960
1137.719;    3.835;  -16.430;  605.400
1138.258;    3.118;  -16.300;  587.360
1138.798;    4.059;  -13.710;  663.780
1139.337;    2.271;  -13.840;  482.840
1139.877;    4.149;  -16.140;  642.360
1140.416;    6.017;  -11.410;  878.060
1140.955;    2.801;  -12.820;  535.380
1141.494;    3.663;  -12.310;  669.280
1142.034;    2.540;  -16.280;  583.520
1142.573;    3.509;  -13.090;  646.280
1143.112;    1.813;  -13.770;  553.480
1143.651;    2.284;  -15.830;  536.480
1144.190;    3.663;  -15.010;  691.640
1144.729;    2.687;  -13.650;  607.420
1145.267;    3.015;  -13.670;  584.900
1145.806;    3.540;  -13.630;  637.040
1146.345;    2.579;  -14.160;  635.020
1146.884;    2.301;  -11.180;  622.500
1147.422;    1.924;  -15.890;  533.060
1147.961;    3.716;  -12.760;  708.460
1148.500;    3.103;  -15.220;  669.720
1149.038;    2.827;  -13.720;  632.500
1149.577;    2.969;  -13.250;  698.640
1150.115;   -0.034;  -16.790;  452.280
1150.653;    1.907;  -15.810;  607.340
1151.192;    1.668;  -14.730;  552.920
1151.730;    2.211;  -13.660;  652.560
1152.268;    1.454;  -15.120;  589.520
1152.806;    1.818;  -15.580;  571.180
1153.344;    0.654;  -16.210;  577.640
1153.882;    1.255;  -12.810;  600.060
1154.421;    0.360;  -14.150;  470.620
1154.958;    0.616;  -15.360;  595.240
1155.496;    1.576;  -14.710;  645.280
1156.034;    0.778;  -13.640;  721.880
1156.572;    1.516;  -13.740;  667.060
1157.110;   -0.019;  -16.960;  473.940
1157.647;    1.155;  -11.940;  676.960
1158.185;    0.800;  -14.090;  564.320
1158.723;   -0.722;  -13.610;  509.200
1159.260;    1.600;  -14.760;  701.700
1159.798;    1.809;  -13.700;  658.160
1160.335;    0.758;  -13.820;  631.820

