
Integration time [ms]:   3.882
Averaging Nr. [scans]: 1000
Smoothing Nr. [pixels]: 0
Data measured with spectrometer [name]: 7414430SP
Wave   ;Sample   ;Dark     ;Reference
[nm]   ;[counts] ;[counts] ;[counts] 

288.544;  123.279;   10.292;  793.890
289.143;  125.663;    4.564;  681.602
289.742;  127.726;    6.144;  828.814
290.341;  115.090;    4.396;  789.841
290.940;  106.261;    0.938;  730.702
291.538;  107.137;   -0.684;  881.108
292.137;  105.631;   -2.845;  792.581
292.736;  109.316;   -0.144;  975.101
293.335;  105.652;   -6.352;  735.086
293.934;  105.347;   -7.642;  781.677
294.532;  106.507;   -4.992; 1031.958
295.131;   93.755;   -5.478;  834.394
295.730;   92.994;   -6.549;  809.588
296.328;   91.445;   -9.558;  783.442
296.927;   91.157;   -8.118;  779.652
297.525;   92.574;   -6.908;  781.236
298.124;   83.698;   -9.195;  654.009
298.722;   88.395;   -8.198;  761.933
299.321;   87.034;   -8.817;  708.597
299.919;   83.867;   -7.716;  751.918
300.518;   80.238;  -10.745;  689.338
301.116;   81.999;   -9.647;  691.381
301.715;   83.086;  -10.828;  730.222
302.313;   81.879;   -6.087;  704.943
302.911;   77.137;   -6.824;  733.830
303.509;   83.401;   -8.807;  925.627
304.108;   80.775;   -8.198;  760.383
304.706;   80.524;   -6.218;  801.664
305.304;   75.645;   -7.185;  796.707
305.902;   80.569;   -8.568;  784.484
306.500;   76.326;   -7.737;  728.200
307.098;   74.645;   -6.026;  746.560
307.696;   72.825;   -7.176;  780.432
308.294;   74.419;   -8.656;  731.359
308.892;   76.384;   -6.838;  759.769
309.490;   72.011;   -2.596;  712.161
310.088;   70.564;   -4.485;  788.444
310.686;   75.844;   -3.907;  821.749
311.284;   71.771;   -2.806;  766.040
311.882;   69.186;   -2.845;  731.225
312.480;   66.820;   -3.274;  697.167
313.078;   67.991;   -3.645;  808.331
313.675;   68.703;   -4.997;  691.600
314.273;   64.286;   -0.894;  797.837
314.871;   63.500;   -2.854;  589.829
315.468;   62.279;   -3.644;  652.090
316.066;   64.533;   -3.947;  694.427
316.664;   57.989;   -1.824;  656.351
317.261;   63.314;    1.565;  910.128
317.859;   59.194;   -3.955;  768.735
318.456;   59.022;   -2.886;  830.096
319.054;   56.215;   -0.995;  787.828
319.651;   55.224;   -1.765;  759.928
320.249;   54.950;   -3.685;  810.188
320.846;   52.230;   -3.736;  714.286
321.443;   50.657;   -2.065;  832.135
322.041;   48.186;   -5.635;  812.315
322.638;   46.232;   -5.985;  701.456
323.235;   49.183;   -6.677;  665.683
323.833;   45.610;   -3.497;  740.354
324.430;   42.149;   -6.756;  615.900
325.027;   44.889;   -7.647;  876.855
325.624;   45.011;   -7.598;  644.532
326.221;   42.210;   -5.848;  689.717
326.818;   42.386;   -5.777;  818.332
327.415;   44.353;   -8.769;  748.828
328.012;   43.856;   -6.299;  690.585
328.609;   42.719;   -6.639;  731.389
329.206;   41.500;   -6.358;  778.621
329.803;   40.412;   -8.698;  737.841
330.400;   41.977;   -8.379;  704.260
330.997;   42.195;   -6.178;  817.147
331.594;   39.984;   -5.646;  788.185
332.191;   44.315;   -6.928;  728.722
332.787;   45.453;   -6.057;  844.463
333.384;   42.858;   -6.445;  763.093
333.981;   41.854;   -8.002;  815.687
334.578;   43.475;   -8.443;  708.378
335.174;   45.548;   -6.053;  731.469
335.771;   45.241;   -5.791;  836.456
336.367;   42.084;   -6.570;  710.631
336.964;   44.578;   -6.741;  793.266
337.561;   43.665;   -5.710;  731.112
338.157;   40.747;   -3.928;  911.916
338.754;   38.074;   -5.577;  796.589
339.350;   36.224;   -9.667;  722.493
339.946;   39.713;   -5.269;  773.135
340.543;   31.992;   -4.485;  846.136
341.139;   28.085;   -7.584;  720.836
341.735;   26.825;   -8.553;  772.593
342.332;   25.907;   -4.984;  691.472
342.928;   25.734;   -3.475;  795.394
343.524;   20.947;   -6.653;  761.684
344.120;   19.363;   -7.173;  738.562
344.716;   21.497;   -4.385;  723.717
345.313;   19.521;   -3.565;  795.342
345.909;   15.584;   -7.495;  627.336
346.505;   17.135;   -8.276;  740.247
347.101;   18.030;   -5.697;  827.864
347.697;   18.944;   -4.767;  785.398
348.293;   13.521;   -7.226;  627.244
348.889;   14.924;   -7.547;  745.914
349.485;   14.269;   -9.147;  688.205
350.081;   14.750;   -6.568;  772.592
350.676;   10.281;   -6.516;  691.606
351.272;   14.844;   -7.378;  809.530
351.868;   14.817;   -6.759;  780.497
352.464;   11.954;   -4.798;  723.932
353.059;    8.902;   -7.977;  646.017
353.655;   12.866;   -8.769;  777.063
354.251;   13.622;   -5.920;  759.845
354.846;    7.355;   -7.647;  740.646
355.442;    6.599;   -6.956;  753.071
356.038;    7.799;   -9.928;  751.708
356.633;    8.380;   -7.698;  728.594
357.229;    6.124;   -6.307;  724.757
357.824;    4.817;   -7.647;  703.600
358.420;    4.020;  -10.047;  679.726
359.015;    4.961;   -7.458;  695.357
359.610;    5.277;   -5.748;  763.920
360.206;    0.091;   -9.346;  603.240
360.801;    3.251;  -11.268;  646.503
361.396;    5.580;   -8.789;  725.975
361.992;    1.223;   -6.347;  668.220
362.587;   -1.235;   -6.476;  670.160
363.182;    0.910;   -9.457;  689.631
363.777;    1.879;   -7.147;  738.242
364.372;    1.361;   -5.507;  737.314
364.967;   -2.443;   -6.386;  680.744
365.563;    2.564;   -7.858;  815.567
366.158;   -0.581;   -8.517;  685.161
366.753;    0.030;   -8.728;  649.263
367.348;   -1.073;   -7.677;  746.056
367.942;   -1.480;  -10.387;  697.298
368.537;   -2.456;   -7.187;  754.245
369.132;   -1.876;   -8.587;  703.428
369.727;   -5.544;   -8.606;  638.079
370.322;   -3.939;  -10.426;  580.186
370.917;   -4.089;   -5.776;  710.646
371.511;   -0.834;   -6.007;  861.834
372.106;   -4.884;   -6.686;  776.964
372.701;   -7.574;   -9.335;  585.988
373.296;   -1.092;   -6.777;  863.135
373.890;   -6.917;   -7.546;  647.840
374.485;   -9.319;   -8.755;  691.199
375.079;   -4.368;   -9.797;  738.685
375.674;   -2.927;   -6.327;  812.970
376.268;   -7.117;   -9.046;  691.759
376.863;  -12.582;   -7.993;  580.327
377.457;   -6.493;   -9.206;  662.490
378.052;   -8.327;   -5.345;  764.884
378.646;   -9.164;   -5.605;  741.167
379.240;   -8.955;   -6.825;  721.176
379.835;   -8.593;  -10.476;  636.978
380.429;  -10.783;   -8.676;  562.557
381.023;  -10.065;   -4.945;  779.205
381.617;  -12.840;   -8.094;  680.106
382.212;   -8.618;  -10.646;  685.303
382.806;   -7.878;   -8.136;  760.690
383.400;  -12.461;   -7.855;  672.281
383.994;  -12.151;   -8.125;  664.870
384.588;   -8.241;   -7.637;  697.701
385.182;   -7.131;   -7.458;  726.624
385.776;   -9.084;   -6.277;  706.875
386.370;  -12.163;   -7.485;  681.968
386.964;  -10.338;   -9.416;  684.155
387.558;   -8.865;   -8.518;  598.360
388.152;  -12.127;   -7.096;  681.959
388.745;   -9.515;   -7.656;  814.707
389.339;   -8.163;   -8.927;  747.642
389.933;   -7.704;   -9.538;  695.370
390.527;   -7.916;   -5.857;  859.029
391.120;  -14.271;   -9.455;  595.318
391.714;  -11.246;   -9.746;  711.633
392.308;   -7.782;   -7.857;  780.253
392.901;  -12.219;   -9.106;  642.460
393.495;  -13.452;  -10.365;  595.414
394.089;  -10.441;   -9.696;  760.452
394.682;  -11.985;   -7.016;  697.188
395.275;  -12.331;   -8.466;  719.927
395.869;  -13.851;   -8.985;  667.314
396.462;  -11.271;  -11.496;  616.609
397.056;   -7.837;   -7.838;  776.621
397.649;  -12.025;   -6.895;  731.575
398.242;   -9.294;   -5.017;  712.645
398.836;   -8.604;   -8.787;  766.408
399.429;   -9.420;   -8.967;  631.041
400.022;  -13.694;   -8.815;  665.902
400.615;   -9.917;   -6.276;  805.609
401.208;   -8.502;   -8.407;  691.451
401.802;  -10.624;   -7.296;  699.329
402.395;  -11.551;   -7.585;  683.502
402.988;  -12.951;   -8.015;  696.627
403.581;   -9.365;   -9.577;  646.878
404.174;   -6.971;   -7.588;  686.568
404.767;  -10.174;   -7.906;  638.583
405.360;  -12.304;   -7.875;  621.445
405.953;   -6.561;   -8.127;  759.034
406.545;   -5.236;   -7.198;  725.342
407.138;  -10.358;   -8.916;  618.350
407.731;   -8.822;   -9.767;  613.303
408.324;   -4.797;  -10.659;  660.554
408.917;   -5.224;   -8.068;  681.864
409.509;   -7.791;   -9.837;  740.396
410.102;   -9.460;   -8.146;  643.948
410.695;   -3.966;   -7.969;  665.758
411.287;   -4.513;   -8.579;  599.821
411.880;   -5.566;   -6.968;  585.421
412.472;   -8.288;   -9.487;  613.092
413.065;   -4.929;  -10.338;  629.408
413.657;   -2.732;   -9.169;  576.678
414.250;   -3.026;  -10.119;  646.681
414.842;   -4.787;   -9.938;  676.353
415.434;   -2.573;  -10.409;  570.463
416.027;    1.334;   -9.591;  652.196
416.619;   -0.829;   -7.379;  713.400
417.211;   -0.778;   -9.159;  599.352
417.804;    2.958;   -9.191;  628.499
418.396;   -0.867;   -8.159;  607.643
418.988;    1.949;   -6.960;  659.238
419.580;   -2.255;  -11.389;  568.276
420.172;    0.780;  -13.460;  536.196
420.764;    4.772;  -10.701;  672.482
421.356;    3.353;   -8.961;  636.898
421.948;    2.866;   -9.770;  677.661
422.540;    7.867;   -8.832;  680.027
423.132;    7.612;   -8.153;  600.641
423.724;    3.324;   -8.481;  561.267
424.316;    5.206;   -9.261;  621.345
424.908;    9.732;   -9.643;  591.517
425.500;   10.334;   -8.663;  647.978
426.092;   10.899;   -8.503;  648.268
426.683;    9.985;  -10.522;  684.836
427.275;   13.010;  -11.734;  641.471
427.867;   14.503;  -10.264;  668.948
428.458;   14.631;   -7.644;  732.344
429.050;   13.260;   -7.853;  680.749
429.642;   16.394;   -8.904;  743.124
430.233;   15.746;  -10.795;  569.356
430.825;   17.150;   -7.665;  724.809
431.416;   15.471;   -8.843;  698.241
432.008;   19.743;   -9.885;  651.723
432.599;   19.456;   -9.966;  656.073
433.190;   16.345;   -9.164;  637.670
433.782;   16.632;   -8.584;  590.395
434.373;   23.842;   -8.296;  884.765
434.964;   22.937;   -9.896;  602.920
435.556;   19.364;   -8.255;  634.537
436.147;   23.519;   -8.075;  758.490
436.738;   22.930;   -9.716;  701.099
437.329;   29.115;   -7.318;  721.723
437.920;   21.945;   -6.694;  666.688
438.511;   21.690;   -9.644;  564.526
439.103;   28.688;   -9.427;  623.998
439.694;   30.121;  -10.748;  681.583
440.285;   30.764;   -7.997;  764.432
440.876;   29.577;  -10.046;  845.738
441.466;   29.010;  -13.467;  575.162
442.057;   34.380;   -9.329;  665.814
442.648;   32.784;   -7.707;  746.255
443.239;   31.316;   -9.017;  620.477
443.830;   36.425;  -10.279;  704.958
444.421;   38.474;  -12.630;  655.474
445.011;   34.745;   -8.697;  693.619
445.602;   35.114;   -7.787;  743.126
446.193;   36.281;  -13.329;  488.117
446.783;   40.770;   -9.171;  640.397
447.374;   36.499;   -7.457;  692.759
447.964;   36.885;   -9.277;  713.770
448.555;   45.824;   -9.041;  822.742
449.145;   42.753;   -8.969;  662.853
449.736;   43.767;   -6.809;  803.179
450.326;   43.215;   -7.229;  713.626
450.917;   49.081;  -11.391;  675.324
451.507;   47.246;   -9.501;  600.661
452.097;   47.596;   -8.460;  746.267
452.688;   49.582;  -10.080;  742.160
453.278;   49.186;  -12.861;  566.840
453.868;   54.348;   -8.372;  793.550
454.458;   50.985;   -8.131;  651.141
455.048;   52.698;   -8.520;  711.783
455.639;   53.738;  -13.632;  567.096
456.229;   57.638;  -10.143;  710.694
456.819;   58.934;   -9.163;  751.158
457.409;   60.185;   -8.652;  773.993
457.999;   62.452;   -9.933;  737.505
458.589;   63.167;  -10.363;  686.606
459.179;   62.666;  -10.633;  717.658
459.769;   60.813;  -12.442;  627.099
460.358;   66.894;   -9.844;  797.262
460.948;   65.883;   -9.924;  689.503
461.538;   67.262;  -10.484;  660.677
462.128;   65.199;  -10.703;  664.934
462.717;   71.987;  -11.486;  710.326
463.307;   75.601;  -10.767;  705.846
463.897;   71.562;   -8.814;  656.942
464.486;   71.052;   -8.182;  837.128
465.076;   75.353;   -9.985;  733.776
465.666;   78.711;  -10.447;  652.900
466.255;   76.918;   -7.754;  785.651
466.845;   75.835;  -10.884;  666.749
467.434;   79.745;  -12.525;  725.873
468.023;   80.358;  -11.456;  658.357
468.613;   77.770;   -9.173;  713.946
469.202;   82.419;   -9.306;  646.507
469.791;   87.069;   -8.917;  737.811
470.381;   89.132;   -9.657;  742.813
470.970;   88.409;   -9.947;  711.099
471.559;   88.723;   -9.256;  733.291
472.148;   91.409;  -13.397;  675.737
472.738;   94.868;   -9.928;  765.466
473.327;   93.813;  -10.897;  637.529
473.916;   94.123;   -8.526;  737.446
474.505;   99.141;  -11.078;  751.703
475.094;  102.067;   -9.559;  806.570
475.683;  100.365;   -8.838;  797.699
476.272;  102.484;  -10.198;  730.632
476.861;  105.629;  -11.489;  706.754
477.449;  112.094;  -10.721;  728.487
478.038;  105.967;   -9.818;  692.513
478.627;  108.170;   -9.887;  714.852
479.216;  114.806;  -10.030;  769.441
479.805;  118.170;   -9.401;  783.375
480.393;  117.146;   -5.739; 1008.945
480.982;  116.727;   -7.838;  874.501
481.571;  123.588;   -9.111;  858.333
482.159;  124.624;  -10.601;  705.386
482.748;  124.925;   -8.500;  821.385
483.336;  128.862;   -9.241;  858.209
483.925;  131.063;  -10.440;  774.373
484.513;  136.988;  -11.063;  758.962
485.102;  133.569;   -9.540;  810.965
485.690;  143.420;   -6.742; 1011.050
486.278;  145.435;   -8.442;  979.329
486.867;  146.320;  -10.472;  809.662
487.455;  149.906;   -8.811;  898.229
488.043;  151.447;  -10.721;  748.361
488.631;  161.376;  -10.393; 1005.079
489.220;  165.283;  -10.843;  908.626
489.808;  166.329;  -10.572;  741.415
490.396;  176.714;  -10.482;  914.645
490.984;  184.703;  -11.542;  830.161
491.572;  196.451;   -8.463;  940.315
492.160;  206.145;   -8.491;  919.081
492.748;  221.372;   -9.681;  884.341
493.336;  249.803;  -10.493; 1019.693
493.924;  287.453;   -9.354;  958.077
494.512;  333.223;   -9.132; 1066.638
495.100;  380.665;   -9.001; 1103.280
495.687;  447.147;  -11.924; 1206.373
496.275;  541.195;  -11.193; 1150.796
496.863;  642.731;   -9.241; 1281.171
497.451;  771.872;  -11.341; 1386.805
498.038;  909.873;  -11.364; 1556.729
498.626; 1052.866;   -8.104; 1741.407
499.214; 1308.395;   -8.842; 2016.609
499.801; 1646.045;  -10.112; 2220.633
500.389; 1909.819;  -11.953; 2312.494
500.976; 2150.117;  -10.023; 2744.849
501.564; 2495.531;   -8.662; 3148.565
502.151; 3010.293;  -10.531; 3515.999
502.738; 3595.971;  -13.853; 3971.274
503.326; 4210.040;  -10.794; 4403.796
503.913; 4941.676;   -8.663; 5161.749
504.500; 5596.989;  -10.172; 5986.420
505.088; 6689.778;  -13.472; 6381.201
505.675; 7535.666;  -10.924; 6925.547
506.262; 7896.674;   -8.551; 7619.060
506.849; 8809.500;  -10.523; 8733.969
507.436; 9957.409;  -10.834; 9790.121
508.023;10148.471;   -9.093; 9985.472
508.610;10494.768;  -10.073;10434.618
509.197;11906.013;   -9.500;11198.435
509.784;14199.786;  -13.242;12391.194
510.371;15167.376;  -10.964;13603.713
510.958;16230.553;   -9.772;14426.586
511.545;16983.461;   -7.842;15243.775
512.132;17172.541;  -12.184;15945.876
512.719;19059.416;   -9.733;16340.369
513.305;21871.182;   -9.172;18011.766
513.892;23151.387;   -9.581;19754.971
514.479;24196.227;  -10.253;20967.805
515.066;24636.553;   -8.183;22299.793
515.652;25739.184;   -9.253;22908.660
516.239;27529.758;   -9.412;23798.875
516.825;28836.156;  -11.153;25567.275
517.412;27762.193;  -10.263;28154.959
517.998;27084.998;   -8.802;28344.111
518.585;27497.785;  -10.401;27134.219
519.171;28289.223;  -12.744;27268.576
519.758;30177.645;  -11.793;28964.129
520.344;33726.484;   -8.912;30664.494
520.930;36408.727;  -10.901;32550.605
521.516;35668.441;  -12.034;35422.895
522.103;36848.633;  -10.473;38280.004
522.689;38592.039;   -8.311;37835.117
523.275;40138.199;  -10.691;37288.613
523.861;40975.684;  -11.193;37281.395
524.447;38769.512;  -11.484;37846.949
525.033;39125.281;   -7.702;38321.949
525.619;39944.805;  -11.241;38579.285
526.205;40272.520;  -12.152;40622.875
526.791;41420.684;  -11.423;42258.836
527.377;42267.547;   -7.981;42966.902
527.963;41825.328;   -9.450;42018.949
528.549;42450.223;  -11.351;42476.828
529.135;43954.398;  -10.202;41854.852
529.721;43062.734;   -8.672;41237.711
530.306;40474.418;   -9.111;41259.445
530.892;43178.605;  -11.252;41506.047
531.478;46389.727;  -10.432;43559.613
532.063;48484.625;  -10.721;47695.563
532.649;50430.746;   -7.450;50808.324
533.235;51471.680;  -11.811;51787.500
533.820;50575.434;   -9.383;52145.035
534.406;47516.883;   -9.400;51133.488
534.991;48072.980;   -8.861;49996.805
535.576;49573.293;  -10.612;48882.852
536.162;46556.398;   -7.322;46942.285
536.747;46421.813;   -9.360;45711.746
537.333;49570.199;  -10.450;48510.180
537.918;52895.105;  -12.610;50439.891
538.503;52907.355;  -12.132;50863.711
539.088;49669.164;  -10.831;50906.922
539.673;49979.766;  -11.220;52621.965
540.259;52253.563;  -11.481;52368.094
540.844;52013.434;  -11.462;50879.109
541.429;53515.875;   -7.869;52077.777
542.014;51604.332;  -11.859;52716.695
542.599;48648.695;  -11.061;52363.281
543.184;48568.879;  -12.300;53187.137
543.769;50575.176;   -9.369;54697.605
544.354;51436.129;  -12.020;53913.914
544.938;47466.891;  -10.350;49680.164
545.523;44266.672;  -10.841;47386.277
546.108;47596.570;   -8.579;49151.949
546.693;50973.871;   -8.818;51384.637
547.278;51332.000;  -11.331;51853.254
547.862;49760.723;  -10.292;51173.750
548.447;49527.664;   -8.349;51691.395
549.031;49261.930;  -10.838;52456.703
549.616;50988.020;  -11.681;52714.516
550.201;52248.051;  -11.140;52414.598
550.785;50046.551;   -8.649;52355.059
551.370;51973.375;  -11.889;54589.453
551.954;52104.801;  -11.239;58267.348
552.538;53059.598;   -8.850;59062.176
553.123;54609.426;  -10.829;58115.285
553.707;54911.344;   -8.887;56556.285
554.291;52160.648;  -10.430;56201.668
554.876;52337.195;   -9.799;55335.762
555.460;49328.582;  -10.018;54155.703
556.044;49641.363;   -7.307;53721.484
556.628;52304.250;  -12.229;53731.016
557.212;52521.086;   -9.820;54312.531
557.796;50464.367;   -9.109;53797.773
558.380;48944.887;   -9.707;56145.984
558.964;51842.047;  -10.980;57277.930
559.548;54294.043;  -12.010;56459.641
560.132;54809.066;   -7.928;54434.543
560.716;57971.363;  -10.247;54800.617
561.300;57546.039;  -11.250;57606.945
561.884;55089.141;  -10.568;58972.445
562.467;51938.516;   -9.727;57327.570
563.051;48287.094;  -11.847;54962.434
563.635;48142.918;  -10.747;52594.473
564.219;46760.918;  -13.108;50610.410
564.802;45616.625;  -11.417;49551.180
565.386;44478.570;  -10.457;48370.953
565.969;48167.199;   -8.959;48178.871
566.553;49267.184;  -10.328;49957.305
567.136;48773.020;  -10.257;50369.594
567.720;46979.340;  -10.186;49492.004
568.303;46296.809;  -10.027;50616.352
568.887;47405.453;  -10.397;50727.148
569.470;48817.039;   -8.185;51698.379
570.053;46648.215;  -11.596;52122.078
570.637;44674.535;  -11.378;52536.438
571.220;44775.031;   -9.138;51186.098
571.803;44197.703;   -7.675;51032.762
572.386;43648.000;   -8.976;49609.887
572.969;44444.059;  -12.477;48285.926
573.552;43550.910;   -9.767;47624.285
574.135;40984.188;   -8.175;45498.641
574.718;36723.859;  -11.096;41970.434
575.301;36628.551;  -11.966;41447.137
575.884;36533.246;  -12.836;40923.836
576.467;42250.781;   -9.116;45267.723
577.050;44022.734;  -10.536;48175.543
577.633;42349.000;  -11.027;47729.328
578.216;41748.090;   -9.946;47579.793
578.799;42680.992;   -9.645;47820.996
579.381;41627.027;   -9.446;48115.551
579.964;41096.230;  -12.217;47333.766
580.547;41268.949;  -10.586;46668.969
581.129;41289.566;   -8.374;44466.141
581.712;40756.105;  -10.434;44164.922
582.294;40088.340;  -10.896;46477.855
582.877;41170.746;   -8.906;48244.254
583.459;41319.492;   -9.994;47437.895
584.042;40021.176;  -10.084;46943.219
584.624;38154.418;  -13.534;46792.227
585.206;38636.605;  -12.716;46557.250
585.789;39081.523;  -11.614;45793.773
586.371;38624.777;  -10.203;43836.391
586.953;37164.539;  -10.314;42972.492
587.536;35810.727;   -9.776;42487.211
588.118;35947.820;   -9.821;42086.414
588.700;36926.098;  -10.073;43389.930
589.282;38835.551;  -12.395;43646.039
589.864;39816.852;  -11.514;43438.109
590.446;40469.098;  -10.803;43151.926
591.028;41385.180;  -11.043;42781.867
591.610;39958.820;  -13.244;42839.098
592.192;37406.422;  -11.095;42820.402
592.774;35133.426;  -10.823;40724.277
593.356;34802.406;  -11.052;39874.789
593.937;35802.699;  -11.664;39980.648
594.519;36919.637;  -10.454;42069.633
595.101;36942.969;  -10.322;42976.031
595.683;35993.316;  -10.042;44084.441
596.264;35683.313;  -14.334;43478.797
596.846;36605.445;  -10.863;43803.672
597.427;36862.035;   -9.901;42986.934
598.009;35957.480;  -10.911;42832.219
598.591;34699.207;  -10.483;42580.086
599.172;33987.078;   -9.663;43061.805
599.753;34472.543;  -10.631;41691.469
600.335;35136.965;   -9.371;40692.520
600.916;37633.316;  -13.992;39982.422
601.498;38734.723;   -8.352;40318.617
602.079;37191.172;   -8.411;40670.609
602.660;39909.496;  -10.841;41450.898
603.241;39244.785;  -12.963;41137.738
603.823;35476.855;  -11.523;38868.797
604.404;33319.813;  -11.881;38182.785
604.985;34920.348;  -11.721;38078.047
605.566;35242.711;   -9.293;38056.633
606.147;33941.777;  -10.940;37020.418
606.728;33171.250;  -11.840;37883.359
607.309;32158.291;  -11.781;38748.273
607.890;31665.215;  -11.262;38850.230
608.471;30690.752;  -10.111;37457.918
609.051;31202.051;   -7.709;36066.457
609.632;31540.861;  -12.409;35991.074
610.213;29640.197;  -10.811;37402.641
610.794;29513.475;  -11.630;38383.363
611.374;30821.139;   -8.030;40562.387
611.955;32150.914;  -10.809;38533.727
612.536;33861.563;  -10.531;36951.789
613.116;34472.320;  -12.820;37197.891
613.697;34261.691;  -11.419;38411.125
614.277;32901.613;   -9.768;38673.938
614.858;30831.936;  -10.251;37075.863
615.438;27536.953;  -11.981;35092.906
616.019;27453.518;   -8.978;33666.301
616.599;30017.619;  -12.219;34189.023
617.179;32564.861;  -14.170;36952.047
617.760;34562.746;   -9.211;39582.574
618.340;34593.086;   -9.018;38943.977
618.920;32877.008;   -9.249;37594.156
619.500;33860.102;  -12.728;37866.938
620.080;35544.207;  -12.939;37869.043
620.660;33944.578;  -11.586;36868.617
621.241;33309.133;  -11.538;36352.309
621.821;33520.348;  -11.398;35459.520
622.401;34620.789;  -10.179;35207.414
622.980;33412.945;  -11.587;35980.422
623.560;32367.449;  -12.888;37351.328
624.140;30522.316;  -13.149;34388.582
624.720;26138.770;   -9.928;32368.764
625.300;26008.158;  -10.869;32638.629
625.880;29885.531;   -8.617;34599.035
626.459;33714.121;  -12.138;36831.738
627.039;34283.195;  -12.267;38299.098
627.619;34254.723;   -7.476;38289.574
628.198;35126.785;  -11.347;37220.695
628.778;33881.270;  -11.678;37632.563
629.357;31397.529;  -12.438;38003.012
629.937;29954.381;   -9.576;38402.039
630.516;28889.998;  -11.096;37868.801
631.096;29080.047;  -11.828;35760.410
631.675;29942.543;  -11.565;35225.219
632.254;30619.492;  -11.845;35130.289
632.834;31616.947;  -11.545;35794.570
633.413;33105.031;  -10.887;35788.922
633.992;34341.430;  -10.175;34532.863
634.571;33140.223;   -9.704;33590.113
635.151;31045.781;  -10.815;34943.863
635.730;31282.400;  -11.617;35352.523
636.309;31694.641;  -10.836;35366.605
636.888;32707.369;   -9.755;36165.637
637.467;33538.004;  -11.684;37515.902
638.046;35911.109;  -11.987;39288.695
638.625;36159.410;  -10.455;38279.699
639.204;34175.059;  -11.234;37741.598
639.782;30890.824;  -12.023;38364.551
640.361;30528.932;  -11.506;36740.621
640.940;30514.262;  -12.316;34950.082
641.519;31272.613;  -11.616;34137.398
642.097;34086.914;   -9.266;35654.258
642.676;34623.641;  -12.936;35637.957
643.255;34372.715;   -9.966;36567.074
643.833;34424.164;   -8.916;37809.434
644.412;35943.148;  -10.936;37337.293
644.990;37454.824;  -12.176;37018.531
645.569;36688.648;  -12.246;36518.469
646.147;35767.625;  -12.107;36186.430
646.726;35735.527;  -12.937;36267.688
647.304;38995.211;  -12.547;36647.625
647.882;38825.398;  -12.597;39286.742
648.461;36237.965;   -9.427;39157.703
649.039;33743.012;   -8.937;35412.883
649.617;32935.563;  -11.067;34744.918
650.195;32876.098;  -10.657;35403.098
650.773;31707.240;  -10.097;35053.797
651.352;29382.816;  -11.887;33756.816
651.930;25714.154;  -13.557;31868.773
652.508;23374.756;  -11.767;33121.551
653.086;23979.809;  -10.777;33564.793
653.663;28475.264;  -12.067;34054.668
654.241;31558.033;  -14.918;35693.309
654.819;31631.928;  -11.788;36422.906
655.397;31010.977;  -11.268;38213.484
655.975;32176.365;  -11.738;39507.625
656.553;31998.744;  -11.018;39498.223
657.130;30693.236;  -12.848;40395.480
657.708;29854.285;  -10.098;39242.020
658.286;30005.133;  -11.678;38920.020
658.863;30996.736;  -11.498;40202.898
659.441;31937.852;  -11.008;39677.938
660.018;32792.820;  -11.048;40413.355
660.596;32263.688;  -12.058;39931.414
661.173;32295.201;  -14.158;39604.531
661.750;32196.820;  -12.298;39700.070
662.328;31818.119;  -10.699;39292.809
662.905;30391.104;  -12.119;38235.648
663.482;26675.248;  -11.829;36212.305
664.060;25439.707;  -11.009;35944.945
664.637;28196.871;  -10.369;35170.785
665.214;29107.250;  -10.459;34197.523
665.791;27709.090;  -12.599;34549.520
666.368;27242.189;  -12.919;35118.578
666.945;28815.367;  -10.699;36019.418
667.522;29336.258;  -11.359;36048.438
668.099;29710.771;  -13.529;36243.914
668.676;30686.242;  -10.229;35958.875
669.253;30532.311;   -9.279;37384.730
669.830;30804.029;  -11.370;36779.629
670.407;32334.859;  -10.950;35231.289
670.984;32868.156;  -12.850;35544.270
671.560;32761.709;   -8.440;35466.867
672.137;31106.348;  -13.520;34280.863
672.714;29581.016;  -13.620;34632.863
673.290;29124.736;  -10.450;35135.422
673.867;27877.180;  -10.960;36114.480
674.443;26925.771;  -13.300;36152.859
675.020;27408.764;  -12.370;35327.238
675.596;27195.678;  -11.250;35795.176
676.173;27746.805;  -11.080;35430.355
676.749;28548.686;  -13.220;33549.516
677.326;31517.623;  -13.000;32210.012
677.902;31991.852;  -12.701;32068.871
678.478;30997.303;  -12.801;32583.891
679.054;30256.768;   -8.601;32088.928
679.631;31785.578;  -12.631;30978.848
680.207;31887.227;   -9.451;33160.887
680.783;30506.445;  -11.701;35570.363
681.359;30420.256;  -12.701;36125.184
681.935;28819.182;  -13.271;35240.922
682.511;27790.660;  -10.791;34429.961
683.087;29057.820;  -10.791;34463.680
683.663;29850.879;   -8.121;34648.898
684.239;31215.076;  -13.261;34546.457
684.815;29229.648;  -10.581;35586.375
685.390;26643.408;   -9.961;35821.895
685.966;25806.666;  -11.182;35085.871
686.542;25844.760;  -13.512;34198.230
687.118;26835.064;  -11.472;32847.707
687.693;26893.043;  -10.152;32794.027
688.269;28674.217;  -14.442;33072.367
688.844;29800.684;  -11.852;33141.664
689.420;27833.213;  -13.942;33965.742
689.995;26475.340;   -9.702;34655.523
690.571;26568.811;  -11.312;33576.742
691.146;26507.074;  -14.332;32657.219
691.722;28545.221;  -11.192;32526.979
692.297;29654.125;  -10.962;33014.617
692.872;28182.842;  -11.082;34012.254
693.448;27641.895;  -14.732;34237.434
694.023;27681.553;  -12.363;34142.672
694.598;27822.770;  -12.393;34132.031
695.173;27335.777;  -11.023;34205.250
695.748;27681.281;  -12.743;32882.488
696.323;29465.932;  -11.103;32864.906
696.898;30567.006;   -8.123;33170.004
697.473;30110.469;  -12.603;32432.984
698.048;28621.594;  -12.553;31649.303
698.623;29369.400;  -12.573;30778.141
699.198;30953.471;  -12.743;31140.119
699.773;28685.238;  -12.843;31764.299
700.348;28125.234;  -16.683;31780.816
700.922;29031.027;  -11.403;32046.375
701.497;29724.332;  -11.253;32603.574
702.072;29313.096;  -10.044;34799.871
702.646;27485.879;  -13.054;35793.172
703.221;26355.094;  -11.414;35201.590
703.795;27227.146;  -10.644;34764.527
704.370;28138.184;  -13.484;34307.367
704.944;27751.066;  -12.144;33509.887
705.519;27185.621;  -12.024;31388.584
706.093;26432.463;  -11.234;31340.104
706.668;25195.277;   -9.874;32630.281
707.242;25236.721;  -12.404;32728.779
707.816;24815.930;  -10.644;32947.238
708.390;25126.072;  -11.174;33277.855
708.965;26264.248;  -10.324;33834.336
709.539;25830.691;  -12.014;33709.273
710.113;25862.133;  -12.295;33044.313
710.687;26589.924;  -10.965;31953.992
711.261;27092.891;  -13.685;30505.949
711.835;26323.635;  -15.335;30262.369
712.409;26133.379;  -13.785;31254.447
712.983;27580.057;  -10.525;32754.986
713.557;28729.016;  -13.175;34018.824
714.131;29283.768;  -13.245;34579.625
714.704;30011.564;  -13.175;33890.262
715.278;30212.490;  -11.545;33531.102
715.852;28516.207;  -10.975;33601.660
716.425;27974.932;  -10.075;33515.117
716.999;27832.518;  -12.185;33185.555
717.573;28801.506;   -9.685;33905.996
718.146;29709.709;  -10.516;35199.293
718.720;26182.750;  -12.106;35060.551
719.293;26138.424;  -12.386;34973.230
719.867;27741.916;  -12.456;36394.449
720.440;26825.789;  -10.686;36663.008
721.013;26948.125;  -12.596;35102.426
721.587;27442.518;  -13.956;33985.266
722.160;27158.227;   -9.806;33524.965
722.733;28105.441;  -11.676;32987.043
723.306;28316.580;  -14.276;33066.301
723.880;28193.506;  -12.126;33399.500
724.453;28463.807;  -10.156;33468.297
725.026;27236.246;  -12.956;33816.637
725.599;25732.445;  -11.676;32797.996
726.172;25449.832;  -12.337;33187.434
726.745;26866.178;  -11.277;35136.613
727.318;25851.100;  -11.927;35751.730
727.891;24838.660;  -13.607;35890.430
728.463;25098.705;  -11.327;34822.090
729.036;25395.055;  -11.917;32895.086
729.609;26575.328;  -12.697;31823.225
730.182;27514.826;  -11.787;31445.283
730.754;28087.068;  -12.957;32373.223
731.327;28335.486;  -11.017;33676.820
731.900;26840.410;  -12.797;33417.000
732.472;25028.951;  -10.677;31978.498
733.045;24550.693;  -12.797;30368.777
733.617;24606.816;  -13.908;30574.215
734.190;24340.523;  -12.258;31280.975
734.762;25290.242;  -13.438;31674.412
735.334;25223.717;  -11.758;31247.291
735.907;25319.508;  -11.158;29876.211
736.479;26152.762;  -11.258;29808.488
737.051;27644.717;  -10.918;30233.547
737.623;28728.830;  -11.038;31469.086
738.195;27944.801;  -12.188;31784.225
738.768;25482.932;  -11.378;32120.523
739.340;25276.824;  -12.598;32094.342
739.912;26002.477;  -11.568;31312.680
740.484;25551.498;   -9.348;31946.238
741.056;24865.762;  -12.628;32984.059
741.628;25279.449;  -13.349;33897.715
742.199;25719.311;  -11.309;33213.016
742.771;26594.467;  -12.699;31369.113
743.343;27979.064;  -11.919;31865.473
743.915;27801.328;  -11.679;32388.631
744.487;26440.133;  -12.249;31079.568
745.058;25302.256;  -11.119;30570.107
745.630;24256.877;   -9.439;29970.127
746.201;23842.939;  -11.949;29186.766
746.773;23223.195;  -12.639;28805.723
747.344;22572.859;  -11.039;29591.223
747.916;21752.703;  -12.549;31412.201
748.487;21183.037;  -12.659;32194.898
749.059;21492.213;  -13.059;32533.719
749.630;21901.012;  -12.080;32158.518
750.201;20871.449;  -13.100;30855.395
750.773;19844.900;  -15.310;28622.555
751.344;20114.307;  -12.240;28405.732
751.915;20498.777;  -11.960;28461.551
752.486;20652.043;  -13.200;27842.850
753.057;19945.775;  -15.230;27845.008
753.628;19152.955;  -13.130;27728.107
754.199;19294.115;  -12.720;27381.086
754.770;19349.484;  -10.680;25882.203
755.341;19509.752;  -11.010;25886.184
755.912;18779.836;  -12.990;26050.861
756.483;17845.711;  -11.110;26798.779
757.054;17510.930;  -12.190;27048.238
757.625;17630.838;  -13.981;26294.838
758.195;18231.492;  -11.041;26142.076
758.766;19650.818;  -11.861;26392.234
759.337;20134.578;  -11.461;26334.594
759.907;20015.049;  -15.001;27579.652
760.478;19666.693;   -9.681;28352.770
761.048;19021.857;  -12.421;27325.088
761.619;18186.711;  -11.761;26460.428
762.189;17126.330;  -12.391;26029.826
762.760;17202.490;  -10.201;26430.145
763.330;18425.695;  -10.811;26670.902
763.900;20287.969;  -10.261;26603.021
764.471;19300.543;  -13.061;25542.740
765.041;18476.645;  -11.051;24358.459
765.611;18535.643;  -11.032;23991.297
766.181;18289.176;  -10.532;24470.236
766.751;17761.947;  -13.502;24845.975
767.321;17436.275;  -11.392;24533.633
767.891;17622.127;  -11.522;24916.492
768.461;18375.359;  -13.672;24776.771
769.031;18057.893;  -14.652;24757.988
769.601;16973.676;  -10.182;24181.088
770.171;15252.694;  -11.752;23670.387
770.741;14695.047;  -12.272;22960.045
771.311;14879.498;  -13.112;22917.523
771.880;14915.309;  -14.122;23562.941
772.450;16142.632;  -11.782;24216.500
773.020;17061.676;  -12.642;24140.398
773.589;15804.768;  -13.043;24414.857
774.159;13980.135;  -11.783;23858.717
774.729;13728.860;  -13.473;22942.135
775.298;15251.336;  -14.523;22324.033
775.867;16166.575;  -12.013;21140.313
776.437;15246.354;  -12.113;20838.092
777.006;13772.741;  -13.543;20599.510
777.576;12270.491;  -12.523;20508.809
778.145;12474.942;  -12.173;20732.947
778.714;13573.509;  -12.153;21062.465
779.283;13981.813;  -11.833;20949.664
779.853;14348.163;  -13.483;20508.623
780.422;14674.635;  -12.933;20649.082
780.991;13903.900;  -13.173;21527.520
781.560;12631.631;  -10.224;22632.658
782.129;12609.511;  -12.684;23048.277
782.698;13902.021;  -11.284;23438.555
783.267;14650.061;  -11.684;23267.734
783.836;13663.516;  -10.974;22415.133
784.404;12704.946;  -13.534;20443.152
784.973;12778.685;  -16.734;19699.150
785.542;12655.658;  -12.594;19763.828
786.111;12279.416;  -11.644;20341.408
786.679;12769.158;  -11.384;20207.967
787.248;13329.522;  -12.014;19516.465
787.817;12312.097;  -12.804;18900.363
788.385;11156.061;  -11.994;17879.121
788.954;11169.807;  -12.564;17658.301
789.522;12153.152;  -12.225;17788.879
790.090;12145.726;  -13.775;18118.277
790.659;11379.938;  -12.485;18338.736
791.227;11276.336;  -12.295;18508.615
791.795;11459.285;  -13.415;17898.254
792.364;11058.630;  -12.995;17295.133
792.932;10709.662;   -8.365;16822.051
793.500;10757.924;  -11.925;17040.148
794.068;10798.690;  -13.245;17179.787
794.636;10636.469;  -13.815;16664.246
795.204;10160.653;  -13.375;16524.545
795.772;10296.615;  -12.125;17274.564
796.340;10692.470;  -13.855;17891.002
796.908;10752.727;  -13.456;17648.561
797.476;10183.234;  -13.116;17064.080
798.044; 9931.651;  -13.226;16672.777
798.612;10622.991;  -11.236;17023.996
799.180;11327.956;  -10.476;16561.615
799.747;11249.165;  -11.746;15962.773
800.315;10363.922;  -12.366;15296.992
800.883; 9630.928;  -14.616;14801.771
801.450; 9652.638;  -11.996;14534.430
802.018;10141.657;  -11.206;14173.248
802.585; 9315.196;  -12.466;14029.547
803.153; 8291.789;  -12.846;13836.846
803.720; 8075.116;  -12.136;13567.324
804.287; 8336.022;  -10.966;13360.622
804.855; 8815.913;   -9.797;13681.981
805.422; 8656.548;  -13.037;13536.560
805.989; 8390.064;  -12.697;13355.958
806.556; 8604.860;  -11.737;13747.896
807.124; 8922.170;  -11.997;13987.376
807.691; 8513.104;  -13.997;14038.674
808.258; 8444.544;  -10.927;14120.152
808.825; 8969.071;  -13.727;13860.111
809.392; 9275.320;  -11.847;13268.790
809.959; 8482.853;  -14.217;12680.389
810.526; 7736.747;   -8.277;12427.308
811.093; 7701.486;   -9.647;12030.105
811.659; 7512.227;  -10.987;11653.664
812.226; 7037.690;  -13.447;11637.183
812.793; 7205.804;  -14.418;11611.521
813.360; 7623.251;  -13.908;11885.181
813.926; 7670.794;  -12.918;12770.539
814.493; 7670.981;  -14.888;12677.638
815.060; 7741.443;  -12.758;11974.336
815.626; 7983.252;  -13.478;11594.715
816.193; 7929.292;  -13.898;11579.474
816.759; 7588.869;  -13.588;11666.972
817.325; 7435.085;  -12.018;11325.530
817.892; 6911.813;  -14.068;11105.369
818.458; 6373.045;  -13.458;10843.928
819.024; 6213.033;  -11.968;10714.406
819.591; 5962.638;  -11.028;10469.165
820.157; 5734.825;  -12.088;10235.523
820.723; 5597.205;  -12.599;10847.563
821.289; 5879.967;  -10.419;11040.980
821.855; 6561.254;  -10.939;10357.100
822.421; 7009.378;  -12.539; 9978.918
822.987; 6805.264;  -13.259; 9754.177
823.553; 6256.213;  -15.369;10065.755
824.119; 6026.185;  -10.779;10036.294
824.685; 5618.134;   -9.999;10029.192
825.251; 5302.195;  -11.819;10199.230
825.816; 5099.885;  -13.369; 9820.189
826.382; 5249.753;  -12.679; 9297.248
826.948; 5365.846;  -11.199; 9381.347
827.513; 5202.052;  -11.179; 9450.726
828.079; 5220.517;  -13.489; 9472.444
828.645; 5490.944;  -12.500; 9292.643
829.210; 5647.584;  -15.120; 9065.341
829.776; 5489.735;  -12.590; 9132.620
830.341; 5348.052;  -11.540; 9092.878
830.906; 5439.974;  -12.400; 9078.557
831.472; 5335.405;  -12.720; 8534.535
832.037; 4831.921;  -11.490; 8677.874
832.602; 4401.136;  -14.380; 8628.692
833.167; 4610.115;  -12.780; 8879.031
833.733; 4914.336;  -11.100; 9189.790
834.298; 5168.978;  -12.080; 9052.608
834.863; 5012.248;  -13.910; 8895.087
835.428; 4732.987;  -13.470; 8824.266
835.993; 5032.646;  -11.760; 8845.385
836.558; 5448.011;  -12.731; 8888.563
837.123; 5454.857;  -12.431; 8966.582
837.688; 5149.541;  -11.241; 8617.860
838.253; 4828.830;  -13.681; 8590.699
838.817; 4702.429;  -12.531; 8443.797
839.382; 4960.187;  -12.671; 8799.356
839.947; 4894.017;  -11.541; 8810.595
840.511; 4714.345;  -12.021; 8796.394
841.076; 4638.859;  -13.071; 8347.231
841.641; 4467.545;  -11.411; 8224.330
842.205; 4341.717;  -13.671; 8223.349
842.770; 4395.961;  -11.291; 8622.107
843.334; 4475.835;  -12.951; 8410.386
843.898; 4460.775;  -11.221; 8337.465
844.463; 4359.340;  -11.322; 8506.283
845.027; 4069.142;  -11.412; 8280.962
845.591; 3866.007;  -11.512; 8231.141
846.156; 4078.976;  -14.042; 7969.179
846.720; 4323.002;  -12.152; 7768.278
847.284; 4321.691;  -10.922; 7630.957
847.848; 4058.741;  -10.962; 7472.395
848.412; 3769.626;  -14.612; 7437.394
848.976; 3800.741;  -11.492; 7674.592
849.540; 3856.408;   -9.172; 7836.011
850.104; 4209.957;  -11.232; 7913.669
850.668; 4455.606;  -15.182; 7694.508
851.232; 4093.892;  -15.332; 7756.887
851.796; 3913.851;  -13.703; 7926.545
852.359; 3982.632;  -11.113; 7827.844
852.923; 3814.079;  -11.843; 7641.163
853.487; 3609.959;  -11.173; 7342.501
854.050; 3437.671;  -13.443; 7042.820
854.614; 3382.418;  -13.823; 7151.338
855.177; 3528.551;  -16.393; 7105.077
855.741; 3638.195;  -11.693; 6989.675
856.304; 3619.024;  -10.843; 6596.634
856.868; 3517.107;  -13.783; 6356.272
857.431; 3314.799;  -11.953; 6468.571
857.995; 3194.935;  -13.683; 6373.210
858.558; 3142.251;  -11.433; 6324.448
859.121; 3109.686;  -12.493; 6408.327
859.684; 3188.389;  -12.384; 6347.886
860.247; 3208.720;  -14.774; 6321.264
860.810; 3021.265;  -13.154; 6301.903
861.374; 2859.977;  -11.264; 6607.881
861.937; 2793.686;  -15.424; 6408.200
862.500; 2829.089;  -12.854; 6572.639
863.062; 2881.208;  -12.344; 6387.297
863.625; 2896.868;  -13.314; 6190.836
864.188; 2770.628;  -14.724; 5807.254
864.751; 2701.697;  -13.464; 5682.413
865.314; 2670.061;  -11.684; 5547.492
865.876; 2687.498;  -11.104; 5500.150
866.439; 2760.811;  -12.344; 5415.909
867.002; 2750.083;  -13.494; 5501.567
867.564; 2732.725;  -10.935; 5413.946
868.127; 2654.582;  -12.665; 5160.325
868.689; 2574.974;  -14.515; 5133.183
869.252; 2586.535;  -13.425; 5252.382
869.814; 2627.883;  -11.595; 5297.141
870.377; 2629.516;  -12.175; 5390.919
870.939; 2515.051;  -10.265; 5599.898
871.501; 2425.139;  -12.375; 5248.336
872.063; 2384.658;  -14.355; 4854.235
872.626; 2377.238;  -14.435; 4817.074
873.188; 2282.737;  -12.415; 4987.732
873.750; 2220.160;  -14.555; 4868.651
874.312; 2235.352;  -11.185; 4779.330
874.874; 2206.440;  -12.715; 4866.348
875.436; 2107.339;  -13.196; 4718.887
875.998; 1995.188;  -11.426; 4660.005
876.560; 1926.642;   -9.786; 4462.964
877.122; 1905.603;  -12.796; 4145.042
877.683; 1815.959;  -13.226; 4056.481
878.245; 1674.483;  -12.036; 3950.740
878.807; 1567.295;  -11.536; 4058.958
879.369; 1609.093;  -10.806; 3954.677
879.930; 1761.856;  -13.946; 3941.495
880.492; 1811.557;  -11.876; 4067.014
881.053; 1652.465;  -13.216; 3859.633
881.615; 1543.905;  -12.226; 3776.071
882.176; 1489.649;  -12.946; 3734.750
882.738; 1471.942;  -10.736; 3678.489
883.299; 1425.712;  -12.057; 3405.407
883.860; 1345.412;  -12.677; 3351.106
884.422; 1295.820;  -14.097; 3394.044
884.983; 1245.006;  -13.667; 3166.443
885.544; 1193.157;  -10.717; 3189.802
886.105; 1133.916;  -14.357; 3160.360
886.666; 1071.471;  -14.287; 3093.059
887.227; 1009.318;  -14.297; 2941.957
887.788;  957.120;  -13.137; 2974.836
888.349;  893.877;  -14.637; 2721.214
888.910;  848.585;  -12.247; 2696.493
889.471;  849.748;  -10.577; 2560.172
890.032;  856.347;  -12.937; 2558.190
890.593;  858.802;  -12.487; 2567.669
891.153;  837.796;  -11.898; 2460.307
891.714;  804.290;  -14.278; 2372.046
892.275;  776.479;  -13.308; 2309.505
892.835;  712.642;  -12.058; 2382.543
893.396;  634.712;  -15.268; 2295.502
893.956;  595.636;  -13.278; 2162.420
894.517;  575.711;  -11.968; 2125.439
895.077;  576.081;  -12.798; 2086.978
895.638;  553.248;  -11.908; 2126.316
896.198;  527.676;  -13.288; 1838.275
896.758;  504.373;  -12.198; 1892.813
897.319;  479.941;  -13.048; 1792.232
897.879;  446.184;  -13.718; 1762.751
898.439;  406.434;  -14.138; 1661.149
898.999;  381.787;  -13.659; 1781.468
899.559;  372.162;  -14.699; 1703.347
900.119;  353.500;  -14.339; 1537.525
900.679;  331.756;  -11.789; 1638.384
901.239;  304.583;  -13.629; 1527.902
901.799;  284.922;  -13.679; 1456.441
902.359;  274.856;  -13.679; 1357.140
902.919;  267.268;  -14.159; 1331.118
903.479;  254.267;  -13.419; 1317.257
904.038;  239.067;  -14.899; 1262.595
904.598;  226.306;  -14.339; 1152.034
905.158;  217.947;  -13.959; 1240.893
905.717;  211.525;  -12.749; 1233.691
906.277;  207.730;  -11.889; 1217.330
906.836;  202.110;  -12.870; 1222.408
907.396;  196.739;  -11.790; 1193.047
907.955;  187.542;  -13.750; 1182.526
908.515;  178.464;  -14.760; 1099.364
909.074;  174.372;  -12.540; 1092.863
909.633;  171.177;  -12.120; 1069.121
910.192;  165.258;  -12.550; 1196.460
910.752;  159.587;  -12.760; 1029.960
911.311;  157.642;  -14.750; 1009.780
911.870;  155.485;  -13.860;  971.460
912.429;  155.697;  -13.480; 1094.080
912.988;  155.454;  -12.370; 1081.060
913.547;  152.427;  -14.670;  940.380
914.106;  150.784;  -12.800;  999.420
914.665;  148.034;  -11.370;  984.020
915.224;  145.003;  -11.430; 1035.760
915.782;  142.783;  -12.260;  922.560
916.341;  142.632;  -12.540; 1049.840
916.900;  138.635;  -12.540;  925.260
917.458;  138.023;  -13.480;  884.220
918.017;  137.712;  -12.470;  942.600
918.576;  137.136;  -13.450;  904.440
919.134;  135.775;  -12.890;  837.980
919.693;  133.986;  -15.480;  893.060
920.251;  134.014;  -14.420;  876.500
920.809;  133.291;  -12.170;  839.580
921.368;  131.844;  -13.650;  885.360
921.926;  129.866;  -12.750;  842.940
922.484;  130.254;  -14.150;  903.360
923.042;  129.677;  -15.100;  880.340
923.601;  131.749;  -10.990;  998.680
924.159;  131.975;  -12.470;  935.560
924.717;  131.990;  -15.640;  841.080
925.275;  133.014;  -12.380;  903.240
925.833;  132.360;  -12.710;  779.320
926.391;  134.379;  -11.200;  938.380
926.949;  135.286;  -16.000;  857.680
927.506;  137.440;  -12.260;  903.500
928.064;  138.437;  -11.300;  877.580
928.622;  137.940;  -13.750;  880.100
929.180;  137.584;  -15.290;  814.180
929.737;  139.716;  -14.500;  808.540
930.295;  141.394;  -10.630;  928.480
930.853;  141.151;  -14.590;  849.100
931.410;  143.308;  -14.450;  821.120
931.968;  146.194;  -14.390;  940.660
932.525;  147.340;  -13.050;  909.380
933.082;  150.800;  -15.620;  811.440
933.640;  160.286;  -15.650;  925.900
934.197;  164.372;  -13.610;  886.360
934.754;  165.363;  -13.320;  897.780
935.312;  163.911;  -13.370;  863.340
935.869;  169.139;  -12.780; 1012.980
936.426;  169.549;  -14.480;  872.800
936.983;  171.603;  -13.180;  889.020
937.540;  172.161;  -15.710;  838.280
938.097;  171.739;  -14.980;  940.120
938.654;  170.269;  -13.060;  898.860
939.211;  169.614;  -12.760;  952.480
939.768;  171.150;  -16.230;  915.420
940.324;  176.048;  -10.940;  904.200
940.881;  179.844;  -12.570;  878.500
941.438;  181.148;  -13.650; 1021.200
941.995;  177.911;  -13.300;  992.560
942.551;  176.376;  -15.800;  875.620
943.108;  174.673;  -14.180;  937.920
943.664;  168.738;  -13.890;  869.340
944.221;  167.886;  -12.640; 1088.140
944.777;  168.393;  -14.700;  869.680
945.334;  172.400;  -13.010;  884.840
945.890;  172.846;  -13.480;  946.480
946.446;  169.898;  -14.920;  947.020
947.003;  171.109;  -13.860;  964.940
947.559;  171.717;  -12.000; 1063.040
948.115;  168.513;  -10.510; 1026.540
948.671;  166.434;  -12.760;  967.300
949.227;  164.842;  -15.390;  859.560
949.783;  161.850;  -15.570;  858.900
950.339;  160.880;  -12.800;  991.000
950.895;  157.908;  -13.780; 1023.840
951.451;  154.419;  -13.810;  925.280
952.007;  153.089;  -12.390;  998.540
952.563;  150.103;  -11.980;  937.780
953.118;  147.180;  -14.070;  904.940
953.674;  146.916;  -14.140;  935.780
954.230;  147.661;  -12.680;  949.640
954.785;  148.450;  -12.770;  936.640
955.341;  148.871;  -11.450;  998.160
955.897;  144.507;  -15.350;  834.660
956.452;  144.334;  -14.200;  953.840
957.008;  143.684;  -10.820; 1083.640
957.563;  139.610;  -13.200; 1009.540
958.118;  135.172;  -14.460;  877.700
958.674;  137.045;  -13.840;  946.780
959.229;  138.749;  -10.670; 1013.980
959.784;  139.551;  -17.040;  832.400
960.339;  140.949;  -12.970; 1001.280
960.894;  141.253;  -12.700;  963.760
961.449;  139.815;  -13.790;  859.960
962.004;  143.913;  -11.760; 1212.840
962.559;  141.668;  -14.840;  860.140
963.114;  141.410;  -14.530;  742.480
963.669;  142.341;  -12.780;  915.500
964.224;  139.497;  -14.330;  874.340
964.779;  135.451;  -14.380;  828.420
965.334;  133.667;  -12.460; 1017.860
965.888;  130.873;  -13.490;  875.360
966.443;  130.006;  -14.140;  972.380
966.998;  126.424;  -16.240;  819.460
967.552;  125.011;  -12.730;  908.380
968.107;  121.906;  -14.510;  868.300
968.661;  122.566;  -11.850;  922.440
969.216;  121.645;  -14.370;  856.280
969.770;  120.327;  -13.010;  917.200
970.324;  117.916;  -12.460;  923.140
970.879;  117.167;  -11.580;  947.180
971.433;  117.729;  -13.130;  952.720
971.987;  115.865;  -12.360;  895.340
972.541;  114.566;  -14.330;  917.100
973.095;  114.884;  -13.310; 1009.460
973.649;  113.980;  -15.830;  809.480
974.203;  116.390;  -15.830;  829.040
974.757;  117.423;  -13.480;  855.220
975.311;  115.503;  -13.720;  872.600
975.865;  114.460;  -15.780;  881.820
976.419;  111.809;  -14.290;  857.400
976.973;  109.903;  -13.210;  849.620
977.526;  108.698;  -12.300;  949.920
978.080;  105.466;  -14.840;  796.780
978.634;  105.151;  -13.100;  921.320
979.187;  101.311;  -12.300;  905.400
979.741;   98.582;  -12.020; 1018.380
980.294;   93.246;  -14.590;  789.160
980.848;   90.194;  -14.390;  717.220
981.401;   91.044;  -14.280;  816.540
981.955;   90.035;  -11.920;  844.300
982.508;   87.050;  -15.790;  746.340
983.061;   87.450;  -12.070;  915.260
983.615;   85.112;  -13.260;  798.800
984.168;   82.153;  -15.540;  770.080
984.721;   83.089;  -13.230;  880.760
985.274;   81.341;  -11.820;  867.500
985.827;   79.331;  -13.510;  834.220
986.380;   75.452;  -14.840;  721.340
986.933;   76.375;  -13.970;  864.800
987.486;   75.411;  -12.450;  861.920
988.039;   73.710;  -11.170;  863.100
988.591;   71.390;  -13.070;  893.260
989.144;   67.304;  -15.530;  737.260
989.697;   65.314;  -14.300;  758.740
990.250;   65.927;  -13.310;  858.100
990.802;   64.266;  -14.490;  755.860
991.355;   64.869;  -12.980;  974.880
991.907;   63.706;  -13.715;  864.320
992.460;   62.543;  -14.450;  753.760
993.012;   61.387;  -12.590;  749.540
993.565;   60.334;  -15.180;  711.360
994.117;   60.993;  -11.630;  950.780
994.669;   57.746;  -13.760;  701.320
995.221;   56.296;  -12.710;  791.920
995.774;   56.589;  -14.620;  787.580
996.326;   55.921;  -13.150;  740.220
996.878;   55.617;  -12.880;  838.420
997.430;   54.011;  -14.580;  699.860
997.982;   53.848;  -14.030;  750.140
998.534;   53.451;  -12.190;  739.060
999.086;   51.170;  -12.990;  738.220
999.638;   50.456;  -13.180;  661.380
1000.190;   49.944;  -14.970;  699.320
1000.741;   50.217;  -12.200;  742.700
1001.293;   50.187;  -13.400;  686.020
1001.845;   48.968;  -14.490;  676.640
1002.396;   49.305;  -15.280;  743.400
1002.948;   48.988;  -12.380;  737.400
1003.500;   47.071;  -13.260;  723.780
1004.051;   48.739;  -13.730;  907.580
1004.603;   48.389;  -12.300;  791.820
1005.154;   44.166;  -15.330;  608.980
1005.705;   43.292;  -12.800;  723.960
1006.257;   42.138;  -13.900;  707.220
1006.808;   41.687;  -14.430;  685.460
1007.359;   41.438;  -12.010;  763.240
1007.910;   39.602;  -12.690;  646.640
1008.461;   39.165;  -13.610;  732.940
1009.013;   37.565;  -14.990;  588.340
1009.564;   40.000;  -11.860;  793.520
1010.115;   36.225;  -12.640;  597.040
1010.665;   36.588;  -14.570;  602.160
1011.216;   36.597;  -15.190;  667.920
1011.767;   37.180;  -13.470;  697.920
1012.318;   37.381;  -13.760;  736.980
1012.869;   35.263;  -15.950;  679.000
1013.419;   36.083;  -15.880;  603.120
1013.970;   35.346;  -14.540;  666.640
1014.521;   34.786;  -13.220;  620.620
1015.071;   34.439;  -15.020;  670.380
1015.622;   34.825;  -17.510;  635.460
1016.172;   34.280;  -14.130;  596.820
1016.723;   33.533;  -14.220;  614.380
1017.273;   33.275;  -15.370;  604.160
1017.823;   33.777;  -15.290;  650.340
1018.374;   33.595;  -13.420;  611.760
1018.924;   33.317;  -11.740;  716.880
1019.474;   33.270;  -12.250;  718.880
1020.024;   32.522;  -15.850;  657.580
1020.574;   33.310;  -13.280;  726.160
1021.124;   32.257;  -13.560;  673.580
1021.674;   30.738;  -13.790;  559.120
1022.224;   32.672;  -14.610;  708.940
1022.774;   32.363;  -13.100;  668.820
1023.324;   32.745;  -11.470;  753.520
1023.874;   33.567;  -11.990;  875.760
1024.423;   31.081;  -14.550;  613.700
1024.973;   30.790;  -14.440;  610.760
1025.523;   29.581;  -13.250;  620.960
1026.072;   29.277;  -15.200;  606.420
1026.622;   29.587;  -14.590;  675.740
1027.172;   30.722;  -11.080;  715.660
1027.721;   28.315;  -14.010;  601.220
1028.270;   29.198;  -13.690;  663.400
1028.820;   29.378;  -15.380;  638.080
1029.369;   28.820;  -14.980;  612.700
1029.918;   28.765;  -13.100;  649.840
1030.468;   27.348;  -13.680;  564.780
1031.017;   28.476;  -13.770;  634.800
1031.566;   27.381;  -14.100;  608.900
1032.115;   28.037;  -11.770;  694.500
1032.664;   26.819;  -14.940;  596.480
1033.213;   28.657;  -13.370;  735.420
1033.762;   27.512;  -13.660;  635.620
1034.311;   26.896;  -13.650;  677.220
1034.860;   27.300;  -13.820;  691.000
1035.408;   27.639;  -12.860;  722.720
1035.957;   28.303;  -13.060;  719.540
1036.506;   24.636;  -14.510;  530.800
1037.055;   27.759;  -13.470;  844.320
1037.603;   25.730;  -14.800;  664.000
1038.152;   24.552;  -14.190;  534.760
1038.700;   25.345;  -11.810;  585.740
1039.249;   25.111;  -12.850;  681.220
1039.797;   25.642;  -14.610;  633.360
1040.345;   25.549;  -15.220;  705.420
1040.894;   24.384;  -13.480;  625.300
1041.442;   23.685;  -13.310;  632.200
1041.990;   23.669;  -14.510;  559.160
1042.538;   22.974;  -15.700;  536.180
1043.087;   22.918;  -13.910;  570.860
1043.635;   24.454;  -13.620;  670.500
1044.183;   23.377;  -14.230;  586.400
1044.731;   23.801;  -13.730;  576.000
1045.279;   23.022;  -13.970;  674.920
1045.827;   25.939;  -10.750;  892.400
1046.374;   21.707;  -15.230;  515.420
1046.922;   21.753;  -15.390;  590.580
1047.470;   23.267;  -12.320;  691.300
1048.018;   22.753;  -13.230;  647.960
1048.565;   23.802;  -13.390;  708.600
1049.113;   22.142;  -15.030;  557.000
1049.660;   22.005;  -12.540;  629.660
1050.208;   21.544;  -15.040;  675.640
1050.755;   21.556;  -14.680;  606.580
1051.303;   22.325;  -13.610;  686.820
1051.850;   20.990;  -14.340;  635.120
1052.397;   18.304;  -16.330;  473.960
1052.945;   20.307;  -15.710;  617.760
1053.492;   22.241;  -12.320;  741.840
1054.039;   21.722;  -13.730;  720.180
1054.586;   20.084;  -16.140;  557.240
1055.133;   21.067;  -14.020;  693.140
1055.680;   21.147;  -13.430;  646.620
1056.227;   19.521;  -14.570;  542.780
1056.774;   21.481;  -14.400;  794.980
1057.321;   18.920;  -14.230;  523.260
1057.868;   20.274;  -14.220;  651.320
1058.415;   19.714;  -14.060;  651.980
1058.961;   19.235;  -14.640;  678.940
1059.508;   19.588;  -13.970;  643.820
1060.055;   19.436;  -15.100;  581.780
1060.601;   20.463;  -12.180;  624.300
1061.148;   18.401;  -15.010;  616.820
1061.694;   18.100;  -14.750;  592.580
1062.241;   19.298;  -14.130;  596.320
1062.787;   18.308;  -14.770;  663.140
1063.334;   20.330;  -13.130;  808.560
1063.880;   18.624;  -14.420;  668.360
1064.426;   18.926;  -13.130;  706.820
1064.972;   17.300;  -13.960;  601.340
1065.518;   16.471;  -13.680;  566.640
1066.065;   18.094;  -15.720;  624.460
1066.611;   17.379;  -13.970;  598.800
1067.157;   17.370;  -13.920;  641.860
1067.703;   17.403;  -14.760;  668.480
1068.249;   17.505;  -14.490;  605.220
1068.794;   17.070;  -14.740;  626.880
1069.340;   16.431;  -13.220;  578.960
1069.886;   16.259;  -14.930;  590.700
1070.432;   15.671;  -14.700;  541.720
1070.977;   16.673;  -14.470;  601.080
1071.523;   16.158;  -14.330;  573.060
1072.068;   15.560;  -14.960;  582.000
1072.614;   15.656;  -16.220;  527.760
1073.160;   17.447;  -11.280;  687.040
1073.705;   15.294;  -15.990;  572.520
1074.250;   14.865;  -16.550;  559.900
1074.796;   16.621;  -14.600;  655.160
1075.341;   16.618;  -13.440;  664.100
1075.886;   15.056;  -14.450;  594.240
1076.431;   15.482;  -13.160;  649.880
1076.976;   15.398;  -14.710;  639.220
1077.521;   15.149;  -14.000;  583.080
1078.067;   13.890;  -14.470;  579.400
1078.612;   13.911;  -14.530;  661.620
1079.156;   14.511;  -15.660;  601.540
1079.701;   15.423;  -16.120;  693.260
1080.246;   15.316;  -12.960;  696.300
1080.791;   13.812;  -13.700;  625.020
1081.336;   14.684;  -15.540;  659.320
1081.880;   15.128;  -14.640;  649.680
1082.425;   13.519;  -14.220;  573.480
1082.970;   14.896;  -11.890;  717.040
1083.514;   13.469;  -13.820;  597.000
1084.059;   13.267;  -14.280;  586.720
1084.603;   12.575;  -12.890;  565.840
1085.147;   12.761;  -13.590;  645.220
1085.692;   14.452;  -14.050;  716.800
1086.236;   11.713;  -14.990;  503.140
1086.780;   14.796;  -12.640;  751.440
1087.325;   12.820;  -15.550;  654.620
1087.869;   13.101;  -14.980;  610.700
1088.413;   13.997;  -13.440;  705.040
1088.957;   11.526;  -12.170;  543.400
1089.501;   13.631;  -12.730;  766.640
1090.045;   13.822;  -14.650;  726.480
1090.589;   11.121;  -14.500;  569.920
1091.133;   12.322;  -12.320;  673.340
1091.676;   11.859;  -16.130;  591.940
1092.220;   11.789;  -13.930;  600.920
1092.764;   13.439;  -12.820;  706.960
1093.307;   12.327;  -11.700;  673.780
1093.851;   10.208;  -15.600;  556.540
1094.395;   11.873;  -13.920;  683.140
1094.938;   11.828;  -16.090;  632.520
1095.482;   10.273;  -13.820;  559.800
1096.025;   11.662;  -12.720;  710.880
1096.568;   12.123;  -12.100;  779.280
1097.112;    9.514;  -15.450;  508.180
1097.655;   10.445;  -14.310;  603.000
1098.198;    9.098;  -14.740;  600.180
1098.741;    9.741;  -15.550;  612.860
1099.285;   11.134;  -12.600;  657.300
1099.828;    8.894;  -15.050;  439.400
1100.371;    9.463;  -14.800;  608.160
1100.914;   10.574;  -16.480;  682.660
1101.457;   11.024;  -12.990;  679.900
1101.999;    8.661;  -14.110;  584.680
1102.542;    9.649;  -11.450;  641.440
1103.085;    9.943;  -13.350;  658.500
1103.628;   11.005;  -13.200;  762.060
1104.170;    9.240;  -12.310;  588.280
1104.713;    9.069;  -14.320;  646.700
1105.256;    8.262;  -16.110;  557.440
1105.798;    7.907;  -15.910;  499.980
1106.341;    9.726;  -12.200;  728.900
1106.883;    8.085;  -14.910;  521.340
1107.425;    9.973;  -14.960;  668.180
1107.968;    9.117;  -13.440;  612.380
1108.510;    9.547;  -14.010;  684.960
1109.052;    6.693;  -15.430;  612.620
1109.594;    7.633;  -15.290;  554.440
1110.136;    8.677;  -13.360;  643.220
1110.679;    8.079;  -13.820;  633.080
1111.221;    8.229;  -13.690;  604.460
1111.763;    7.942;  -14.890;  559.220
1112.304;    7.736;  -14.550;  547.140
1112.846;    7.912;  -12.760;  666.240
1113.388;   11.278;  -10.780;  942.180
1113.930;    8.040;  -12.690;  694.200
1114.472;    8.187;  -15.730;  606.540
1115.013;    5.971;  -14.620;  551.280
1115.555;    6.108;  -14.950;  587.100
1116.097;    5.783;  -16.460;  579.480
1116.638;    7.726;  -13.730;  684.600
1117.180;    7.479;  -13.810;  667.740
1117.721;    6.427;  -13.280;  568.580
1118.262;    7.083;  -15.080;  677.960
1118.804;    8.197;  -14.040;  637.340
1119.345;    5.892;  -15.430;  578.400
1119.886;    6.735;  -15.240;  704.040
1120.427;    5.974;  -15.820;  589.020
1120.969;    6.222;  -14.550;  597.920
1121.510;    5.590;  -14.030;  563.060
1122.051;    6.524;  -11.990;  723.580
1122.592;    5.502;  -16.490;  655.420
1123.133;    4.994;  -15.580;  547.940
1123.673;    6.015;  -12.850;  706.480
1124.214;    5.013;  -13.630;  612.460
1124.755;    5.749;  -14.830;  639.460
1125.296;    6.264;  -13.110;  627.320
1125.836;    6.460;  -11.320;  691.500
1126.377;    5.189;  -14.330;  599.660
1126.918;    6.601;  -12.800;  614.980
1127.458;    4.796;  -13.580;  622.220
1127.999;    5.454;  -10.330;  656.980
1128.539;    5.303;  -13.390;  694.240
1129.079;    4.853;  -16.420;  632.720
1129.620;    4.856;  -15.700;  558.100
1130.160;    3.763;  -14.790;  539.480
1130.700;    4.386;  -12.910;  640.840
1131.240;    5.197;  -15.610;  643.700
1131.781;    5.278;  -12.920;  619.680
1132.321;    3.925;  -15.300;  599.120
1132.861;    3.076;  -14.760;  564.200
1133.401;    4.429;  -15.470;  593.940
1133.941;    4.842;  -13.710;  626.280
1134.481;    3.828;  -11.820;  597.580
1135.020;    3.250;  -14.810;  609.160
1135.560;    4.401;  -13.660;  674.940
1136.100;    3.071;  -13.940;  501.160
1136.640;    3.069;  -15.410;  510.480
1137.179;    2.631;  -16.920;  537.960
1137.719;    3.351;  -16.430;  605.400
1138.258;    3.652;  -16.300;  587.360
1138.798;    4.197;  -13.710;  663.780
1139.337;    1.382;  -13.840;  482.840
1139.877;    3.713;  -16.140;  642.360
1140.416;    6.226;  -11.410;  878.060
1140.955;    2.991;  -12.820;  535.380
1141.494;    4.028;  -12.310;  669.280
1142.034;    2.736;  -16.280;  583.520
1142.573;    3.857;  -13.090;  646.280
1143.112;    1.989;  -13.770;  553.480
1143.651;    1.651;  -15.830;  536.480
1144.190;    3.193;  -15.010;  691.640
1144.729;    3.659;  -13.650;  607.420
1145.267;    2.739;  -13.670;  584.900
1145.806;    2.635;  -13.630;  637.040
1146.345;    2.260;  -14.160;  635.020
1146.884;    2.555;  -11.180;  622.500
1147.422;    1.185;  -15.890;  533.060
1147.961;    3.125;  -12.760;  708.460
1148.500;    2.587;  -15.220;  669.720
1149.038;    2.856;  -13.720;  632.500
1149.577;    2.768;  -13.250;  698.640
1150.115;   -0.295;  -16.790;  452.280
1150.653;    1.990;  -15.810;  607.340
1151.192;    2.739;  -14.730;  552.920
1151.730;    1.837;  -13.660;  652.560
1152.268;    1.049;  -15.120;  589.520
1152.806;    1.043;  -15.580;  571.180
1153.344;    1.045;  -16.210;  577.640
1153.882;    1.560;  -12.810;  600.060
1154.421;   -0.720;  -14.150;  470.620
1154.958;    0.333;  -15.360;  595.240
1155.496;    2.191;  -14.710;  645.280
1156.034;    1.660;  -13.640;  721.880
1156.572;    2.186;  -13.740;  667.060
1157.110;   -0.176;  -16.960;  473.940
1157.647;    1.380;  -11.940;  676.960
1158.185;   -0.111;  -14.090;  564.320
1158.723;   -1.006;  -13.610;  509.200
1159.260;    1.238;  -14.760;  701.700
1159.798;    1.335;  -13.700;  658.160
1160.335;    0.230;  -13.820;  631.820

