
Integration time [ms]:   3.882
Averaging Nr. [scans]: 1000
Smoothing Nr. [pixels]: 0
Data measured with spectrometer [name]: 7414430SP
Wave   ;Sample   ;Dark     ;Reference
[nm]   ;[counts] ;[counts] ;[counts] 

288.544;  125.920;   10.292;  793.890
289.143;  129.493;    4.564;  681.602
289.742;  131.390;    6.144;  828.814
290.341;  119.004;    4.396;  789.841
290.940;  109.858;    0.938;  730.702
291.538;  110.163;   -0.684;  881.108
292.137;  109.533;   -2.845;  792.581
292.736;  113.616;   -0.144;  975.101
293.335;  110.331;   -6.352;  735.086
293.934;  111.465;   -7.642;  781.677
294.532;  111.895;   -4.992; 1031.958
295.131;   97.364;   -5.478;  834.394
295.730;   97.533;   -6.549;  809.588
296.328;   94.334;   -9.558;  783.442
296.927;   95.595;   -8.118;  779.652
297.525;   96.559;   -6.908;  781.236
298.124;   86.169;   -9.195;  654.009
298.722;   90.936;   -8.198;  761.933
299.321;   89.441;   -8.817;  708.597
299.919;   87.930;   -7.716;  751.918
300.518;   83.914;  -10.745;  689.338
301.116;   85.432;   -9.647;  691.381
301.715;   85.315;  -10.828;  730.222
302.313;   84.339;   -6.087;  704.943
302.911;   79.940;   -6.824;  733.830
303.509;   86.184;   -8.807;  925.627
304.108;   82.768;   -8.198;  760.383
304.706;   82.595;   -6.218;  801.664
305.304;   77.531;   -7.185;  796.707
305.902;   83.924;   -8.568;  784.484
306.500;   79.237;   -7.737;  728.200
307.098;   76.886;   -6.026;  746.560
307.696;   74.929;   -7.176;  780.432
308.294;   76.165;   -8.656;  731.359
308.892;   77.969;   -6.838;  759.769
309.490;   73.687;   -2.596;  712.161
310.088;   72.181;   -4.485;  788.444
310.686;   76.948;   -3.907;  821.749
311.284;   72.422;   -2.806;  766.040
311.882;   70.001;   -2.845;  731.225
312.480;   67.180;   -3.274;  697.167
313.078;   69.657;   -3.645;  808.331
313.675;   70.853;   -4.997;  691.600
314.273;   64.839;   -0.894;  797.837
314.871;   64.684;   -2.854;  589.829
315.468;   62.358;   -3.644;  652.090
316.066;   66.244;   -3.947;  694.427
316.664;   58.529;   -1.824;  656.351
317.261;   63.532;    1.565;  910.128
317.859;   59.016;   -3.955;  768.735
318.456;   60.673;   -2.886;  830.096
319.054;   56.220;   -0.995;  787.828
319.651;   55.901;   -1.765;  759.928
320.249;   55.235;   -3.685;  810.188
320.846;   52.980;   -3.736;  714.286
321.443;   50.744;   -2.065;  832.135
322.041;   48.172;   -5.635;  812.315
322.638;   46.507;   -5.985;  701.456
323.235;   48.088;   -6.677;  665.683
323.833;   45.892;   -3.497;  740.354
324.430;   41.415;   -6.756;  615.900
325.027;   43.144;   -7.647;  876.855
325.624;   43.361;   -7.598;  644.532
326.221;   41.158;   -5.848;  689.717
326.818;   39.934;   -5.777;  818.332
327.415;   42.710;   -8.769;  748.828
328.012;   41.805;   -6.299;  690.585
328.609;   40.429;   -6.639;  731.389
329.206;   38.527;   -6.358;  778.621
329.803;   37.907;   -8.698;  737.841
330.400;   38.514;   -8.379;  704.260
330.997;   40.765;   -6.178;  817.147
331.594;   37.944;   -5.646;  788.185
332.191;   42.750;   -6.928;  728.722
332.787;   44.609;   -6.057;  844.463
333.384;   42.233;   -6.445;  763.093
333.981;   39.559;   -8.002;  815.687
334.578;   41.803;   -8.443;  708.378
335.174;   43.958;   -6.053;  731.469
335.771;   44.163;   -5.791;  836.456
336.367;   41.279;   -6.570;  710.631
336.964;   42.797;   -6.741;  793.266
337.561;   44.620;   -5.710;  731.112
338.157;   40.743;   -3.928;  911.916
338.754;   35.448;   -5.577;  796.589
339.350;   35.081;   -9.667;  722.493
339.946;   39.606;   -5.269;  773.135
340.543;   30.913;   -4.485;  846.136
341.139;   25.009;   -7.584;  720.836
341.735;   22.624;   -8.553;  772.593
342.332;   22.703;   -4.984;  691.472
342.928;   23.757;   -3.475;  795.394
343.524;   18.506;   -6.653;  761.684
344.120;   14.156;   -7.173;  738.562
344.716;   17.633;   -4.385;  723.717
345.313;   15.787;   -3.565;  795.342
345.909;   10.503;   -7.495;  627.336
346.505;   12.897;   -8.276;  740.247
347.101;   14.489;   -5.697;  827.864
347.697;   15.557;   -4.767;  785.398
348.293;    9.347;   -7.226;  627.244
348.889;    9.810;   -7.547;  745.914
349.485;    9.676;   -9.147;  688.205
350.081;   10.850;   -6.568;  772.592
350.676;    6.104;   -6.516;  691.606
351.272;   10.835;   -7.378;  809.530
351.868;   10.369;   -6.759;  780.497
352.464;    8.320;   -4.798;  723.932
353.059;    3.984;   -7.977;  646.017
353.655;    7.904;   -8.769;  777.063
354.251;    8.541;   -5.920;  759.845
354.846;    3.530;   -7.647;  740.646
355.442;    1.347;   -6.956;  753.071
356.038;    3.455;   -9.928;  751.708
356.633;    3.381;   -7.698;  728.594
357.229;    0.781;   -6.307;  724.757
357.824;   -0.318;   -7.647;  703.600
358.420;   -1.470;  -10.047;  679.726
359.015;   -0.279;   -7.458;  695.357
359.610;    1.258;   -5.748;  763.920
360.206;   -5.271;   -9.346;  603.240
360.801;   -2.955;  -11.268;  646.503
361.396;   -0.157;   -8.789;  725.975
361.992;   -4.354;   -6.347;  668.220
362.587;   -7.886;   -6.476;  670.160
363.182;   -4.699;   -9.457;  689.631
363.777;   -3.574;   -7.147;  738.242
364.372;   -3.705;   -5.507;  737.314
364.967;   -7.250;   -6.386;  680.744
365.563;   -3.649;   -7.858;  815.567
366.158;   -6.161;   -8.517;  685.161
366.753;   -5.999;   -8.728;  649.263
367.348;   -7.447;   -7.677;  746.056
367.942;   -6.729;  -10.387;  697.298
368.537;   -8.664;   -7.187;  754.245
369.132;   -7.782;   -8.587;  703.428
369.727;  -12.454;   -8.606;  638.079
370.322;  -10.616;  -10.426;  580.186
370.917;  -10.587;   -5.776;  710.646
371.511;   -7.668;   -6.007;  861.834
372.106;  -11.306;   -6.686;  776.964
372.701;  -14.442;   -9.335;  585.988
373.296;   -8.179;   -6.777;  863.135
373.890;  -12.761;   -7.546;  647.840
374.485;  -15.813;   -8.755;  691.199
375.079;  -11.026;   -9.797;  738.685
375.674;   -9.535;   -6.327;  812.970
376.268;  -14.021;   -9.046;  691.759
376.863;  -20.338;   -7.993;  580.327
377.457;  -13.390;   -9.206;  662.490
378.052;  -15.206;   -5.345;  764.884
378.646;  -15.800;   -5.605;  741.167
379.240;  -17.269;   -6.825;  721.176
379.835;  -15.246;  -10.476;  636.978
380.429;  -17.830;   -8.676;  562.557
381.023;  -16.752;   -4.945;  779.205
381.617;  -19.561;   -8.094;  680.106
382.212;  -16.045;  -10.646;  685.303
382.806;  -14.911;   -8.136;  760.690
383.400;  -18.782;   -7.855;  672.281
383.994;  -20.134;   -8.125;  664.870
384.588;  -16.037;   -7.637;  697.701
385.182;  -14.579;   -7.458;  726.624
385.776;  -15.758;   -6.277;  706.875
386.370;  -19.163;   -7.485;  681.968
386.964;  -17.734;   -9.416;  684.155
387.558;  -16.327;   -8.518;  598.360
388.152;  -19.791;   -7.096;  681.959
388.745;  -17.512;   -7.656;  814.707
389.339;  -15.274;   -8.927;  747.642
389.933;  -15.399;   -9.538;  695.370
390.527;  -16.386;   -5.857;  859.029
391.120;  -22.327;   -9.455;  595.318
391.714;  -19.009;   -9.746;  711.633
392.308;  -15.916;   -7.857;  780.253
392.901;  -19.390;   -9.106;  642.460
393.495;  -21.370;  -10.365;  595.414
394.089;  -19.368;   -9.696;  760.452
394.682;  -19.237;   -7.016;  697.188
395.275;  -19.998;   -8.466;  719.927
395.869;  -21.906;   -8.985;  667.314
396.462;  -20.060;  -11.496;  616.609
397.056;  -15.263;   -7.838;  776.621
397.649;  -20.454;   -6.895;  731.575
398.242;  -18.114;   -5.017;  712.645
398.836;  -16.203;   -8.787;  766.408
399.429;  -18.256;   -8.967;  631.041
400.022;  -21.256;   -8.815;  665.902
400.615;  -18.233;   -6.276;  805.609
401.208;  -16.452;   -8.407;  691.451
401.802;  -19.144;   -7.296;  699.329
402.395;  -21.008;   -7.585;  683.502
402.988;  -21.201;   -8.015;  696.627
403.581;  -17.912;   -9.577;  646.878
404.174;  -15.057;   -7.588;  686.568
404.767;  -18.169;   -7.906;  638.583
405.360;  -21.424;   -7.875;  621.445
405.953;  -14.486;   -8.127;  759.034
406.545;  -14.245;   -7.198;  725.342
407.138;  -18.676;   -8.916;  618.350
407.731;  -17.809;   -9.767;  613.303
408.324;  -13.646;  -10.659;  660.554
408.917;  -14.474;   -8.068;  681.864
409.509;  -16.368;   -9.837;  740.396
410.102;  -18.262;   -8.146;  643.948
410.695;  -12.550;   -7.969;  665.758
411.287;  -12.819;   -8.579;  599.821
411.880;  -14.458;   -6.968;  585.421
412.472;  -17.235;   -9.487;  613.092
413.065;  -14.251;  -10.338;  629.408
413.657;  -11.911;   -9.169;  576.678
414.250;  -11.724;  -10.119;  646.681
414.842;  -13.638;   -9.938;  676.353
415.434;  -11.011;  -10.409;  570.463
416.027;   -7.378;   -9.591;  652.196
416.619;   -9.274;   -7.379;  713.400
417.211;   -9.452;   -9.159;  599.352
417.804;   -5.935;   -9.191;  628.499
418.396;  -10.012;   -8.159;  607.643
418.988;   -7.695;   -6.960;  659.238
419.580;  -10.961;  -11.389;  568.276
420.172;   -8.982;  -13.460;  536.196
420.764;   -4.204;  -10.701;  672.482
421.356;   -5.701;   -8.961;  636.898
421.948;   -6.316;   -9.770;  677.661
422.540;   -1.509;   -8.832;  680.027
423.132;   -1.559;   -8.153;  600.641
423.724;   -5.506;   -8.481;  561.267
424.316;   -3.080;   -9.261;  621.345
424.908;    0.161;   -9.643;  591.517
425.500;    1.294;   -8.663;  647.978
426.092;    1.772;   -8.503;  648.268
426.683;    0.375;  -10.522;  684.836
427.275;    3.390;  -11.734;  641.471
427.867;    5.663;  -10.264;  668.948
428.458;    6.230;   -7.644;  732.344
429.050;    4.253;   -7.853;  680.749
429.642;    6.003;   -8.904;  743.124
430.233;    6.363;  -10.795;  569.356
430.825;    8.438;   -7.665;  724.809
431.416;    5.355;   -8.843;  698.241
432.008;    9.326;   -9.885;  651.723
432.599;    9.655;   -9.966;  656.073
433.190;    6.335;   -9.164;  637.670
433.782;    6.463;   -8.584;  590.395
434.373;   14.832;   -8.296;  884.765
434.964;   12.790;   -9.896;  602.920
435.556;   10.255;   -8.255;  634.537
436.147;   12.830;   -8.075;  758.490
436.738;   12.481;   -9.716;  701.099
437.329;   17.911;   -7.318;  721.723
437.920;   11.288;   -6.694;  666.688
438.511;   10.986;   -9.644;  564.526
439.103;   17.603;   -9.427;  623.998
439.694;   20.174;  -10.748;  681.583
440.285;   21.013;   -7.997;  764.432
440.876;   18.865;  -10.046;  845.738
441.466;   17.663;  -13.467;  575.162
442.057;   23.362;   -9.329;  665.814
442.648;   22.470;   -7.707;  746.255
443.239;   20.462;   -9.017;  620.477
443.830;   25.970;  -10.279;  704.958
444.421;   27.488;  -12.630;  655.474
445.011;   23.758;   -8.697;  693.619
445.602;   23.595;   -7.787;  743.126
446.193;   26.402;  -13.329;  488.117
446.783;   30.546;   -9.171;  640.397
447.374;   25.949;   -7.457;  692.759
447.964;   26.639;   -9.277;  713.770
448.555;   34.850;   -9.041;  822.742
449.145;   31.072;   -8.969;  662.853
449.736;   32.122;   -6.809;  803.179
450.326;   32.061;   -7.229;  713.626
450.917;   36.606;  -11.391;  675.324
451.507;   35.867;   -9.501;  600.661
452.097;   36.890;   -8.460;  746.267
452.688;   38.074;  -10.080;  742.160
453.278;   36.343;  -12.861;  566.840
453.868;   42.147;   -8.372;  793.550
454.458;   40.002;   -8.131;  651.141
455.048;   40.445;   -8.520;  711.783
455.639;   41.615;  -13.632;  567.096
456.229;   45.631;  -10.143;  710.694
456.819;   47.566;   -9.163;  751.158
457.409;   48.601;   -8.652;  773.993
457.999;   50.948;   -9.933;  737.505
458.589;   50.573;  -10.363;  686.606
459.179;   50.081;  -10.633;  717.658
459.769;   48.190;  -12.442;  627.099
460.358;   53.836;   -9.844;  797.262
460.948;   53.034;   -9.924;  689.503
461.538;   55.083;  -10.484;  660.677
462.128;   53.024;  -10.703;  664.934
462.717;   59.272;  -11.486;  710.326
463.307;   62.556;  -10.767;  705.846
463.897;   59.107;   -8.814;  656.942
464.486;   57.774;   -8.182;  837.128
465.076;   61.990;   -9.985;  733.776
465.666;   65.663;  -10.447;  652.900
466.255;   63.792;   -7.754;  785.651
466.845;   62.822;  -10.884;  666.749
467.434;   66.367;  -12.525;  725.873
468.023;   66.763;  -11.456;  658.357
468.613;   64.231;   -9.173;  713.946
469.202;   69.180;   -9.306;  646.507
469.791;   73.284;   -8.917;  737.811
470.381;   74.009;   -9.657;  742.813
470.970;   75.296;   -9.947;  711.099
471.559;   75.465;   -9.256;  733.291
472.148;   77.440;  -13.397;  675.737
472.738;   79.629;   -9.928;  765.466
473.327;   79.906;  -10.897;  637.529
473.916;   78.877;   -8.526;  737.446
474.505;   82.750;  -11.078;  751.703
475.094;   86.415;   -9.559;  806.570
475.683;   85.586;   -8.838;  797.699
476.272;   86.145;  -10.198;  730.632
476.861;   88.966;  -11.489;  706.754
477.449;   96.298;  -10.721;  728.487
478.038;   90.238;   -9.818;  692.513
478.627;   90.964;   -9.887;  714.852
479.216;   97.575;  -10.030;  769.441
479.805;  100.781;   -9.401;  783.375
480.393;  101.162;   -5.739; 1008.945
480.982;   99.314;   -7.838;  874.501
481.571;  106.430;   -9.111;  858.333
482.159;  106.126;  -10.601;  705.386
482.748;  105.704;   -8.500;  821.385
483.336;  110.551;   -9.241;  858.209
483.925;  111.274;  -10.440;  774.373
484.513;  117.941;  -11.063;  758.962
485.102;  115.141;   -9.540;  810.965
485.690;  123.383;   -6.742; 1011.050
486.278;  125.381;   -8.442;  979.329
486.867;  126.383;  -10.472;  809.662
487.455;  128.309;   -8.811;  898.229
488.043;  128.889;  -10.721;  748.361
488.631;  139.448;  -10.393; 1005.079
489.220;  141.858;  -10.843;  908.626
489.808;  141.523;  -10.572;  741.415
490.396;  149.579;  -10.482;  914.645
490.984;  156.095;  -11.542;  830.161
491.572;  165.569;   -8.463;  940.315
492.160;  170.347;   -8.491;  919.081
492.748;  178.972;   -9.681;  884.341
493.336;  198.065;  -10.493; 1019.693
493.924;  223.296;   -9.354;  958.077
494.512;  251.992;   -9.132; 1066.638
495.100;  286.526;   -9.001; 1103.280
495.687;  335.066;  -11.924; 1206.373
496.275;  398.457;  -11.193; 1150.796
496.863;  493.014;   -9.241; 1281.171
497.451;  600.007;  -11.341; 1386.805
498.038;  691.442;  -11.364; 1556.729
498.626;  794.779;   -8.104; 1741.407
499.214;  962.179;   -8.842; 2016.609
499.801; 1145.808;  -10.112; 2220.633
500.389; 1333.040;  -11.953; 2312.494
500.976; 1567.374;  -10.023; 2744.849
501.564; 1849.590;   -8.662; 3148.565
502.151; 2199.186;  -10.531; 3515.999
502.738; 2555.480;  -13.853; 3971.274
503.326; 3066.915;  -10.794; 4403.796
503.913; 3605.549;   -8.663; 5161.749
504.500; 3934.189;  -10.172; 5986.420
505.088; 4241.446;  -13.472; 6381.201
505.675; 4908.110;  -10.924; 6925.547
506.262; 5657.530;   -8.551; 7619.060
506.849; 6448.896;  -10.523; 8733.969
507.436; 7106.796;  -10.834; 9790.121
508.023; 7336.939;   -9.093; 9985.472
508.610; 7724.446;  -10.073;10434.618
509.197; 8234.196;   -9.500;11198.435
509.784; 9465.603;  -13.242;12391.194
510.371;10224.188;  -10.964;13603.713
510.958;10086.146;   -9.772;14426.586
511.545;11094.585;   -7.842;15243.775
512.132;11403.238;  -12.184;15945.876
512.719;11556.317;   -9.733;16340.369
513.305;13313.923;   -9.172;18011.766
513.892;14868.664;   -9.581;19754.971
514.479;16642.781;  -10.253;20967.805
515.066;18752.996;   -8.183;22299.793
515.652;20054.100;   -9.253;22908.660
516.239;21074.406;   -9.412;23798.875
516.825;23402.563;  -11.153;25567.275
517.412;23469.525;  -10.263;28154.959
517.998;23780.254;   -8.802;28344.111
518.585;23408.027;  -10.401;27134.219
519.171;23188.887;  -12.744;27268.576
519.758;25017.377;  -11.793;28964.129
520.344;27295.262;   -8.912;30664.494
520.930;27127.133;  -10.901;32550.605
521.516;27807.301;  -12.034;35422.895
522.103;28819.889;  -10.473;38280.004
522.689;30274.691;   -8.311;37835.117
523.275;33843.285;  -10.691;37288.613
523.861;35339.180;  -11.193;37281.395
524.447;36118.301;  -11.484;37846.949
525.033;36118.852;   -7.702;38321.949
525.619;35870.172;  -11.241;38579.285
526.205;37221.223;  -12.152;40622.875
526.791;36983.742;  -11.423;42258.836
527.377;34401.383;   -7.981;42966.902
527.963;35001.223;   -9.450;42018.949
528.549;38725.801;  -11.351;42476.828
529.135;40438.496;  -10.202;41854.852
529.721;39425.074;   -8.672;41237.711
530.306;37711.703;   -9.111;41259.445
530.892;39121.809;  -11.252;41506.047
531.478;41379.254;  -10.432;43559.613
532.063;44211.059;  -10.721;47695.563
532.649;46302.781;   -7.450;50808.324
533.235;46806.133;  -11.811;51787.500
533.820;46905.531;   -9.383;52145.035
534.406;46202.695;   -9.400;51133.488
534.991;45308.703;   -8.861;49996.805
535.576;43713.738;  -10.612;48882.852
536.162;42048.156;   -7.322;46942.285
536.747;43086.824;   -9.360;45711.746
537.333;45355.223;  -10.450;48510.180
537.918;47093.105;  -12.610;50439.891
538.503;48418.844;  -12.132;50863.711
539.088;45926.699;  -10.831;50906.922
539.673;43342.773;  -11.220;52621.965
540.259;44981.926;  -11.481;52368.094
540.844;47963.176;  -11.462;50879.109
541.429;49513.758;   -7.869;52077.777
542.014;50385.602;  -11.859;52716.695
542.599;49829.719;  -11.061;52363.281
543.184;49304.504;  -12.300;53187.137
543.769;48758.719;   -9.369;54697.605
544.354;48681.234;  -12.020;53913.914
544.938;45767.879;  -10.350;49680.164
545.523;43297.883;  -10.841;47386.277
546.108;44951.156;   -8.579;49151.949
546.693;47286.684;   -8.818;51384.637
547.278;48313.035;  -11.331;51853.254
547.862;44921.531;  -10.292;51173.750
548.447;40936.168;   -8.349;51691.395
549.031;42112.406;  -10.838;52456.703
549.616;47618.383;  -11.681;52714.516
550.201;50812.305;  -11.140;52414.598
550.785;48820.305;   -8.649;52355.059
551.370;48395.879;  -11.889;54589.453
551.954;48358.645;  -11.239;58267.348
552.538;48054.688;   -8.850;59062.176
553.123;49213.969;  -10.829;58115.285
553.707;49301.418;   -8.887;56556.285
554.291;48311.566;  -10.430;56201.668
554.876;46365.020;   -9.799;55335.762
555.460;47347.574;  -10.018;54155.703
556.044;48682.711;   -7.307;53721.484
556.628;45747.094;  -12.229;53731.016
557.212;42628.266;   -9.820;54312.531
557.796;41988.918;   -9.109;53797.773
558.380;43989.598;   -9.707;56145.984
558.964;43042.438;  -10.980;57277.930
559.548;43037.270;  -12.010;56459.641
560.132;46415.426;   -7.928;54434.543
560.716;48055.980;  -10.247;54800.617
561.300;47919.422;  -11.250;57606.945
561.884;49754.418;  -10.568;58972.445
562.467;48349.258;   -9.727;57327.570
563.051;46981.094;  -11.847;54962.434
563.635;45663.141;  -10.747;52594.473
564.219;42330.023;  -13.108;50610.410
564.802;39279.516;  -11.417;49551.180
565.386;40359.500;  -10.457;48370.953
565.969;42111.004;   -8.959;48178.871
566.553;41403.918;  -10.328;49957.305
567.136;40048.070;  -10.257;50369.594
567.720;39872.453;  -10.186;49492.004
568.303;40182.145;  -10.027;50616.352
568.887;41083.457;  -10.397;50727.148
569.470;39459.285;   -8.185;51698.379
570.053;38529.246;  -11.596;52122.078
570.637;38324.457;  -11.378;52536.438
571.220;38170.035;   -9.138;51186.098
571.803;37399.887;   -7.675;51032.762
572.386;35918.102;   -8.976;49609.887
572.969;33508.523;  -12.477;48285.926
573.552;34423.145;   -9.767;47624.285
574.135;34963.105;   -8.175;45498.641
574.718;31699.760;  -11.096;41970.434
575.301;29878.066;  -11.966;41447.137
575.884;28056.375;  -12.836;40923.836
576.467;31858.111;   -9.116;45267.723
577.050;32651.063;  -10.536;48175.543
577.633;33564.137;  -11.027;47729.328
578.216;34395.469;   -9.946;47579.793
578.799;34042.789;   -9.645;47820.996
579.381;34594.305;   -9.446;48115.551
579.964;36015.723;  -12.217;47333.766
580.547;37317.234;  -10.586;46668.969
581.129;38092.414;   -8.374;44466.141
581.712;36184.477;  -10.434;44164.922
582.294;34110.887;  -10.896;46477.855
582.877;34231.805;   -8.906;48244.254
583.459;35058.191;   -9.994;47437.895
584.042;35633.602;  -10.084;46943.219
584.624;35709.305;  -13.534;46792.227
585.206;33655.078;  -12.716;46557.250
585.789;33607.086;  -11.614;45793.773
586.371;31513.557;  -10.203;43836.391
586.953;28120.846;  -10.314;42972.492
587.536;26910.533;   -9.776;42487.211
588.118;26563.012;   -9.821;42086.414
588.700;27727.785;  -10.073;43389.930
589.282;28989.982;  -12.395;43646.039
589.864;30677.480;  -11.514;43438.109
590.446;31926.896;  -10.803;43151.926
591.028;31666.389;  -11.043;42781.867
591.610;31921.113;  -13.244;42839.098
592.192;31663.684;  -11.095;42820.402
592.774;30159.545;  -10.823;40724.277
593.356;29319.400;  -11.052;39874.789
593.937;30746.342;  -11.664;39980.648
594.519;34418.926;  -10.454;42069.633
595.101;37089.977;  -10.322;42976.031
595.683;36254.637;  -10.042;44084.441
596.264;32641.414;  -14.334;43478.797
596.846;33832.508;  -10.863;43803.672
597.427;32835.340;   -9.901;42986.934
598.009;31392.932;  -10.911;42832.219
598.591;31863.217;  -10.483;42580.086
599.172;33455.836;   -9.663;43061.805
599.753;34628.230;  -10.631;41691.469
600.335;35074.234;   -9.371;40692.520
600.916;32944.711;  -13.992;39982.422
601.498;32304.193;   -8.352;40318.617
602.079;32939.168;   -8.411;40670.609
602.660;32723.283;  -10.841;41450.898
603.241;32261.586;  -12.963;41137.738
603.823;32603.568;  -11.523;38868.797
604.404;32310.596;  -11.881;38182.785
604.985;33266.660;  -11.721;38078.047
605.566;33238.258;   -9.293;38056.633
606.147;31813.869;  -10.940;37020.418
606.728;33424.160;  -11.840;37883.359
607.309;34543.660;  -11.781;38748.273
607.890;34853.199;  -11.262;38850.230
608.471;33027.805;  -10.111;37457.918
609.051;32628.713;   -7.709;36066.457
609.632;29928.086;  -12.409;35991.074
610.213;30112.031;  -10.811;37402.641
610.794;31569.416;  -11.630;38383.363
611.374;35112.926;   -8.030;40562.387
611.955;35378.730;  -10.809;38533.727
612.536;34036.391;  -10.531;36951.789
613.116;33918.477;  -12.820;37197.891
613.697;34913.426;  -11.419;38411.125
614.277;36113.434;   -9.768;38673.938
614.858;33082.355;  -10.251;37075.863
615.438;29604.369;  -11.981;35092.906
616.019;27371.928;   -8.978;33666.301
616.599;29718.131;  -12.219;34189.023
617.179;31891.299;  -14.170;36952.047
617.760;32723.779;   -9.211;39582.574
618.340;32883.152;   -9.018;38943.977
618.920;33158.660;   -9.249;37594.156
619.500;33149.480;  -12.728;37866.938
620.080;33612.953;  -12.939;37869.043
620.660;34576.781;  -11.586;36868.617
621.241;34058.387;  -11.538;36352.309
621.821;32773.719;  -11.398;35459.520
622.401;31404.656;  -10.179;35207.414
622.980;31367.762;  -11.587;35980.422
623.560;32848.711;  -12.888;37351.328
624.140;31250.504;  -13.149;34388.582
624.720;27136.816;   -9.928;32368.764
625.300;26714.729;  -10.869;32638.629
625.880;29471.443;   -8.617;34599.035
626.459;30639.893;  -12.138;36831.738
627.039;33086.945;  -12.267;38299.098
627.619;36293.895;   -7.476;38289.574
628.198;37841.578;  -11.347;37220.695
628.778;35328.785;  -11.678;37632.563
629.357;32751.332;  -12.438;38003.012
629.937;31959.748;   -9.576;38402.039
630.516;31740.881;  -11.096;37868.801
631.096;32728.328;  -11.828;35760.410
631.675;33986.711;  -11.565;35225.219
632.254;34528.430;  -11.845;35130.289
632.834;36018.820;  -11.545;35794.570
633.413;35482.457;  -10.887;35788.922
633.992;34989.570;  -10.175;34532.863
634.571;35629.414;   -9.704;33590.113
635.151;34165.828;  -10.815;34943.863
635.730;32799.500;  -11.617;35352.523
636.309;32519.410;  -10.836;35366.605
636.888;33087.766;   -9.755;36165.637
637.467;33190.629;  -11.684;37515.902
638.046;33442.527;  -11.987;39288.695
638.625;33065.457;  -10.455;38279.699
639.204;32838.426;  -11.234;37741.598
639.782;33699.371;  -12.023;38364.551
640.361;31985.365;  -11.506;36740.621
640.940;28936.721;  -12.316;34950.082
641.519;26885.428;  -11.616;34137.398
642.097;29024.037;   -9.266;35654.258
642.676;32858.832;  -12.936;35637.957
643.255;33564.863;   -9.966;36567.074
643.833;34112.418;   -8.916;37809.434
644.412;32159.395;  -10.936;37337.293
644.990;31440.973;  -12.176;37018.531
645.569;32348.996;  -12.246;36518.469
646.147;35160.203;  -12.107;36186.430
646.726;37848.121;  -12.937;36267.688
647.304;34906.250;  -12.547;36647.625
647.882;33831.488;  -12.597;39286.742
648.461;33101.563;   -9.427;39157.703
649.039;33121.703;   -8.937;35412.883
649.617;33895.238;  -11.067;34744.918
650.195;32311.025;  -10.657;35403.098
650.773;29723.582;  -10.097;35053.797
651.352;29214.430;  -11.887;33756.816
651.930;28204.809;  -13.557;31868.773
652.508;28191.936;  -11.767;33121.551
653.086;30986.938;  -10.777;33564.793
653.663;33722.367;  -12.067;34054.668
654.241;36295.750;  -14.918;35693.309
654.819;35978.242;  -11.788;36422.906
655.397;33933.488;  -11.268;38213.484
655.975;32120.732;  -11.738;39507.625
656.553;30256.547;  -11.018;39498.223
657.130;29040.984;  -12.848;40395.480
657.708;27864.400;  -10.098;39242.020
658.286;28899.363;  -11.678;38920.020
658.863;31561.121;  -11.498;40202.898
659.441;34378.020;  -11.008;39677.938
660.018;36283.887;  -11.048;40413.355
660.596;37094.117;  -12.058;39931.414
661.173;37572.809;  -14.158;39604.531
661.750;36838.359;  -12.298;39700.070
662.328;36226.301;  -10.699;39292.809
662.905;35614.754;  -12.119;38235.648
663.482;31800.947;  -11.829;36212.305
664.060;28059.486;  -11.009;35944.945
664.637;31246.063;  -10.369;35170.785
665.214;33849.621;  -10.459;34197.523
665.791;33086.766;  -12.599;34549.520
666.368;30530.957;  -12.919;35118.578
666.945;28802.119;  -10.699;36019.418
667.522;29924.059;  -11.359;36048.438
668.099;30532.178;  -13.529;36243.914
668.676;29223.398;  -10.229;35958.875
669.253;28817.730;   -9.279;37384.730
669.830;28449.275;  -11.370;36779.629
670.407;28251.572;  -10.950;35231.289
670.984;29243.857;  -12.850;35544.270
671.560;28067.098;   -8.440;35466.867
672.137;28901.371;  -13.520;34280.863
672.714;30432.762;  -13.620;34632.863
673.290;30928.561;  -10.450;35135.422
673.867;29977.607;  -10.960;36114.480
674.443;30949.252;  -13.300;36152.859
675.020;29211.086;  -12.370;35327.238
675.596;28550.830;  -11.250;35795.176
676.173;29197.039;  -11.080;35430.355
676.749;28962.650;  -13.220;33549.516
677.326;29926.393;  -13.000;32210.012
677.902;29766.186;  -12.701;32068.871
678.478;28382.957;  -12.801;32583.891
679.054;29120.053;   -8.601;32088.928
679.631;30230.121;  -12.631;30978.848
680.207;31162.412;   -9.451;33160.887
680.783;30589.807;  -11.701;35570.363
681.359;30953.248;  -12.701;36125.184
681.935;32913.145;  -13.271;35240.922
682.511;34986.090;  -10.791;34429.961
683.087;32928.836;  -10.791;34463.680
683.663;29481.004;   -8.121;34648.898
684.239;27162.785;  -13.261;34546.457
684.815;27759.746;  -10.581;35586.375
685.390;29702.367;   -9.961;35821.895
685.966;29278.340;  -11.182;35085.871
686.542;28422.912;  -13.512;34198.230
687.118;26444.551;  -11.472;32847.707
687.693;25349.941;  -10.152;32794.027
688.269;25740.016;  -14.442;33072.367
688.844;24825.145;  -11.852;33141.664
689.420;23814.492;  -13.942;33965.742
689.995;25066.121;   -9.702;34655.523
690.571;26818.305;  -11.312;33576.742
691.146;26961.566;  -14.332;32657.219
691.722;26668.844;  -11.192;32526.979
692.297;27533.990;  -10.962;33014.617
692.872;28989.068;  -11.082;34012.254
693.448;29754.756;  -14.732;34237.434
694.023;29054.248;  -12.363;34142.672
694.598;27204.381;  -12.393;34132.031
695.173;27817.020;  -11.023;34205.250
695.748;29365.797;  -12.743;32882.488
696.323;28723.576;  -11.103;32864.906
696.898;27961.037;   -8.123;33170.004
697.473;27658.086;  -12.603;32432.984
698.048;27999.203;  -12.553;31649.303
698.623;29399.545;  -12.573;30778.141
699.198;29201.414;  -12.743;31140.119
699.773;28436.650;  -12.843;31764.299
700.348;28800.623;  -16.683;31780.816
700.922;29898.670;  -11.403;32046.375
701.497;31553.164;  -11.253;32603.574
702.072;31048.020;  -10.044;34799.871
702.646;30432.592;  -13.054;35793.172
703.221;31019.951;  -11.414;35201.590
703.795;30365.369;  -10.644;34764.527
704.370;28460.635;  -13.484;34307.367
704.944;27545.930;  -12.144;33509.887
705.519;27010.330;  -12.024;31388.584
706.093;28713.457;  -11.234;31340.104
706.668;29918.533;   -9.874;32630.281
707.242;29036.988;  -12.404;32728.779
707.816;27321.938;  -10.644;32947.238
708.390;26811.969;  -11.174;33277.855
708.965;26757.389;  -10.324;33834.336
709.539;27314.035;  -12.014;33709.273
710.113;27713.471;  -12.295;33044.313
710.687;29342.963;  -10.965;31953.992
711.261;31403.340;  -13.685;30505.949
711.835;29899.512;  -15.335;30262.369
712.409;28579.506;  -13.785;31254.447
712.983;28748.260;  -10.525;32754.986
713.557;27039.717;  -13.175;34018.824
714.131;26828.879;  -13.245;34579.625
714.704;29996.848;  -13.175;33890.262
715.278;32391.486;  -11.545;33531.102
715.852;30904.801;  -10.975;33601.660
716.425;29159.203;  -10.075;33515.117
716.999;29401.932;  -12.185;33185.555
717.573;31733.510;   -9.685;33905.996
718.146;32719.355;  -10.516;35199.293
718.720;31409.334;  -12.106;35060.551
719.293;29770.432;  -12.386;34973.230
719.867;29663.215;  -12.456;36394.449
720.440;29528.703;  -10.686;36663.008
721.013;29738.002;  -12.596;35102.426
721.587;31313.205;  -13.956;33985.266
722.160;33328.715;   -9.806;33524.965
722.733;33946.035;  -11.676;32987.043
723.306;33364.902;  -14.276;33066.301
723.880;31119.869;  -12.126;33399.500
724.453;28698.172;  -10.156;33468.297
725.026;28299.215;  -12.956;33816.637
725.599;28430.789;  -11.676;32797.996
726.172;28866.523;  -12.337;33187.434
726.745;29092.762;  -11.277;35136.613
727.318;29074.975;  -11.927;35751.730
727.891;28302.992;  -13.607;35890.430
728.463;26004.768;  -11.327;34822.090
729.036;25807.338;  -11.917;32895.086
729.609;27544.141;  -12.697;31823.225
730.182;28464.627;  -11.787;31445.283
730.754;28130.063;  -12.957;32373.223
731.327;27804.361;  -11.017;33676.820
731.900;27452.258;  -12.797;33417.000
732.472;26844.078;  -10.677;31978.498
733.045;26275.561;  -12.797;30368.777
733.617;26318.855;  -13.908;30574.215
734.190;25190.602;  -12.258;31280.975
734.762;25227.514;  -13.438;31674.412
735.334;26453.027;  -11.758;31247.291
735.907;29266.006;  -11.158;29876.211
736.479;32714.957;  -11.258;29808.488
737.051;33236.910;  -10.918;30233.547
737.623;32116.025;  -11.038;31469.086
738.195;33289.785;  -12.188;31784.225
738.768;31054.338;  -11.378;32120.523
739.340;25225.332;  -12.598;32094.342
739.912;23388.631;  -11.568;31312.680
740.484;25154.273;   -9.348;31946.238
741.056;27819.324;  -12.628;32984.059
741.628;29805.021;  -13.349;33897.715
742.199;28737.982;  -11.309;33213.016
742.771;28899.992;  -12.699;31369.113
743.343;29906.818;  -11.919;31865.473
743.915;29861.926;  -11.679;32388.631
744.487;28356.416;  -12.249;31079.568
745.058;26048.973;  -11.119;30570.107
745.630;24840.955;   -9.439;29970.127
746.201;24069.289;  -11.949;29186.766
746.773;24173.936;  -12.639;28805.723
747.344;25349.572;  -11.039;29591.223
747.916;27482.381;  -12.549;31412.201
748.487;26445.988;  -12.659;32194.898
749.059;24720.307;  -13.059;32533.719
749.630;23981.994;  -12.080;32158.518
750.201;22411.525;  -13.100;30855.395
750.773;21622.061;  -15.310;28622.555
751.344;21292.027;  -12.240;28405.732
751.915;21357.371;  -11.960;28461.551
752.486;20418.324;  -13.200;27842.850
753.057;19110.703;  -15.230;27845.008
753.628;20260.352;  -13.130;27728.107
754.199;22758.500;  -12.720;27381.086
754.770;22961.020;  -10.680;25882.203
755.341;21579.605;  -11.010;25886.184
755.912;21037.537;  -12.990;26050.861
756.483;20471.883;  -11.110;26798.779
757.054;20035.779;  -12.190;27048.238
757.625;19986.900;  -13.981;26294.838
758.195;20088.527;  -11.041;26142.076
758.766;21202.785;  -11.861;26392.234
759.337;21625.869;  -11.461;26334.594
759.907;20968.410;  -15.001;27579.652
760.478;19779.154;   -9.681;28352.770
761.048;18609.695;  -12.421;27325.088
761.619;19455.617;  -11.761;26460.428
762.189;20035.969;  -12.391;26029.826
762.760;19436.572;  -10.201;26430.145
763.330;20009.592;  -10.811;26670.902
763.900;20573.855;  -10.261;26603.021
764.471;19553.945;  -13.061;25542.740
765.041;18139.473;  -11.051;24358.459
765.611;18002.367;  -11.032;23991.297
766.181;18158.824;  -10.532;24470.236
766.751;18547.629;  -13.502;24845.975
767.321;19736.996;  -11.392;24533.633
767.891;21500.010;  -11.522;24916.492
768.461;22768.084;  -13.672;24776.771
769.031;20361.215;  -14.652;24757.988
769.601;17516.693;  -10.182;24181.088
770.171;16295.093;  -11.752;23670.387
770.741;15335.622;  -12.272;22960.045
771.311;15081.526;  -13.112;22917.523
771.880;16070.611;  -14.122;23562.941
772.450;16794.314;  -11.782;24216.500
773.020;16971.336;  -12.642;24140.398
773.589;16116.915;  -13.043;24414.857
774.159;15547.199;  -11.783;23858.717
774.729;16375.753;  -13.473;22942.135
775.298;17167.645;  -14.523;22324.033
775.867;16750.543;  -12.013;21140.313
776.437;16052.543;  -12.113;20838.092
777.006;15696.525;  -13.543;20599.510
777.576;16349.548;  -12.523;20508.809
778.145;16580.166;  -12.173;20732.947
778.714;15891.132;  -12.153;21062.465
779.283;15097.236;  -11.833;20949.664
779.853;15229.675;  -13.483;20508.623
780.422;15383.068;  -12.933;20649.082
780.991;14882.266;  -13.173;21527.520
781.560;14600.404;  -10.224;22632.658
782.129;15060.330;  -12.684;23048.277
782.698;15146.394;  -11.284;23438.555
783.267;15034.182;  -11.684;23267.734
783.836;14769.856;  -10.974;22415.133
784.404;14340.749;  -13.534;20443.152
784.973;13569.340;  -16.734;19699.150
785.542;12443.485;  -12.594;19763.828
786.111;12045.414;  -11.644;20341.408
786.679;13099.389;  -11.384;20207.967
787.248;13405.104;  -12.014;19516.465
787.817;12249.247;  -12.804;18900.363
788.385;10958.664;  -11.994;17879.121
788.954;11255.595;  -12.564;17658.301
789.522;12275.406;  -12.225;17788.879
790.090;12346.210;  -13.775;18118.277
790.659;12157.935;  -12.485;18338.736
791.227;12856.314;  -12.295;18508.615
791.795;13518.383;  -13.415;17898.254
792.364;13985.436;  -12.995;17295.133
792.932;13778.524;   -8.365;16822.051
793.500;12688.169;  -11.925;17040.148
794.068;12775.284;  -13.245;17179.787
794.636;13577.445;  -13.815;16664.246
795.204;13614.761;  -13.375;16524.545
795.772;13372.924;  -12.125;17274.564
796.340;12513.095;  -13.855;17891.002
796.908;10866.742;  -13.456;17648.561
797.476; 9998.938;  -13.116;17064.080
798.044;10223.348;  -13.226;16672.777
798.612;10567.253;  -11.236;17023.996
799.180;10484.556;  -10.476;16561.615
799.747;10097.875;  -11.746;15962.773
800.315; 9664.683;  -12.366;15296.992
800.883; 9065.513;  -14.616;14801.771
801.450; 9181.981;  -11.996;14534.430
802.018;10052.682;  -11.206;14173.248
802.585;10492.681;  -12.466;14029.547
803.153; 9982.526;  -12.846;13836.846
803.720; 9343.142;  -12.136;13567.324
804.287; 9502.831;  -10.966;13360.622
804.855; 9659.784;   -9.797;13681.981
805.422; 8877.219;  -13.037;13536.560
805.989; 8154.046;  -12.697;13355.958
806.556; 8320.062;  -11.737;13747.896
807.124; 9031.220;  -11.997;13987.376
807.691; 8826.322;  -13.997;14038.674
808.258; 8212.409;  -10.927;14120.152
808.825; 8465.480;  -13.727;13860.111
809.392; 8535.560;  -11.847;13268.790
809.959; 8500.867;  -14.217;12680.389
810.526; 8472.003;   -8.277;12427.308
811.093; 8608.616;   -9.647;12030.105
811.659; 8654.109;  -10.987;11653.664
812.226; 8055.468;  -13.447;11637.183
812.793; 7573.631;  -14.418;11611.521
813.360; 7726.104;  -13.908;11885.181
813.926; 8203.193;  -12.918;12770.539
814.493; 8427.935;  -14.888;12677.638
815.060; 8006.782;  -12.758;11974.336
815.626; 7706.843;  -13.478;11594.715
816.193; 7670.175;  -13.898;11579.474
816.759; 7786.185;  -13.588;11666.972
817.325; 7772.792;  -12.018;11325.530
817.892; 7407.637;  -14.068;11105.369
818.458; 7434.103;  -13.458;10843.928
819.024; 7329.505;  -11.968;10714.406
819.591; 7094.359;  -11.028;10469.165
820.157; 7160.172;  -12.088;10235.523
820.723; 7242.859;  -12.599;10847.563
821.289; 6912.073;  -10.419;11040.980
821.855; 6681.082;  -10.939;10357.100
822.421; 6660.073;  -12.539; 9978.918
822.987; 6623.291;  -13.259; 9754.177
823.553; 6437.896;  -15.369;10065.755
824.119; 6308.943;  -10.779;10036.294
824.685; 6313.485;   -9.999;10029.192
825.251; 6170.318;  -11.819;10199.230
825.816; 6101.300;  -13.369; 9820.189
826.382; 5956.414;  -12.679; 9297.248
826.948; 5490.038;  -11.199; 9381.347
827.513; 5288.709;  -11.179; 9450.726
828.079; 5380.492;  -13.489; 9472.444
828.645; 5482.722;  -12.500; 9292.643
829.210; 5478.769;  -15.120; 9065.341
829.776; 5436.748;  -12.590; 9132.620
830.341; 5565.160;  -11.540; 9092.878
830.906; 5942.297;  -12.400; 9078.557
831.472; 5935.935;  -12.720; 8534.535
832.037; 5220.761;  -11.490; 8677.874
832.602; 4552.952;  -14.380; 8628.692
833.167; 4274.539;  -12.780; 8879.031
833.733; 4484.262;  -11.100; 9189.790
834.298; 4833.835;  -12.080; 9052.608
834.863; 4681.884;  -13.910; 8895.087
835.428; 4409.092;  -13.470; 8824.266
835.993; 4228.110;  -11.760; 8845.385
836.558; 4364.429;  -12.731; 8888.563
837.123; 4485.877;  -12.431; 8966.582
837.688; 4306.507;  -11.241; 8617.860
838.253; 4120.317;  -13.681; 8590.699
838.817; 4246.658;  -12.531; 8443.797
839.382; 4410.088;  -12.671; 8799.356
839.947; 4496.401;  -11.541; 8810.595
840.511; 4626.172;  -12.021; 8796.394
841.076; 4688.324;  -13.071; 8347.231
841.641; 4886.669;  -11.411; 8224.330
842.205; 5108.935;  -13.671; 8223.349
842.770; 4996.529;  -11.291; 8622.107
843.334; 4718.324;  -12.951; 8410.386
843.898; 4480.616;  -11.221; 8337.465
844.463; 4547.833;  -11.322; 8506.283
845.027; 4530.582;  -11.412; 8280.962
845.591; 4278.036;  -11.512; 8231.141
846.156; 4131.623;  -14.042; 7969.179
846.720; 4183.894;  -12.152; 7768.278
847.284; 3994.058;  -10.922; 7630.957
847.848; 3800.447;  -10.962; 7472.395
848.412; 3587.456;  -14.612; 7437.394
848.976; 3591.633;  -11.492; 7674.592
849.540; 3876.143;   -9.172; 7836.011
850.104; 4080.353;  -11.232; 7913.669
850.668; 4003.116;  -15.182; 7694.508
851.232; 3872.734;  -15.332; 7756.887
851.796; 3819.618;  -13.703; 7926.545
852.359; 3880.865;  -11.113; 7827.844
852.923; 3972.923;  -11.843; 7641.163
853.487; 3940.004;  -11.173; 7342.501
854.050; 3815.648;  -13.443; 7042.820
854.614; 3774.792;  -13.823; 7151.338
855.177; 3704.083;  -16.393; 7105.077
855.741; 3657.566;  -11.693; 6989.675
856.304; 3635.325;  -10.843; 6596.634
856.868; 3531.938;  -13.783; 6356.272
857.431; 3313.507;  -11.953; 6468.571
857.995; 3068.053;  -13.683; 6373.210
858.558; 3036.407;  -11.433; 6324.448
859.121; 3156.910;  -12.493; 6408.327
859.684; 3096.044;  -12.384; 6347.886
860.247; 2769.624;  -14.774; 6321.264
860.810; 2502.406;  -13.154; 6301.903
861.374; 2493.177;  -11.264; 6607.881
861.937; 2563.161;  -15.424; 6408.200
862.500; 2555.578;  -12.854; 6572.639
863.062; 2538.190;  -12.344; 6387.297
863.625; 2536.646;  -13.314; 6190.836
864.188; 2623.683;  -14.724; 5807.254
864.751; 2815.387;  -13.464; 5682.413
865.314; 3168.387;  -11.684; 5547.492
865.876; 3399.076;  -11.104; 5500.150
866.439; 3350.254;  -12.344; 5415.909
867.002; 3167.029;  -13.494; 5501.567
867.564; 2891.724;  -10.935; 5413.946
868.127; 2691.865;  -12.665; 5160.325
868.689; 2645.632;  -14.515; 5133.183
869.252; 2694.388;  -13.425; 5252.382
869.814; 2858.945;  -11.595; 5297.141
870.377; 2965.160;  -12.175; 5390.919
870.939; 2858.581;  -10.265; 5599.898
871.501; 2724.786;  -12.375; 5248.336
872.063; 2643.036;  -14.355; 4854.235
872.626; 2566.092;  -14.435; 4817.074
873.188; 2474.606;  -12.415; 4987.732
873.750; 2494.814;  -14.555; 4868.651
874.312; 2424.231;  -11.185; 4779.330
874.874; 2231.704;  -12.715; 4866.348
875.436; 2136.263;  -13.196; 4718.887
875.998; 2124.745;  -11.426; 4660.005
876.560; 2032.931;   -9.786; 4462.964
877.122; 1967.252;  -12.796; 4145.042
877.683; 1944.180;  -13.226; 4056.481
878.245; 1929.702;  -12.036; 3950.740
878.807; 1925.560;  -11.536; 4058.958
879.369; 1913.970;  -10.806; 3954.677
879.930; 1819.508;  -13.946; 3941.495
880.492; 1671.757;  -11.876; 4067.014
881.053; 1633.051;  -13.216; 3859.633
881.615; 1695.511;  -12.226; 3776.071
882.176; 1736.699;  -12.946; 3734.750
882.738; 1682.967;  -10.736; 3678.489
883.299; 1612.264;  -12.057; 3405.407
883.860; 1577.941;  -12.677; 3351.106
884.422; 1537.030;  -14.097; 3394.044
884.983; 1427.935;  -13.667; 3166.443
885.544; 1276.774;  -10.717; 3189.802
886.105; 1163.503;  -14.357; 3160.360
886.666; 1136.288;  -14.287; 3093.059
887.227; 1141.227;  -14.297; 2941.957
887.788; 1129.876;  -13.137; 2974.836
888.349; 1041.026;  -14.637; 2721.214
888.910;  956.036;  -12.247; 2696.493
889.471;  945.923;  -10.577; 2560.172
890.032;  941.285;  -12.937; 2558.190
890.593;  892.811;  -12.487; 2567.669
891.153;  820.074;  -11.898; 2460.307
891.714;  808.087;  -14.278; 2372.046
892.275;  812.397;  -13.308; 2309.505
892.835;  758.350;  -12.058; 2382.543
893.396;  676.516;  -15.268; 2295.502
893.956;  619.320;  -13.278; 2162.420
894.517;  584.466;  -11.968; 2125.439
895.077;  570.406;  -12.798; 2086.978
895.638;  548.877;  -11.908; 2126.316
896.198;  522.842;  -13.288; 1838.275
896.758;  499.502;  -12.198; 1892.813
897.319;  474.474;  -13.048; 1792.232
897.879;  435.150;  -13.718; 1762.751
898.439;  396.470;  -14.138; 1661.149
898.999;  384.045;  -13.659; 1781.468
899.559;  372.613;  -14.699; 1703.347
900.119;  350.521;  -14.339; 1537.525
900.679;  326.914;  -11.789; 1638.384
901.239;  303.912;  -13.629; 1527.902
901.799;  286.568;  -13.679; 1456.441
902.359;  273.242;  -13.679; 1357.140
902.919;  263.166;  -14.159; 1331.118
903.479;  252.895;  -13.419; 1317.257
904.038;  241.228;  -14.899; 1262.595
904.598;  228.212;  -14.339; 1152.034
905.158;  222.490;  -13.959; 1240.893
905.717;  218.750;  -12.749; 1233.691
906.277;  212.029;  -11.889; 1217.330
906.836;  204.375;  -12.870; 1222.408
907.396;  202.247;  -11.790; 1193.047
907.955;  198.942;  -13.750; 1182.526
908.515;  192.221;  -14.760; 1099.364
909.074;  184.274;  -12.540; 1092.863
909.633;  179.453;  -12.120; 1069.121
910.192;  176.826;  -12.550; 1196.460
910.752;  174.915;  -12.760; 1029.960
911.311;  171.438;  -14.750; 1009.780
911.870;  167.528;  -13.860;  971.460
912.429;  166.029;  -13.480; 1094.080
912.988;  161.944;  -12.370; 1081.060
913.547;  157.512;  -14.670;  940.380
914.106;  153.948;  -12.800;  999.420
914.665;  151.698;  -11.370;  984.020
915.224;  150.335;  -11.430; 1035.760
915.782;  150.236;  -12.260;  922.560
916.341;  151.011;  -12.540; 1049.840
916.900;  148.156;  -12.540;  925.260
917.458;  147.484;  -13.480;  884.220
918.017;  146.255;  -12.470;  942.600
918.576;  145.510;  -13.450;  904.440
919.134;  143.113;  -12.890;  837.980
919.693;  141.262;  -15.480;  893.060
920.251;  139.598;  -14.420;  876.500
920.809;  138.573;  -12.170;  839.580
921.368;  139.641;  -13.650;  885.360
921.926;  138.620;  -12.750;  842.940
922.484;  140.076;  -14.150;  903.360
923.042;  141.203;  -15.100;  880.340
923.601;  144.237;  -10.990;  998.680
924.159;  143.807;  -12.470;  935.560
924.717;  143.299;  -15.640;  841.080
925.275;  142.825;  -12.380;  903.240
925.833;  143.301;  -12.710;  779.320
926.391;  145.010;  -11.200;  938.380
926.949;  145.643;  -16.000;  857.680
927.506;  147.612;  -12.260;  903.500
928.064;  147.449;  -11.300;  877.580
928.622;  147.578;  -13.750;  880.100
929.180;  147.264;  -15.290;  814.180
929.737;  146.127;  -14.500;  808.540
930.295;  148.485;  -10.630;  928.480
930.853;  150.741;  -14.590;  849.100
931.410;  153.166;  -14.450;  821.120
931.968;  156.888;  -14.390;  940.660
932.525;  157.181;  -13.050;  909.380
933.082;  156.459;  -15.620;  811.440
933.640;  158.228;  -15.650;  925.900
934.197;  161.725;  -13.610;  886.360
934.754;  165.070;  -13.320;  897.780
935.312;  169.669;  -13.370;  863.340
935.869;  172.962;  -12.780; 1012.980
936.426;  170.990;  -14.480;  872.800
936.983;  172.253;  -13.180;  889.020
937.540;  173.243;  -15.710;  838.280
938.097;  173.901;  -14.980;  940.120
938.654;  176.152;  -13.060;  898.860
939.211;  176.579;  -12.760;  952.480
939.768;  177.000;  -16.230;  915.420
940.324;  178.670;  -10.940;  904.200
940.881;  177.542;  -12.570;  878.500
941.438;  176.329;  -13.650; 1021.200
941.995;  176.347;  -13.300;  992.560
942.551;  178.056;  -15.800;  875.620
943.108;  178.490;  -14.180;  937.920
943.664;  177.186;  -13.890;  869.340
944.221;  180.550;  -12.640; 1088.140
944.777;  177.531;  -14.700;  869.680
945.334;  175.952;  -13.010;  884.840
945.890;  177.437;  -13.480;  946.480
946.446;  177.933;  -14.920;  947.020
947.003;  176.666;  -13.860;  964.940
947.559;  177.124;  -12.000; 1063.040
948.115;  176.314;  -10.510; 1026.540
948.671;  175.791;  -12.760;  967.300
949.227;  171.421;  -15.390;  859.560
949.783;  168.054;  -15.570;  858.900
950.339;  167.726;  -12.800;  991.000
950.895;  166.026;  -13.780; 1023.840
951.451;  165.293;  -13.810;  925.280
952.007;  166.640;  -12.390;  998.540
952.563;  167.773;  -11.980;  937.780
953.118;  165.726;  -14.070;  904.940
953.674;  167.908;  -14.140;  935.780
954.230;  172.338;  -12.680;  949.640
954.785;  174.399;  -12.770;  936.640
955.341;  170.738;  -11.450;  998.160
955.897;  162.596;  -15.350;  834.660
956.452;  157.945;  -14.200;  953.840
957.008;  154.874;  -10.820; 1083.640
957.563;  152.135;  -13.200; 1009.540
958.118;  151.374;  -14.460;  877.700
958.674;  152.489;  -13.840;  946.780
959.229;  153.009;  -10.670; 1013.980
959.784;  152.204;  -17.040;  832.400
960.339;  156.168;  -12.970; 1001.280
960.894;  158.558;  -12.700;  963.760
961.449;  163.702;  -13.790;  859.960
962.004;  169.941;  -11.760; 1212.840
962.559;  167.138;  -14.840;  860.140
963.114;  162.264;  -14.530;  742.480
963.669;  159.934;  -12.780;  915.500
964.224;  154.961;  -14.330;  874.340
964.779;  149.066;  -14.380;  828.420
965.334;  145.362;  -12.460; 1017.860
965.888;  141.229;  -13.490;  875.360
966.443;  141.026;  -14.140;  972.380
966.998;  137.598;  -16.240;  819.460
967.552;  137.175;  -12.730;  908.380
968.107;  134.593;  -14.510;  868.300
968.661;  136.037;  -11.850;  922.440
969.216;  133.611;  -14.370;  856.280
969.770;  131.464;  -13.010;  917.200
970.324;  130.888;  -12.460;  923.140
970.879;  132.222;  -11.580;  947.180
971.433;  133.327;  -13.130;  952.720
971.987;  132.483;  -12.360;  895.340
972.541;  129.754;  -14.330;  917.100
973.095;  125.938;  -13.310; 1009.460
973.649;  121.883;  -15.830;  809.480
974.203;  121.716;  -15.830;  829.040
974.757;  122.319;  -13.480;  855.220
975.311;  119.337;  -13.720;  872.600
975.865;  112.980;  -15.780;  881.820
976.419;  102.260;  -14.290;  857.400
976.973;   93.911;  -13.210;  849.620
977.526;   88.475;  -12.300;  949.920
978.080;   84.955;  -14.840;  796.780
978.634;   87.405;  -13.100;  921.320
979.187;   87.807;  -12.300;  905.400
979.741;   90.115;  -12.020; 1018.380
980.294;   87.926;  -14.590;  789.160
980.848;   88.372;  -14.390;  717.220
981.401;   89.707;  -14.280;  816.540
981.955;   89.844;  -11.920;  844.300
982.508;   87.952;  -15.790;  746.340
983.061;   88.910;  -12.070;  915.260
983.615;   86.888;  -13.260;  798.800
984.168;   85.198;  -15.540;  770.080
984.721;   84.743;  -13.230;  880.760
985.274;   82.778;  -11.820;  867.500
985.827;   80.413;  -13.510;  834.220
986.380;   79.557;  -14.840;  721.340
986.933;   80.972;  -13.970;  864.800
987.486;   80.701;  -12.450;  861.920
988.039;   78.605;  -11.170;  863.100
988.591;   76.184;  -13.070;  893.260
989.144;   72.821;  -15.530;  737.260
989.697;   71.940;  -14.300;  758.740
990.250;   71.996;  -13.310;  858.100
990.802;   69.211;  -14.490;  755.860
991.355;   71.549;  -12.980;  974.880
991.907;   69.002;  -13.715;  864.320
992.460;   66.454;  -14.450;  753.760
993.012;   65.156;  -12.590;  749.540
993.565;   63.285;  -15.180;  711.360
994.117;   64.409;  -11.630;  950.780
994.669;   62.567;  -13.760;  701.320
995.221;   62.178;  -12.710;  791.920
995.774;   60.525;  -14.620;  787.580
996.326;   59.063;  -13.150;  740.220
996.878;   57.582;  -12.880;  838.420
997.430;   55.301;  -14.580;  699.860
997.982;   55.678;  -14.030;  750.140
998.534;   55.151;  -12.190;  739.060
999.086;   54.087;  -12.990;  738.220
999.638;   53.869;  -13.180;  661.380
1000.190;   52.717;  -14.970;  699.320
1000.741;   52.833;  -12.200;  742.700
1001.293;   51.789;  -13.400;  686.020
1001.845;   51.002;  -14.490;  676.640
1002.396;   51.325;  -15.280;  743.400
1002.948;   51.121;  -12.380;  737.400
1003.500;   50.306;  -13.260;  723.780
1004.051;   51.578;  -13.730;  907.580
1004.603;   50.484;  -12.300;  791.820
1005.154;   46.632;  -15.330;  608.980
1005.705;   45.731;  -12.800;  723.960
1006.257;   45.786;  -13.900;  707.220
1006.808;   44.502;  -14.430;  685.460
1007.359;   43.494;  -12.010;  763.240
1007.910;   41.513;  -12.690;  646.640
1008.461;   41.977;  -13.610;  732.940
1009.013;   40.429;  -14.990;  588.340
1009.564;   41.919;  -11.860;  793.520
1010.115;   39.828;  -12.640;  597.040
1010.665;   39.690;  -14.570;  602.160
1011.216;   39.975;  -15.190;  667.920
1011.767;   38.776;  -13.470;  697.920
1012.318;   39.077;  -13.760;  736.980
1012.869;   39.191;  -15.950;  679.000
1013.419;   38.641;  -15.880;  603.120
1013.970;   38.242;  -14.540;  666.640
1014.521;   37.749;  -13.220;  620.620
1015.071;   37.657;  -15.020;  670.380
1015.622;   36.423;  -17.510;  635.460
1016.172;   36.736;  -14.130;  596.820
1016.723;   36.248;  -14.220;  614.380
1017.273;   35.615;  -15.370;  604.160
1017.823;   36.210;  -15.290;  650.340
1018.374;   35.901;  -13.420;  611.760
1018.924;   36.329;  -11.740;  716.880
1019.474;   36.210;  -12.250;  718.880
1020.024;   34.778;  -15.850;  657.580
1020.574;   35.658;  -13.280;  726.160
1021.124;   35.470;  -13.560;  673.580
1021.674;   34.013;  -13.790;  559.120
1022.224;   35.230;  -14.610;  708.940
1022.774;   34.778;  -13.100;  668.820
1023.324;   34.617;  -11.470;  753.520
1023.874;   35.757;  -11.990;  875.760
1024.423;   32.696;  -14.550;  613.700
1024.973;   32.523;  -14.440;  610.760
1025.523;   32.694;  -13.250;  620.960
1026.072;   31.302;  -15.200;  606.420
1026.622;   31.397;  -14.590;  675.740
1027.172;   32.253;  -11.080;  715.660
1027.721;   31.002;  -14.010;  601.220
1028.270;   31.938;  -13.690;  663.400
1028.820;   31.324;  -15.380;  638.080
1029.369;   31.613;  -14.980;  612.700
1029.918;   31.213;  -13.100;  649.840
1030.468;   30.898;  -13.680;  564.780
1031.017;   31.305;  -13.770;  634.800
1031.566;   30.333;  -14.100;  608.900
1032.115;   30.882;  -11.770;  694.500
1032.664;   29.710;  -14.940;  596.480
1033.213;   30.999;  -13.370;  735.420
1033.762;   29.830;  -13.660;  635.620
1034.311;   29.033;  -13.650;  677.220
1034.860;   29.445;  -13.820;  691.000
1035.408;   29.825;  -12.860;  722.720
1035.957;   30.232;  -13.060;  719.540
1036.506;   26.873;  -14.510;  530.800
1037.055;   30.539;  -13.470;  844.320
1037.603;   28.050;  -14.800;  664.000
1038.152;   27.037;  -14.190;  534.760
1038.700;   27.387;  -11.810;  585.740
1039.249;   27.120;  -12.850;  681.220
1039.797;   27.759;  -14.610;  633.360
1040.345;   27.396;  -15.220;  705.420
1040.894;   26.914;  -13.480;  625.300
1041.442;   26.356;  -13.310;  632.200
1041.990;   25.662;  -14.510;  559.160
1042.538;   25.103;  -15.700;  536.180
1043.087;   26.085;  -13.910;  570.860
1043.635;   26.677;  -13.620;  670.500
1044.183;   25.213;  -14.230;  586.400
1044.731;   25.726;  -13.730;  576.000
1045.279;   25.295;  -13.970;  674.920
1045.827;   27.011;  -10.750;  892.400
1046.374;   23.578;  -15.230;  515.420
1046.922;   23.251;  -15.390;  590.580
1047.470;   25.264;  -12.320;  691.300
1048.018;   24.562;  -13.230;  647.960
1048.565;   25.641;  -13.390;  708.600
1049.113;   23.527;  -15.030;  557.000
1049.660;   23.769;  -12.540;  629.660
1050.208;   24.469;  -15.040;  675.640
1050.755;   22.943;  -14.680;  606.580
1051.303;   24.363;  -13.610;  686.820
1051.850;   23.571;  -14.340;  635.120
1052.397;   21.246;  -16.330;  473.960
1052.945;   22.523;  -15.710;  617.760
1053.492;   24.174;  -12.320;  741.840
1054.039;   23.641;  -13.730;  720.180
1054.586;   22.060;  -16.140;  557.240
1055.133;   22.628;  -14.020;  693.140
1055.680;   23.018;  -13.430;  646.620
1056.227;   21.895;  -14.570;  542.780
1056.774;   23.788;  -14.400;  794.980
1057.321;   21.009;  -14.230;  523.260
1057.868;   22.157;  -14.220;  651.320
1058.415;   21.749;  -14.060;  651.980
1058.961;   21.437;  -14.640;  678.940
1059.508;   21.436;  -13.970;  643.820
1060.055;   20.857;  -15.100;  581.780
1060.601;   21.175;  -12.180;  624.300
1061.148;   21.092;  -15.010;  616.820
1061.694;   19.950;  -14.750;  592.580
1062.241;   20.161;  -14.130;  596.320
1062.787;   20.725;  -14.770;  663.140
1063.334;   22.249;  -13.130;  808.560
1063.880;   20.419;  -14.420;  668.360
1064.426;   20.364;  -13.130;  706.820
1064.972;   18.943;  -13.960;  601.340
1065.518;   18.868;  -13.680;  566.640
1066.065;   19.140;  -15.720;  624.460
1066.611;   18.890;  -13.970;  598.800
1067.157;   19.595;  -13.920;  641.860
1067.703;   19.276;  -14.760;  668.480
1068.249;   18.634;  -14.490;  605.220
1068.794;   19.391;  -14.740;  626.880
1069.340;   18.222;  -13.220;  578.960
1069.886;   18.419;  -14.930;  590.700
1070.432;   17.550;  -14.700;  541.720
1070.977;   17.475;  -14.470;  601.080
1071.523;   18.172;  -14.330;  573.060
1072.068;   17.711;  -14.960;  582.000
1072.614;   17.065;  -16.220;  527.760
1073.160;   18.669;  -11.280;  687.040
1073.705;   16.312;  -15.990;  572.520
1074.250;   17.561;  -16.550;  559.900
1074.796;   18.506;  -14.600;  655.160
1075.341;   17.934;  -13.440;  664.100
1075.886;   17.211;  -14.450;  594.240
1076.431;   17.536;  -13.160;  649.880
1076.976;   17.071;  -14.710;  639.220
1077.521;   16.200;  -14.000;  583.080
1078.067;   16.043;  -14.470;  579.400
1078.612;   16.154;  -14.530;  661.620
1079.156;   16.754;  -15.660;  601.540
1079.701;   16.511;  -16.120;  693.260
1080.246;   17.019;  -12.960;  696.300
1080.791;   16.633;  -13.700;  625.020
1081.336;   16.571;  -15.540;  659.320
1081.880;   15.700;  -14.640;  649.680
1082.425;   15.496;  -14.220;  573.480
1082.970;   17.194;  -11.890;  717.040
1083.514;   15.378;  -13.820;  597.000
1084.059;   14.732;  -14.280;  586.720
1084.603;   14.267;  -12.890;  565.840
1085.147;   15.286;  -13.590;  645.220
1085.692;   15.852;  -14.050;  716.800
1086.236;   13.575;  -14.990;  503.140
1086.780;   15.600;  -12.640;  751.440
1087.325;   14.501;  -15.550;  654.620
1087.869;   14.443;  -14.980;  610.700
1088.413;   15.697;  -13.440;  705.040
1088.957;   12.896;  -12.170;  543.400
1089.501;   15.498;  -12.730;  766.640
1090.045;   15.130;  -14.650;  726.480
1090.589;   12.366;  -14.500;  569.920
1091.133;   13.751;  -12.320;  673.340
1091.676;   13.937;  -16.130;  591.940
1092.220;   13.198;  -13.930;  600.920
1092.764;   14.734;  -12.820;  706.960
1093.307;   13.697;  -11.700;  673.780
1093.851;   12.126;  -15.600;  556.540
1094.395;   13.366;  -13.920;  683.140
1094.938;   12.484;  -16.090;  632.520
1095.482;   12.963;  -13.820;  559.800
1096.025;   13.811;  -12.720;  710.880
1096.568;   13.904;  -12.100;  779.280
1097.112;   10.799;  -15.450;  508.180
1097.655;   12.175;  -14.310;  603.000
1098.198;   10.901;  -14.740;  600.180
1098.741;   11.967;  -15.550;  612.860
1099.285;   12.318;  -12.600;  657.300
1099.828;    9.945;  -15.050;  439.400
1100.371;   11.526;  -14.800;  608.160
1100.914;   11.432;  -16.480;  682.660
1101.457;   12.200;  -12.990;  679.900
1101.999;    9.732;  -14.110;  584.680
1102.542;   11.587;  -11.450;  641.440
1103.085;   10.676;  -13.350;  658.500
1103.628;   11.622;  -13.200;  762.060
1104.170;   10.157;  -12.310;  588.280
1104.713;   11.148;  -14.320;  646.700
1105.256;    9.899;  -16.110;  557.440
1105.798;    9.125;  -15.910;  499.980
1106.341;   11.535;  -12.200;  728.900
1106.883;    9.524;  -14.910;  521.340
1107.425;   10.154;  -14.960;  668.180
1107.968;    9.814;  -13.440;  612.380
1108.510;   10.809;  -14.010;  684.960
1109.052;    9.005;  -15.430;  612.620
1109.594;    9.383;  -15.290;  554.440
1110.136;   10.294;  -13.360;  643.220
1110.679;    9.457;  -13.820;  633.080
1111.221;    9.960;  -13.690;  604.460
1111.763;    8.593;  -14.890;  559.220
1112.304;    8.872;  -14.550;  547.140
1112.846;    9.379;  -12.760;  666.240
1113.388;   12.672;  -10.780;  942.180
1113.930;    9.409;  -12.690;  694.200
1114.472;    8.582;  -15.730;  606.540
1115.013;    7.645;  -14.620;  551.280
1115.555;    7.541;  -14.950;  587.100
1116.097;    7.447;  -16.460;  579.480
1116.638;    9.245;  -13.730;  684.600
1117.180;    8.472;  -13.810;  667.740
1117.721;    7.763;  -13.280;  568.580
1118.262;    8.396;  -15.080;  677.960
1118.804;    8.612;  -14.040;  637.340
1119.345;    7.670;  -15.430;  578.400
1119.886;    8.688;  -15.240;  704.040
1120.427;    6.918;  -15.820;  589.020
1120.969;    6.520;  -14.550;  597.920
1121.510;    5.912;  -14.030;  563.060
1122.051;    7.684;  -11.990;  723.580
1122.592;    6.679;  -16.490;  655.420
1123.133;    5.612;  -15.580;  547.940
1123.673;    8.128;  -12.850;  706.480
1124.214;    6.564;  -13.630;  612.460
1124.755;    7.436;  -14.830;  639.460
1125.296;    6.592;  -13.110;  627.320
1125.836;    7.456;  -11.320;  691.500
1126.377;    5.936;  -14.330;  599.660
1126.918;    7.166;  -12.800;  614.980
1127.458;    6.017;  -13.580;  622.220
1127.999;    7.070;  -10.330;  656.980
1128.539;    6.999;  -13.390;  694.240
1129.079;    5.732;  -16.420;  632.720
1129.620;    4.531;  -15.700;  558.100
1130.160;    5.184;  -14.790;  539.480
1130.700;    6.119;  -12.910;  640.840
1131.240;    6.858;  -15.610;  643.700
1131.781;    5.565;  -12.920;  619.680
1132.321;    4.783;  -15.300;  599.120
1132.861;    4.101;  -14.760;  564.200
1133.401;    4.629;  -15.470;  593.940
1133.941;    5.865;  -13.710;  626.280
1134.481;    4.590;  -11.820;  597.580
1135.020;    4.683;  -14.810;  609.160
1135.560;    4.599;  -13.660;  674.940
1136.100;    4.176;  -13.940;  501.160
1136.640;    3.279;  -15.410;  510.480
1137.179;    3.965;  -16.920;  537.960
1137.719;    4.309;  -16.430;  605.400
1138.258;    4.151;  -16.300;  587.360
1138.798;    5.369;  -13.710;  663.780
1139.337;    2.880;  -13.840;  482.840
1139.877;    4.069;  -16.140;  642.360
1140.416;    6.352;  -11.410;  878.060
1140.955;    2.622;  -12.820;  535.380
1141.494;    4.438;  -12.310;  669.280
1142.034;    3.614;  -16.280;  583.520
1142.573;    4.568;  -13.090;  646.280
1143.112;    3.262;  -13.770;  553.480
1143.651;    3.344;  -15.830;  536.480
1144.190;    4.557;  -15.010;  691.640
1144.729;    3.808;  -13.650;  607.420
1145.267;    3.767;  -13.670;  584.900
1145.806;    4.203;  -13.630;  637.040
1146.345;    3.452;  -14.160;  635.020
1146.884;    2.395;  -11.180;  622.500
1147.422;    2.347;  -15.890;  533.060
1147.961;    4.567;  -12.760;  708.460
1148.500;    2.943;  -15.220;  669.720
1149.038;    3.655;  -13.720;  632.500
1149.577;    3.330;  -13.250;  698.640
1150.115;    1.621;  -16.790;  452.280
1150.653;    2.971;  -15.810;  607.340
1151.192;    2.850;  -14.730;  552.920
1151.730;    2.587;  -13.660;  652.560
1152.268;    2.664;  -15.120;  589.520
1152.806;    2.263;  -15.580;  571.180
1153.344;    1.166;  -16.210;  577.640
1153.882;    2.237;  -12.810;  600.060
1154.421;    0.247;  -14.150;  470.620
1154.958;    1.555;  -15.360;  595.240
1155.496;    2.095;  -14.710;  645.280
1156.034;    2.152;  -13.640;  721.880
1156.572;    3.215;  -13.740;  667.060
1157.110;    0.782;  -16.960;  473.940
1157.647;    2.413;  -11.940;  676.960
1158.185;    1.115;  -14.090;  564.320
1158.723;    0.891;  -13.610;  509.200
1159.260;    1.631;  -14.760;  701.700
1159.798;    2.020;  -13.700;  658.160
1160.335;    0.813;  -13.820;  631.820

