
Integration time [ms]:   3.882
Averaging Nr. [scans]: 1000
Smoothing Nr. [pixels]: 0
Data measured with spectrometer [name]: 7414430SP
Wave   ;Sample   ;Dark     ;Reference
[nm]   ;[counts] ;[counts] ;[counts] 

288.544;  123.703;   10.292;  793.890
289.143;  127.565;    4.564;  681.602
289.742;  129.336;    6.144;  828.814
290.341;  117.035;    4.396;  789.841
290.940;  107.825;    0.938;  730.702
291.538;  108.668;   -0.684;  881.108
292.137;  107.546;   -2.845;  792.581
292.736;  111.518;   -0.144;  975.101
293.335;  108.096;   -6.352;  735.086
293.934;  109.401;   -7.642;  781.677
294.532;  109.799;   -4.992; 1031.958
295.131;   95.013;   -5.478;  834.394
295.730;   95.988;   -6.549;  809.588
296.328;   93.572;   -9.558;  783.442
296.927;   93.058;   -8.118;  779.652
297.525;   95.133;   -6.908;  781.236
298.124;   85.174;   -9.195;  654.009
298.722;   90.398;   -8.198;  761.933
299.321;   86.945;   -8.817;  708.597
299.919;   85.044;   -7.716;  751.918
300.518;   82.643;  -10.745;  689.338
301.116;   83.644;   -9.647;  691.381
301.715;   83.409;  -10.828;  730.222
302.313;   82.181;   -6.087;  704.943
302.911;   78.215;   -6.824;  733.830
303.509;   84.020;   -8.807;  925.627
304.108;   80.743;   -8.198;  760.383
304.706;   80.598;   -6.218;  801.664
305.304;   76.243;   -7.185;  796.707
305.902;   82.146;   -8.568;  784.484
306.500;   77.083;   -7.737;  728.200
307.098;   75.457;   -6.026;  746.560
307.696;   74.401;   -7.176;  780.432
308.294;   75.146;   -8.656;  731.359
308.892;   77.378;   -6.838;  759.769
309.490;   72.281;   -2.596;  712.161
310.088;   70.670;   -4.485;  788.444
310.686;   76.345;   -3.907;  821.749
311.284;   71.321;   -2.806;  766.040
311.882;   68.963;   -2.845;  731.225
312.480;   66.348;   -3.274;  697.167
313.078;   68.459;   -3.645;  808.331
313.675;   69.168;   -4.997;  691.600
314.273;   64.406;   -0.894;  797.837
314.871;   63.685;   -2.854;  589.829
315.468;   61.910;   -3.644;  652.090
316.066;   64.908;   -3.947;  694.427
316.664;   58.340;   -1.824;  656.351
317.261;   62.846;    1.565;  910.128
317.859;   58.099;   -3.955;  768.735
318.456;   59.081;   -2.886;  830.096
319.054;   55.760;   -0.995;  787.828
319.651;   55.327;   -1.765;  759.928
320.249;   53.826;   -3.685;  810.188
320.846;   52.078;   -3.736;  714.286
321.443;   49.906;   -2.065;  832.135
322.041;   47.516;   -5.635;  812.315
322.638;   45.488;   -5.985;  701.456
323.235;   47.468;   -6.677;  665.683
323.833;   44.680;   -3.497;  740.354
324.430;   41.132;   -6.756;  615.900
325.027;   43.062;   -7.647;  876.855
325.624;   43.335;   -7.598;  644.532
326.221;   40.205;   -5.848;  689.717
326.818;   39.631;   -5.777;  818.332
327.415;   41.913;   -8.769;  748.828
328.012;   41.963;   -6.299;  690.585
328.609;   39.845;   -6.639;  731.389
329.206;   37.679;   -6.358;  778.621
329.803;   37.913;   -8.698;  737.841
330.400;   38.596;   -8.379;  704.260
330.997;   39.522;   -6.178;  817.147
331.594;   36.874;   -5.646;  788.185
332.191;   42.137;   -6.928;  728.722
332.787;   44.383;   -6.057;  844.463
333.384;   41.515;   -6.445;  763.093
333.981;   38.407;   -8.002;  815.687
334.578;   41.140;   -8.443;  708.378
335.174;   43.663;   -6.053;  731.469
335.771;   43.630;   -5.791;  836.456
336.367;   40.474;   -6.570;  710.631
336.964;   42.836;   -6.741;  793.266
337.561;   43.099;   -5.710;  731.112
338.157;   39.589;   -3.928;  911.916
338.754;   34.501;   -5.577;  796.589
339.350;   35.119;   -9.667;  722.493
339.946;   38.671;   -5.269;  773.135
340.543;   29.552;   -4.485;  846.136
341.139;   23.969;   -7.584;  720.836
341.735;   23.314;   -8.553;  772.593
342.332;   21.585;   -4.984;  691.472
342.928;   22.999;   -3.475;  795.394
343.524;   17.561;   -6.653;  761.684
344.120;   13.253;   -7.173;  738.562
344.716;   17.282;   -4.385;  723.717
345.313;   15.530;   -3.565;  795.342
345.909;   10.485;   -7.495;  627.336
346.505;   12.808;   -8.276;  740.247
347.101;   13.831;   -5.697;  827.864
347.697;   14.389;   -4.767;  785.398
348.293;    8.755;   -7.226;  627.244
348.889;    9.689;   -7.547;  745.914
349.485;    9.570;   -9.147;  688.205
350.081;   10.667;   -6.568;  772.592
350.676;    6.207;   -6.516;  691.606
351.272;   10.921;   -7.378;  809.530
351.868;    9.924;   -6.759;  780.497
352.464;    7.177;   -4.798;  723.932
353.059;    4.410;   -7.977;  646.017
353.655;    7.511;   -8.769;  777.063
354.251;    7.677;   -5.920;  759.845
354.846;    2.994;   -7.647;  740.646
355.442;    1.131;   -6.956;  753.071
356.038;    2.556;   -9.928;  751.708
356.633;    2.858;   -7.698;  728.594
357.229;    0.969;   -6.307;  724.757
357.824;   -0.464;   -7.647;  703.600
358.420;   -1.364;  -10.047;  679.726
359.015;   -0.457;   -7.458;  695.357
359.610;    0.783;   -5.748;  763.920
360.206;   -5.500;   -9.346;  603.240
360.801;   -1.805;  -11.268;  646.503
361.396;   -0.045;   -8.789;  725.975
361.992;   -5.246;   -6.347;  668.220
362.587;   -6.666;   -6.476;  670.160
363.182;   -4.487;   -9.457;  689.631
363.777;   -4.170;   -7.147;  738.242
364.372;   -3.885;   -5.507;  737.314
364.967;   -7.754;   -6.386;  680.744
365.563;   -3.601;   -7.858;  815.567
366.158;   -6.547;   -8.517;  685.161
366.753;   -5.975;   -8.728;  649.263
367.348;   -6.737;   -7.677;  746.056
367.942;   -6.722;  -10.387;  697.298
368.537;   -8.116;   -7.187;  754.245
369.132;   -8.554;   -8.587;  703.428
369.727;  -12.531;   -8.606;  638.079
370.322;  -10.246;  -10.426;  580.186
370.917;  -10.312;   -5.776;  710.646
371.511;   -7.668;   -6.007;  861.834
372.106;  -11.339;   -6.686;  776.964
372.701;  -13.650;   -9.335;  585.988
373.296;   -8.556;   -6.777;  863.135
373.890;  -13.997;   -7.546;  647.840
374.485;  -15.442;   -8.755;  691.199
375.079;  -11.082;   -9.797;  738.685
375.674;   -9.828;   -6.327;  812.970
376.268;  -14.635;   -9.046;  691.759
376.863;  -19.707;   -7.993;  580.327
377.457;  -13.252;   -9.206;  662.490
378.052;  -15.303;   -5.345;  764.884
378.646;  -16.257;   -5.605;  741.167
379.240;  -16.452;   -6.825;  721.176
379.835;  -14.903;  -10.476;  636.978
380.429;  -17.425;   -8.676;  562.557
381.023;  -16.720;   -4.945;  779.205
381.617;  -18.913;   -8.094;  680.106
382.212;  -15.935;  -10.646;  685.303
382.806;  -14.726;   -8.136;  760.690
383.400;  -18.917;   -7.855;  672.281
383.994;  -19.482;   -8.125;  664.870
384.588;  -15.724;   -7.637;  697.701
385.182;  -14.732;   -7.458;  726.624
385.776;  -16.235;   -6.277;  706.875
386.370;  -19.296;   -7.485;  681.968
386.964;  -17.368;   -9.416;  684.155
387.558;  -16.570;   -8.518;  598.360
388.152;  -19.732;   -7.096;  681.959
388.745;  -17.180;   -7.656;  814.707
389.339;  -15.877;   -8.927;  747.642
389.933;  -15.455;   -9.538;  695.370
390.527;  -16.535;   -5.857;  859.029
391.120;  -22.874;   -9.455;  595.318
391.714;  -19.020;   -9.746;  711.633
392.308;  -15.496;   -7.857;  780.253
392.901;  -19.277;   -9.106;  642.460
393.495;  -21.708;  -10.365;  595.414
394.089;  -18.562;   -9.696;  760.452
394.682;  -19.666;   -7.016;  697.188
395.275;  -20.023;   -8.466;  719.927
395.869;  -21.380;   -8.985;  667.314
396.462;  -19.584;  -11.496;  616.609
397.056;  -14.672;   -7.838;  776.621
397.649;  -20.438;   -6.895;  731.575
398.242;  -17.799;   -5.017;  712.645
398.836;  -16.228;   -8.787;  766.408
399.429;  -17.565;   -8.967;  631.041
400.022;  -22.008;   -8.815;  665.902
400.615;  -17.947;   -6.276;  805.609
401.208;  -16.487;   -8.407;  691.451
401.802;  -18.683;   -7.296;  699.329
402.395;  -20.474;   -7.585;  683.502
402.988;  -20.610;   -8.015;  696.627
403.581;  -17.444;   -9.577;  646.878
404.174;  -16.210;   -7.588;  686.568
404.767;  -18.457;   -7.906;  638.583
405.360;  -20.075;   -7.875;  621.445
405.953;  -14.534;   -8.127;  759.034
406.545;  -14.373;   -7.198;  725.342
407.138;  -19.470;   -8.916;  618.350
407.731;  -17.670;   -9.767;  613.303
408.324;  -13.359;  -10.659;  660.554
408.917;  -14.022;   -8.068;  681.864
409.509;  -16.340;   -9.837;  740.396
410.102;  -17.441;   -8.146;  643.948
410.695;  -11.545;   -7.969;  665.758
411.287;  -13.297;   -8.579;  599.821
411.880;  -14.245;   -6.968;  585.421
412.472;  -16.508;   -9.487;  613.092
413.065;  -13.775;  -10.338;  629.408
413.657;  -11.796;   -9.169;  576.678
414.250;  -12.114;  -10.119;  646.681
414.842;  -13.643;   -9.938;  676.353
415.434;  -11.254;  -10.409;  570.463
416.027;   -6.907;   -9.591;  652.196
416.619;   -9.765;   -7.379;  713.400
417.211;   -9.584;   -9.159;  599.352
417.804;   -5.525;   -9.191;  628.499
418.396;  -10.566;   -8.159;  607.643
418.988;   -7.534;   -6.960;  659.238
419.580;  -11.149;  -11.389;  568.276
420.172;   -8.422;  -13.460;  536.196
420.764;   -4.145;  -10.701;  672.482
421.356;   -5.419;   -8.961;  636.898
421.948;   -5.902;   -9.770;  677.661
422.540;   -1.324;   -8.832;  680.027
423.132;   -2.771;   -8.153;  600.641
423.724;   -6.158;   -8.481;  561.267
424.316;   -2.744;   -9.261;  621.345
424.908;    0.238;   -9.643;  591.517
425.500;    1.000;   -8.663;  647.978
426.092;    1.196;   -8.503;  648.268
426.683;    0.794;  -10.522;  684.836
427.275;    3.933;  -11.734;  641.471
427.867;    4.895;  -10.264;  668.948
428.458;    5.845;   -7.644;  732.344
429.050;    4.229;   -7.853;  680.749
429.642;    5.881;   -8.904;  743.124
430.233;    6.698;  -10.795;  569.356
430.825;    8.332;   -7.665;  724.809
431.416;    6.380;   -8.843;  698.241
432.008;    9.379;   -9.885;  651.723
432.599;   10.740;   -9.966;  656.073
433.190;    6.231;   -9.164;  637.670
433.782;    5.814;   -8.584;  590.395
434.373;   14.827;   -8.296;  884.765
434.964;   11.901;   -9.896;  602.920
435.556;    9.715;   -8.255;  634.537
436.147;   12.980;   -8.075;  758.490
436.738;   12.391;   -9.716;  701.099
437.329;   17.758;   -7.318;  721.723
437.920;   10.396;   -6.694;  666.688
438.511;   10.958;   -9.644;  564.526
439.103;   18.078;   -9.427;  623.998
439.694;   20.026;  -10.748;  681.583
440.285;   20.148;   -7.997;  764.432
440.876;   18.925;  -10.046;  845.738
441.466;   18.369;  -13.467;  575.162
442.057;   22.973;   -9.329;  665.814
442.648;   21.805;   -7.707;  746.255
443.239;   20.248;   -9.017;  620.477
443.830;   26.040;  -10.279;  704.958
444.421;   27.054;  -12.630;  655.474
445.011;   23.154;   -8.697;  693.619
445.602;   23.810;   -7.787;  743.126
446.193;   25.968;  -13.329;  488.117
446.783;   30.998;   -9.171;  640.397
447.374;   25.144;   -7.457;  692.759
447.964;   26.360;   -9.277;  713.770
448.555;   35.074;   -9.041;  822.742
449.145;   30.970;   -8.969;  662.853
449.736;   32.402;   -6.809;  803.179
450.326;   31.570;   -7.229;  713.626
450.917;   36.315;  -11.391;  675.324
451.507;   35.010;   -9.501;  600.661
452.097;   36.037;   -8.460;  746.267
452.688;   37.743;  -10.080;  742.160
453.278;   37.748;  -12.861;  566.840
453.868;   42.012;   -8.372;  793.550
454.458;   39.667;   -8.131;  651.141
455.048;   40.726;   -8.520;  711.783
455.639;   41.505;  -13.632;  567.096
456.229;   44.898;  -10.143;  710.694
456.819;   47.256;   -9.163;  751.158
457.409;   46.926;   -8.652;  773.993
457.999;   50.035;   -9.933;  737.505
458.589;   50.245;  -10.363;  686.606
459.179;   50.117;  -10.633;  717.658
459.769;   47.997;  -12.442;  627.099
460.358;   53.079;   -9.844;  797.262
460.948;   52.312;   -9.924;  689.503
461.538;   54.277;  -10.484;  660.677
462.128;   52.426;  -10.703;  664.934
462.717;   59.399;  -11.486;  710.326
463.307;   62.072;  -10.767;  705.846
463.897;   57.854;   -8.814;  656.942
464.486;   56.723;   -8.182;  837.128
465.076;   62.060;   -9.985;  733.776
465.666;   65.027;  -10.447;  652.900
466.255;   63.527;   -7.754;  785.651
466.845;   61.971;  -10.884;  666.749
467.434;   65.680;  -12.525;  725.873
468.023;   65.182;  -11.456;  658.357
468.613;   63.097;   -9.173;  713.946
469.202;   68.121;   -9.306;  646.507
469.791;   72.853;   -8.917;  737.811
470.381;   74.008;   -9.657;  742.813
470.970;   73.404;   -9.947;  711.099
471.559;   73.709;   -9.256;  733.291
472.148;   76.208;  -13.397;  675.737
472.738;   79.194;   -9.928;  765.466
473.327;   78.176;  -10.897;  637.529
473.916;   78.328;   -8.526;  737.446
474.505;   83.190;  -11.078;  751.703
475.094;   84.913;   -9.559;  806.570
475.683;   84.438;   -8.838;  797.699
476.272;   85.659;  -10.198;  730.632
476.861;   88.719;  -11.489;  706.754
477.449;   94.912;  -10.721;  728.487
478.038;   89.744;   -9.818;  692.513
478.627;   90.245;   -9.887;  714.852
479.216;   97.037;  -10.030;  769.441
479.805;  100.505;   -9.401;  783.375
480.393;  100.054;   -5.739; 1008.945
480.982;   99.207;   -7.838;  874.501
481.571;  106.237;   -9.111;  858.333
482.159;  105.609;  -10.601;  705.386
482.748;  105.123;   -8.500;  821.385
483.336;  110.139;   -9.241;  858.209
483.925;  110.153;  -10.440;  774.373
484.513;  117.518;  -11.063;  758.962
485.102;  114.019;   -9.540;  810.965
485.690;  123.219;   -6.742; 1011.050
486.278;  124.737;   -8.442;  979.329
486.867;  124.437;  -10.472;  809.662
487.455;  126.795;   -8.811;  898.229
488.043;  128.430;  -10.721;  748.361
488.631;  137.956;  -10.393; 1005.079
489.220;  140.308;  -10.843;  908.626
489.808;  139.306;  -10.572;  741.415
490.396;  148.116;  -10.482;  914.645
490.984;  153.987;  -11.542;  830.161
491.572;  163.270;   -8.463;  940.315
492.160;  167.768;   -8.491;  919.081
492.748;  176.338;   -9.681;  884.341
493.336;  193.890;  -10.493; 1019.693
493.924;  217.129;   -9.354;  958.077
494.512;  246.008;   -9.132; 1066.638
495.100;  279.793;   -9.001; 1103.280
495.687;  328.100;  -11.924; 1206.373
496.275;  388.158;  -11.193; 1150.796
496.863;  476.884;   -9.241; 1281.171
497.451;  581.616;  -11.341; 1386.805
498.038;  673.092;  -11.364; 1556.729
498.626;  776.485;   -8.104; 1741.407
499.214;  958.946;   -8.842; 2016.609
499.801; 1146.547;  -10.112; 2220.633
500.389; 1327.045;  -11.953; 2312.494
500.976; 1565.620;  -10.023; 2744.849
501.564; 1852.097;   -8.662; 3148.565
502.151; 2202.347;  -10.531; 3515.999
502.738; 2570.041;  -13.853; 3971.274
503.326; 3090.880;  -10.794; 4403.796
503.913; 3608.816;   -8.663; 5161.749
504.500; 3916.575;  -10.172; 5986.420
505.088; 4244.564;  -13.472; 6381.201
505.675; 4960.385;  -10.924; 6925.547
506.262; 5686.859;   -8.551; 7619.060
506.849; 6458.240;  -10.523; 8733.969
507.436; 7169.201;  -10.834; 9790.121
508.023; 7449.911;   -9.093; 9985.472
508.610; 7853.580;  -10.073;10434.618
509.197; 8346.439;   -9.500;11198.435
509.784; 9611.990;  -13.242;12391.194
510.371;10315.152;  -10.964;13603.713
510.958;10131.644;   -9.772;14426.586
511.545;11118.625;   -7.842;15243.775
512.132;11483.277;  -12.184;15945.876
512.719;11638.921;   -9.733;16340.369
513.305;13364.880;   -9.172;18011.766
513.892;15008.673;   -9.581;19754.971
514.479;16881.107;  -10.253;20967.805
515.066;18971.059;   -8.183;22299.793
515.652;20154.414;   -9.253;22908.660
516.239;21084.098;   -9.412;23798.875
516.825;23166.875;  -11.153;25567.275
517.412;23229.471;  -10.263;28154.959
517.998;23860.533;   -8.802;28344.111
518.585;23606.504;  -10.401;27134.219
519.171;23281.561;  -12.744;27268.576
519.758;25046.561;  -11.793;28964.129
520.344;27379.977;   -8.912;30664.494
520.930;27080.049;  -10.901;32550.605
521.516;27721.295;  -12.034;35422.895
522.103;28592.432;  -10.473;38280.004
522.689;30252.631;   -8.311;37835.117
523.275;33623.672;  -10.691;37288.613
523.861;34690.750;  -11.193;37281.395
524.447;35055.051;  -11.484;37846.949
525.033;34619.379;   -7.702;38321.949
525.619;34179.977;  -11.241;38579.285
526.205;35302.500;  -12.152;40622.875
526.791;34339.973;  -11.423;42258.836
527.377;31031.105;   -7.981;42966.902
527.963;30394.553;   -9.450;42018.949
528.549;33203.254;  -11.351;42476.828
529.135;35634.102;  -10.202;41854.852
529.721;36671.137;   -8.672;41237.711
530.306;37044.141;   -9.111;41259.445
530.892;39311.250;  -11.252;41506.047
531.478;41462.855;  -10.432;43559.613
532.063;43746.453;  -10.721;47695.563
532.649;45574.512;   -7.450;50808.324
533.235;46023.398;  -11.811;51787.500
533.820;46150.898;   -9.383;52145.035
534.406;45141.879;   -9.400;51133.488
534.991;43693.969;   -8.861;49996.805
535.576;41264.270;  -10.612;48882.852
536.162;37953.602;   -7.322;46942.285
536.747;36879.223;   -9.360;45711.746
537.333;37258.758;  -10.450;48510.180
537.918;38262.359;  -12.610;50439.891
538.503;40781.707;  -12.132;50863.711
539.088;41725.359;  -10.831;50906.922
539.673;42446.898;  -11.220;52621.965
540.259;45871.871;  -11.481;52368.094
540.844;50013.273;  -11.462;50879.109
541.429;51866.582;   -7.869;52077.777
542.014;52385.566;  -11.859;52716.695
542.599;51294.676;  -11.061;52363.281
543.184;50684.195;  -12.300;53187.137
543.769;49816.020;   -9.369;54697.605
544.354;49797.051;  -12.020;53913.914
544.938;46617.352;  -10.350;49680.164
545.523;43807.023;  -10.841;47386.277
546.108;45928.215;   -8.579;49151.949
546.693;48393.637;   -8.818;51384.637
547.278;49421.824;  -11.331;51853.254
547.862;45700.031;  -10.292;51173.750
548.447;41542.227;   -8.349;51691.395
549.031;42613.195;  -10.838;52456.703
549.616;48201.145;  -11.681;52714.516
550.201;51530.207;  -11.140;52414.598
550.785;49687.766;   -8.649;52355.059
551.370;49583.254;  -11.889;54589.453
551.954;49237.141;  -11.239;58267.348
552.538;48911.660;   -8.850;59062.176
553.123;49659.613;  -10.829;58115.285
553.707;50048.422;   -8.887;56556.285
554.291;49295.746;  -10.430;56201.668
554.876;47403.391;   -9.799;55335.762
555.460;48665.941;  -10.018;54155.703
556.044;49795.598;   -7.307;53721.484
556.628;46254.965;  -12.229;53731.016
557.212;43078.539;   -9.820;54312.531
557.796;42594.879;   -9.109;53797.773
558.380;44245.965;   -9.707;56145.984
558.964;43305.012;  -10.980;57277.930
559.548;43859.008;  -12.010;56459.641
560.132;47413.457;   -7.928;54434.543
560.716;48869.688;  -10.247;54800.617
561.300;48799.367;  -11.250;57606.945
561.884;50562.883;  -10.568;58972.445
562.467;49108.918;   -9.727;57327.570
563.051;47694.668;  -11.847;54962.434
563.635;46260.848;  -10.747;52594.473
564.219;42838.465;  -13.108;50610.410
564.802;39916.828;  -11.417;49551.180
565.386;41126.473;  -10.457;48370.953
565.969;42511.059;   -8.959;48178.871
566.553;41508.656;  -10.328;49957.305
567.136;40483.742;  -10.257;50369.594
567.720;40375.133;  -10.186;49492.004
568.303;40643.961;  -10.027;50616.352
568.887;41651.449;  -10.397;50727.148
569.470;39957.621;   -8.185;51698.379
570.053;38999.570;  -11.596;52122.078
570.637;38675.738;  -11.378;52536.438
571.220;38536.191;   -9.138;51186.098
571.803;37733.070;   -7.675;51032.762
572.386;36354.527;   -8.976;49609.887
572.969;34068.059;  -12.477;48285.926
573.552;35166.184;   -9.767;47624.285
574.135;35583.527;   -8.175;45498.641
574.718;32211.473;  -11.096;41970.434
575.301;30507.793;  -11.966;41447.137
575.884;28804.113;  -12.836;40923.836
576.467;32749.594;   -9.116;45267.723
577.050;33482.980;  -10.536;48175.543
577.633;34399.641;  -11.027;47729.328
578.216;35759.543;   -9.946;47579.793
578.799;36010.289;   -9.645;47820.996
579.381;36800.602;   -9.446;48115.551
579.964;38086.824;  -12.217;47333.766
580.547;38855.398;  -10.586;46668.969
581.129;39257.742;   -8.374;44466.141
581.712;37075.535;  -10.434;44164.922
582.294;34425.859;  -10.896;46477.855
582.877;34598.020;   -8.906;48244.254
583.459;35661.531;   -9.994;47437.895
584.042;36521.207;  -10.084;46943.219
584.624;36596.543;  -13.534;46792.227
585.206;34743.000;  -12.716;46557.250
585.789;35528.379;  -11.614;45793.773
586.371;33835.211;  -10.203;43836.391
586.953;31122.041;  -10.314;42972.492
587.536;31421.664;   -9.776;42487.211
588.118;32773.074;   -9.821;42086.414
588.700;33942.848;  -10.073;43389.930
589.282;32406.188;  -12.395;43646.039
589.864;32026.664;  -11.514;43438.109
590.446;32200.723;  -10.803;43151.926
591.028;31339.037;  -11.043;42781.867
591.610;31459.645;  -13.244;42839.098
592.192;31269.693;  -11.095;42820.402
592.774;29736.930;  -10.823;40724.277
593.356;28976.979;  -11.052;39874.789
593.937;30289.094;  -11.664;39980.648
594.519;33898.516;  -10.454;42069.633
595.101;36714.359;  -10.322;42976.031
595.683;35841.809;  -10.042;44084.441
596.264;32059.559;  -14.334;43478.797
596.846;33219.969;  -10.863;43803.672
597.427;32413.393;   -9.901;42986.934
598.009;31109.264;  -10.911;42832.219
598.591;31758.922;  -10.483;42580.086
599.172;33219.434;   -9.663;43061.805
599.753;34201.836;  -10.631;41691.469
600.335;34475.488;   -9.371;40692.520
600.916;32420.205;  -13.992;39982.422
601.498;32203.789;   -8.352;40318.617
602.079;32666.789;   -8.411;40670.609
602.660;32165.965;  -10.841;41450.898
603.241;31754.695;  -12.963;41137.738
603.823;32027.951;  -11.523;38868.797
604.404;31627.971;  -11.881;38182.785
604.985;32652.000;  -11.721;38078.047
605.566;32582.182;   -9.293;38056.633
606.147;31317.201;  -10.940;37020.418
606.728;32846.695;  -11.840;37883.359
607.309;33757.883;  -11.781;38748.273
607.890;34013.586;  -11.262;38850.230
608.471;32562.563;  -10.111;37457.918
609.051;32494.896;   -7.709;36066.457
609.632;29863.980;  -12.409;35991.074
610.213;30011.455;  -10.811;37402.641
610.794;31260.119;  -11.630;38383.363
611.374;34800.828;   -8.030;40562.387
611.955;34920.133;  -10.809;38533.727
612.536;33697.230;  -10.531;36951.789
613.116;33601.160;  -12.820;37197.891
613.697;35157.531;  -11.419;38411.125
614.277;36055.754;   -9.768;38673.938
614.858;32693.498;  -10.251;37075.863
615.438;29076.887;  -11.981;35092.906
616.019;26771.107;   -8.978;33666.301
616.599;29088.469;  -12.219;34189.023
617.179;31497.051;  -14.170;36952.047
617.760;32424.295;   -9.211;39582.574
618.340;32583.467;   -9.018;38943.977
618.920;32887.723;   -9.249;37594.156
619.500;32927.250;  -12.728;37866.938
620.080;33412.133;  -12.939;37869.043
620.660;34399.926;  -11.586;36868.617
621.241;33669.484;  -11.538;36352.309
621.821;32296.348;  -11.398;35459.520
622.401;30936.480;  -10.179;35207.414
622.980;30861.299;  -11.587;35980.422
623.560;32304.662;  -12.888;37351.328
624.140;30883.264;  -13.149;34388.582
624.720;26739.184;   -9.928;32368.764
625.300;26260.945;  -10.869;32638.629
625.880;28905.309;   -8.617;34599.035
626.459;30287.057;  -12.138;36831.738
627.039;33100.262;  -12.267;38299.098
627.619;36431.563;   -7.476;38289.574
628.198;37461.965;  -11.347;37220.695
628.778;34655.785;  -11.678;37632.563
629.357;32214.871;  -12.438;38003.012
629.937;31598.475;   -9.576;38402.039
630.516;31347.693;  -11.096;37868.801
631.096;32360.313;  -11.828;35760.410
631.675;33727.492;  -11.565;35225.219
632.254;34295.164;  -11.845;35130.289
632.834;35687.184;  -11.545;35794.570
633.413;35085.000;  -10.887;35788.922
633.992;34985.547;  -10.175;34532.863
634.571;35549.813;   -9.704;33590.113
635.151;33791.785;  -10.815;34943.863
635.730;32253.518;  -11.617;35352.523
636.309;32112.873;  -10.836;35366.605
636.888;32839.648;   -9.755;36165.637
637.467;32821.297;  -11.684;37515.902
638.046;33093.770;  -11.987;39288.695
638.625;32996.473;  -10.455;38279.699
639.204;32864.352;  -11.234;37741.598
639.782;33651.637;  -12.023;38364.551
640.361;31896.201;  -11.506;36740.621
640.940;28487.117;  -12.316;34950.082
641.519;26462.539;  -11.616;34137.398
642.097;29042.859;   -9.266;35654.258
642.676;32700.418;  -12.936;35637.957
643.255;33093.387;   -9.966;36567.074
643.833;33442.500;   -8.916;37809.434
644.412;31592.385;  -10.936;37337.293
644.990;31216.143;  -12.176;37018.531
645.569;32227.598;  -12.246;36518.469
646.147;35334.547;  -12.107;36186.430
646.726;38136.281;  -12.937;36267.688
647.304;34923.176;  -12.547;36647.625
647.882;33534.375;  -12.597;39286.742
648.461;32708.959;   -9.427;39157.703
649.039;32922.906;   -8.937;35412.883
649.617;33811.328;  -11.067;34744.918
650.195;32304.094;  -10.657;35403.098
650.773;29709.094;  -10.097;35053.797
651.352;29252.777;  -11.887;33756.816
651.930;28386.783;  -13.557;31868.773
652.508;28358.717;  -11.767;33121.551
653.086;31137.404;  -10.777;33564.793
653.663;33703.066;  -12.067;34054.668
654.241;36269.977;  -14.918;35693.309
654.819;35876.965;  -11.788;36422.906
655.397;33793.852;  -11.268;38213.484
655.975;32264.635;  -11.738;39507.625
656.553;30740.795;  -11.018;39498.223
657.130;29311.549;  -12.848;40395.480
657.708;27996.828;  -10.098;39242.020
658.286;29133.580;  -11.678;38920.020
658.863;31555.090;  -11.498;40202.898
659.441;34357.051;  -11.008;39677.938
660.018;36249.344;  -11.048;40413.355
660.596;36907.289;  -12.058;39931.414
661.173;37329.016;  -14.158;39604.531
661.750;36805.555;  -12.298;39700.070
662.328;36342.250;  -10.699;39292.809
662.905;35792.273;  -12.119;38235.648
663.482;31756.164;  -11.829;36212.305
664.060;28094.914;  -11.009;35944.945
664.637;31304.807;  -10.369;35170.785
665.214;33804.379;  -10.459;34197.523
665.791;33118.832;  -12.599;34549.520
666.368;30557.232;  -12.919;35118.578
666.945;28825.400;  -10.699;36019.418
667.522;30065.902;  -11.359;36048.438
668.099;30642.561;  -13.529;36243.914
668.676;29580.539;  -10.229;35958.875
669.253;29262.268;   -9.279;37384.730
669.830;28647.953;  -11.370;36779.629
670.407;28134.770;  -10.950;35231.289
670.984;28962.008;  -12.850;35544.270
671.560;28071.070;   -8.440;35466.867
672.137;29111.730;  -13.520;34280.863
672.714;30799.916;  -13.620;34632.863
673.290;31365.379;  -10.450;35135.422
673.867;30286.584;  -10.960;36114.480
674.443;31223.195;  -13.300;36152.859
675.020;29501.674;  -12.370;35327.238
675.596;28780.689;  -11.250;35795.176
676.173;29154.205;  -11.080;35430.355
676.749;28758.295;  -13.220;33549.516
677.326;29764.723;  -13.000;32210.012
677.902;29650.359;  -12.701;32068.871
678.478;28294.326;  -12.801;32583.891
679.054;28660.174;   -8.601;32088.928
679.631;29931.154;  -12.631;30978.848
680.207;31054.094;   -9.451;33160.887
680.783;30050.857;  -11.701;35570.363
681.359;30152.266;  -12.701;36125.184
681.935;32072.279;  -13.271;35240.922
682.511;34330.703;  -10.791;34429.961
683.087;32384.475;  -10.791;34463.680
683.663;29104.754;   -8.121;34648.898
684.239;27112.770;  -13.261;34546.457
684.815;28100.014;  -10.581;35586.375
685.390;29665.152;   -9.961;35821.895
685.966;28924.547;  -11.182;35085.871
686.542;28064.572;  -13.512;34198.230
687.118;26251.928;  -11.472;32847.707
687.693;25299.557;  -10.152;32794.027
688.269;25425.416;  -14.442;33072.367
688.844;24391.260;  -11.852;33141.664
689.420;23382.961;  -13.942;33965.742
689.995;24735.934;   -9.702;34655.523
690.571;26546.145;  -11.312;33576.742
691.146;26849.000;  -14.332;32657.219
691.722;26576.295;  -11.192;32526.979
692.297;27284.359;  -10.962;33014.617
692.872;28674.377;  -11.082;34012.254
693.448;29429.332;  -14.732;34237.434
694.023;28759.424;  -12.363;34142.672
694.598;26946.992;  -12.393;34132.031
695.173;27748.229;  -11.023;34205.250
695.748;29086.703;  -12.743;32882.488
696.323;28386.070;  -11.103;32864.906
696.898;27828.475;   -8.123;33170.004
697.473;27490.568;  -12.603;32432.984
698.048;27720.799;  -12.553;31649.303
698.623;29090.996;  -12.573;30778.141
699.198;28846.342;  -12.743;31140.119
699.773;28058.359;  -12.843;31764.299
700.348;28379.184;  -16.683;31780.816
700.922;29522.203;  -11.403;32046.375
701.497;31136.496;  -11.253;32603.574
702.072;30588.432;  -10.044;34799.871
702.646;30121.084;  -13.054;35793.172
703.221;30932.014;  -11.414;35201.590
703.795;29697.424;  -10.644;34764.527
704.370;27393.439;  -13.484;34307.367
704.944;26717.955;  -12.144;33509.887
705.519;26440.408;  -12.024;31388.584
706.093;27989.592;  -11.234;31340.104
706.668;29053.846;   -9.874;32630.281
707.242;28370.404;  -12.404;32728.779
707.816;26744.143;  -10.644;32947.238
708.390;26219.568;  -11.174;33277.855
708.965;26290.617;  -10.324;33834.336
709.539;26986.502;  -12.014;33709.273
710.113;27180.566;  -12.295;33044.313
710.687;28756.459;  -10.965;31953.992
711.261;30739.564;  -13.685;30505.949
711.835;29218.873;  -15.335;30262.369
712.409;27914.623;  -13.785;31254.447
712.983;27833.363;  -10.525;32754.986
713.557;25961.668;  -13.175;34018.824
714.131;25992.391;  -13.245;34579.625
714.704;29270.090;  -13.175;33890.262
715.278;31678.623;  -11.545;33531.102
715.852;30273.184;  -10.975;33601.660
716.425;28766.342;  -10.075;33515.117
716.999;29417.510;  -12.185;33185.555
717.573;31577.230;   -9.685;33905.996
718.146;31979.203;  -10.516;35199.293
718.720;30671.168;  -12.106;35060.551
719.293;29031.773;  -12.386;34973.230
719.867;29088.830;  -12.456;36394.449
720.440;29254.229;  -10.686;36663.008
721.013;29589.525;  -12.596;35102.426
721.587;31109.439;  -13.956;33985.266
722.160;32786.906;   -9.806;33524.965
722.733;33112.457;  -11.676;32987.043
723.306;32579.742;  -14.276;33066.301
723.880;30613.734;  -12.126;33399.500
724.453;28263.744;  -10.156;33468.297
725.026;27953.863;  -12.956;33816.637
725.599;27936.371;  -11.676;32797.996
726.172;28255.139;  -12.337;33187.434
726.745;28407.734;  -11.277;35136.613
727.318;28323.531;  -11.927;35751.730
727.891;27502.201;  -13.607;35890.430
728.463;25321.627;  -11.327;34822.090
729.036;25363.602;  -11.917;32895.086
729.609;27020.541;  -12.697;31823.225
730.182;27730.578;  -11.787;31445.283
730.754;27504.668;  -12.957;32373.223
731.327;27368.250;  -11.017;33676.820
731.900;27183.680;  -12.797;33417.000
732.472;26511.324;  -10.677;31978.498
733.045;26079.295;  -12.797;30368.777
733.617;26100.416;  -13.908;30574.215
734.190;24815.242;  -12.258;31280.975
734.762;25023.129;  -13.438;31674.412
735.334;26370.309;  -11.758;31247.291
735.907;29040.928;  -11.158;29876.211
736.479;32115.895;  -11.258;29808.488
737.051;32533.031;  -10.918;30233.547
737.623;31590.180;  -11.038;31469.086
738.195;33033.988;  -12.188;31784.225
738.768;30462.705;  -11.378;32120.523
739.340;24481.963;  -12.598;32094.342
739.912;23019.457;  -11.568;31312.680
740.484;24987.998;   -9.348;31946.238
741.056;27607.719;  -12.628;32984.059
741.628;29250.746;  -13.349;33897.715
742.199;28143.176;  -11.309;33213.016
742.771;28533.609;  -12.699;31369.113
743.343;29447.178;  -11.919;31865.473
743.915;29102.174;  -11.679;32388.631
744.487;27355.281;  -12.249;31079.568
745.058;25209.586;  -11.119;30570.107
745.630;24229.871;   -9.439;29970.127
746.201;23622.271;  -11.949;29186.766
746.773;23759.680;  -12.639;28805.723
747.344;25086.344;  -11.039;29591.223
747.916;27206.348;  -12.549;31412.201
748.487;25707.125;  -12.659;32194.898
749.059;23890.275;  -13.059;32533.719
749.630;23305.957;  -12.080;32158.518
750.201;22136.279;  -13.100;30855.395
750.773;21599.867;  -15.310;28622.555
751.344;21362.730;  -12.240;28405.732
751.915;21524.455;  -11.960;28461.551
752.486;20597.854;  -13.200;27842.850
753.057;19289.986;  -15.230;27845.008
753.628;20559.768;  -13.130;27728.107
754.199;23010.010;  -12.720;27381.086
754.770;23062.047;  -10.680;25882.203
755.341;21425.039;  -11.010;25886.184
755.912;20793.158;  -12.990;26050.861
756.483;20267.168;  -11.110;26798.779
757.054;19975.416;  -12.190;27048.238
757.625;19907.715;  -13.981;26294.838
758.195;20085.932;  -11.041;26142.076
758.766;21217.539;  -11.861;26392.234
759.337;21565.283;  -11.461;26334.594
759.907;20901.084;  -15.001;27579.652
760.478;19811.375;   -9.681;28352.770
761.048;18737.514;  -12.421;27325.088
761.619;19359.580;  -11.761;26460.428
762.189;19801.010;  -12.391;26029.826
762.760;19362.750;  -10.201;26430.145
763.330;20157.959;  -10.811;26670.902
763.900;20720.996;  -10.261;26603.021
764.471;19566.588;  -13.061;25542.740
765.041;17988.322;  -11.051;24358.459
765.611;17949.287;  -11.032;23991.297
766.181;18151.211;  -10.532;24470.236
766.751;18604.705;  -13.502;24845.975
767.321;19979.744;  -11.392;24533.633
767.891;21826.713;  -11.522;24916.492
768.461;22924.813;  -13.672;24776.771
769.031;20327.482;  -14.652;24757.988
769.601;17468.252;  -10.182;24181.088
770.171;16150.341;  -11.752;23670.387
770.741;15128.200;  -12.272;22960.045
771.311;15089.232;  -13.112;22917.523
771.880;16217.996;  -14.122;23562.941
772.450;16963.021;  -11.782;24216.500
773.020;17051.783;  -12.642;24140.398
773.589;16228.996;  -13.043;24414.857
774.159;15797.401;  -11.783;23858.717
774.729;16654.336;  -13.473;22942.135
775.298;17287.922;  -14.523;22324.033
775.867;16671.955;  -12.013;21140.313
776.437;15938.038;  -12.113;20838.092
777.006;15729.523;  -13.543;20599.510
777.576;16417.389;  -12.523;20508.809
778.145;16590.893;  -12.173;20732.947
778.714;15880.731;  -12.153;21062.465
779.283;15096.246;  -11.833;20949.664
779.853;15083.538;  -13.483;20508.623
780.422;15043.202;  -12.933;20649.082
780.991;14631.280;  -13.173;21527.520
781.560;14566.135;  -10.224;22632.658
782.129;15022.672;  -12.684;23048.277
782.698;14967.414;  -11.284;23438.555
783.267;14884.985;  -11.684;23267.734
783.836;14658.271;  -10.974;22415.133
784.404;14159.114;  -13.534;20443.152
784.973;13299.838;  -16.734;19699.150
785.542;12194.405;  -12.594;19763.828
786.111;11957.392;  -11.644;20341.408
786.679;13097.298;  -11.384;20207.967
787.248;13455.341;  -12.014;19516.465
787.817;12235.451;  -12.804;18900.363
788.385;10912.800;  -11.994;17879.121
788.954;11199.314;  -12.564;17658.301
789.522;12175.659;  -12.225;17788.879
790.090;12236.212;  -13.775;18118.277
790.659;12110.414;  -12.485;18338.736
791.227;12831.235;  -12.295;18508.615
791.795;13473.904;  -13.415;17898.254
792.364;13876.609;  -12.995;17295.133
792.932;13559.457;   -8.365;16822.051
793.500;12449.078;  -11.925;17040.148
794.068;12591.348;  -13.245;17179.787
794.636;13304.834;  -13.815;16664.246
795.204;13266.863;  -13.375;16524.545
795.772;13083.255;  -12.125;17274.564
796.340;12308.207;  -13.855;17891.002
796.908;10730.366;  -13.456;17648.561
797.476; 9956.137;  -13.116;17064.080
798.044;10138.413;  -13.226;16672.777
798.612;10407.893;  -11.236;17023.996
799.180;10280.945;  -10.476;16561.615
799.747; 9900.902;  -11.746;15962.773
800.315; 9488.952;  -12.366;15296.992
800.883; 8886.741;  -14.616;14801.771
801.450; 8987.692;  -11.996;14534.430
802.018; 9811.239;  -11.206;14173.248
802.585;10258.698;  -12.466;14029.547
803.153; 9785.490;  -12.846;13836.846
803.720; 9189.599;  -12.136;13567.324
804.287; 9349.367;  -10.966;13360.622
804.855; 9465.039;   -9.797;13681.981
805.422; 8637.081;  -13.037;13536.560
805.989; 7937.544;  -12.697;13355.958
806.556; 8174.152;  -11.737;13747.896
807.124; 8897.714;  -11.997;13987.376
807.691; 8636.011;  -13.997;14038.674
808.258; 7983.831;  -10.927;14120.152
808.825; 8178.552;  -13.727;13860.111
809.392; 8207.125;  -11.847;13268.790
809.959; 8183.203;  -14.217;12680.389
810.526; 8156.956;   -8.277;12427.308
811.093; 8350.077;   -9.647;12030.105
811.659; 8391.405;  -10.987;11653.664
812.226; 7753.113;  -13.447;11637.183
812.793; 7290.453;  -14.418;11611.521
813.360; 7485.254;  -13.908;11885.181
813.926; 7962.315;  -12.918;12770.539
814.493; 8145.432;  -14.888;12677.638
815.060; 7714.420;  -12.758;11974.336
815.626; 7393.649;  -13.478;11594.715
816.193; 7323.909;  -13.898;11579.474
816.759; 7418.537;  -13.588;11666.972
817.325; 7363.337;  -12.018;11325.530
817.892; 7055.690;  -14.068;11105.369
818.458; 7165.738;  -13.458;10843.928
819.024; 7062.358;  -11.968;10714.406
819.591; 6838.516;  -11.028;10469.165
820.157; 6935.321;  -12.088;10235.523
820.723; 7036.961;  -12.599;10847.563
821.289; 6725.680;  -10.419;11040.980
821.855; 6509.483;  -10.939;10357.100
822.421; 6496.644;  -12.539; 9978.918
822.987; 6476.249;  -13.259; 9754.177
823.553; 6298.858;  -15.369;10065.755
824.119; 6187.042;  -10.779;10036.294
824.685; 6188.472;   -9.999;10029.192
825.251; 6007.063;  -11.819;10199.230
825.816; 5917.813;  -13.369; 9820.189
826.382; 5736.898;  -12.679; 9297.248
826.948; 5261.837;  -11.199; 9381.347
827.513; 5094.579;  -11.179; 9450.726
828.079; 5196.512;  -13.489; 9472.444
828.645; 5305.502;  -12.500; 9292.643
829.210; 5323.079;  -15.120; 9065.341
829.776; 5289.826;  -12.590; 9132.620
830.341; 5401.222;  -11.540; 9092.878
830.906; 5760.113;  -12.400; 9078.557
831.472; 5736.570;  -12.720; 8534.535
832.037; 5035.504;  -11.490; 8677.874
832.602; 4381.533;  -14.380; 8628.692
833.167; 4121.708;  -12.780; 8879.031
833.733; 4359.790;  -11.100; 9189.790
834.298; 4715.317;  -12.080; 9052.608
834.863; 4591.387;  -13.910; 8895.087
835.428; 4298.906;  -13.470; 8824.266
835.993; 4133.848;  -11.760; 8845.385
836.558; 4317.885;  -12.731; 8888.563
837.123; 4463.259;  -12.431; 8966.582
837.688; 4308.428;  -11.241; 8617.860
838.253; 4131.498;  -13.681; 8590.699
838.817; 4235.376;  -12.531; 8443.797
839.382; 4342.508;  -12.671; 8799.356
839.947; 4382.155;  -11.541; 8810.595
840.511; 4494.792;  -12.021; 8796.394
841.076; 4565.210;  -13.071; 8347.231
841.641; 4786.458;  -11.411; 8224.330
842.205; 5060.643;  -13.671; 8223.349
842.770; 4971.522;  -11.291; 8622.107
843.334; 4678.900;  -12.951; 8410.386
843.898; 4427.050;  -11.221; 8337.465
844.463; 4488.703;  -11.322; 8506.283
845.027; 4454.921;  -11.412; 8280.962
845.591; 4215.311;  -11.512; 8231.141
846.156; 4107.342;  -14.042; 7969.179
846.720; 4151.410;  -12.152; 7768.278
847.284; 3961.331;  -10.922; 7630.957
847.848; 3767.827;  -10.962; 7472.395
848.412; 3556.208;  -14.612; 7437.394
848.976; 3584.767;  -11.492; 7674.592
849.540; 3882.423;   -9.172; 7836.011
850.104; 4076.736;  -11.232; 7913.669
850.668; 3999.915;  -15.182; 7694.508
851.232; 3886.315;  -15.332; 7756.887
851.796; 3837.861;  -13.703; 7926.545
852.359; 3917.784;  -11.113; 7827.844
852.923; 4036.091;  -11.843; 7641.163
853.487; 4012.209;  -11.173; 7342.501
854.050; 3887.988;  -13.443; 7042.820
854.614; 3841.748;  -13.823; 7151.338
855.177; 3761.766;  -16.393; 7105.077
855.741; 3715.173;  -11.693; 6989.675
856.304; 3705.309;  -10.843; 6596.634
856.868; 3604.074;  -13.783; 6356.272
857.431; 3375.386;  -11.953; 6468.571
857.995; 3116.868;  -13.683; 6373.210
858.558; 3084.543;  -11.433; 6324.448
859.121; 3197.765;  -12.493; 6408.327
859.684; 3105.526;  -12.384; 6347.886
860.247; 2779.668;  -14.774; 6321.264
860.810; 2537.735;  -13.154; 6301.903
861.374; 2539.187;  -11.264; 6607.881
861.937; 2594.214;  -15.424; 6408.200
862.500; 2572.430;  -12.854; 6572.639
863.062; 2560.282;  -12.344; 6387.297
863.625; 2581.799;  -13.314; 6190.836
864.188; 2685.776;  -14.724; 5807.254
864.751; 2892.070;  -13.464; 5682.413
865.314; 3245.656;  -11.684; 5547.492
865.876; 3453.248;  -11.104; 5500.150
866.439; 3381.480;  -12.344; 5415.909
867.002; 3191.566;  -13.494; 5501.567
867.564; 2922.970;  -10.935; 5413.946
868.127; 2737.158;  -12.665; 5160.325
868.689; 2694.569;  -14.515; 5133.183
869.252; 2746.709;  -13.425; 5252.382
869.814; 2914.309;  -11.595; 5297.141
870.377; 3008.716;  -12.175; 5390.919
870.939; 2890.965;  -10.265; 5599.898
871.501; 2749.357;  -12.375; 5248.336
872.063; 2647.046;  -14.355; 4854.235
872.626; 2557.993;  -14.435; 4817.074
873.188; 2470.899;  -12.415; 4987.732
873.750; 2505.202;  -14.555; 4868.651
874.312; 2445.906;  -11.185; 4779.330
874.874; 2252.965;  -12.715; 4866.348
875.436; 2157.133;  -13.196; 4718.887
875.998; 2126.568;  -11.426; 4660.005
876.560; 2027.797;   -9.786; 4462.964
877.122; 1970.887;  -12.796; 4145.042
877.683; 1963.568;  -13.226; 4056.481
878.245; 1943.978;  -12.036; 3950.740
878.807; 1928.536;  -11.536; 4058.958
879.369; 1908.483;  -10.806; 3954.677
879.930; 1803.939;  -13.946; 3941.495
880.492; 1647.715;  -11.876; 4067.014
881.053; 1580.511;  -13.216; 3859.633
881.615; 1569.597;  -12.226; 3776.071
882.176; 1495.065;  -12.946; 3734.750
882.738; 1302.866;  -10.736; 3678.489
883.299; 1103.991;  -12.057; 3405.407
883.860;  961.351;  -12.677; 3351.106
884.422;  887.746;  -14.097; 3394.044
884.983;  844.980;  -13.667; 3166.443
885.544;  830.632;  -10.717; 3189.802
886.105;  845.249;  -14.357; 3160.360
886.666;  889.628;  -14.287; 3093.059
887.227;  923.014;  -14.297; 2941.957
887.788;  929.575;  -13.137; 2974.836
888.349;  872.236;  -14.637; 2721.214
888.910;  814.729;  -12.247; 2696.493
889.471;  814.543;  -10.577; 2560.172
890.032;  814.947;  -12.937; 2558.190
890.593;  776.407;  -12.487; 2567.669
891.153;  727.017;  -11.898; 2460.307
891.714;  725.367;  -14.278; 2372.046
892.275;  734.186;  -13.308; 2309.505
892.835;  688.844;  -12.058; 2382.543
893.396;  621.671;  -15.268; 2295.502
893.956;  570.224;  -13.278; 2162.420
894.517;  539.886;  -11.968; 2125.439
895.077;  528.560;  -12.798; 2086.978
895.638;  511.781;  -11.908; 2126.316
896.198;  487.487;  -13.288; 1838.275
896.758;  466.246;  -12.198; 1892.813
897.319;  442.467;  -13.048; 1792.232
897.879;  409.085;  -13.718; 1762.751
898.439;  374.620;  -14.138; 1661.149
898.999;  363.287;  -13.659; 1781.468
899.559;  352.485;  -14.699; 1703.347
900.119;  332.002;  -14.339; 1537.525
900.679;  309.784;  -11.789; 1638.384
901.239;  288.117;  -13.629; 1527.902
901.799;  273.595;  -13.679; 1456.441
902.359;  261.636;  -13.679; 1357.140
902.919;  251.976;  -14.159; 1331.118
903.479;  243.394;  -13.419; 1317.257
904.038;  232.758;  -14.899; 1262.595
904.598;  222.790;  -14.339; 1152.034
905.158;  216.692;  -13.959; 1240.893
905.717;  212.475;  -12.749; 1233.691
906.277;  204.748;  -11.889; 1217.330
906.836;  199.648;  -12.870; 1222.408
907.396;  195.379;  -11.790; 1193.047
907.955;  191.706;  -13.750; 1182.526
908.515;  185.244;  -14.760; 1099.364
909.074;  179.867;  -12.540; 1092.863
909.633;  172.742;  -12.120; 1069.121
910.192;  168.292;  -12.550; 1196.460
910.752;  165.074;  -12.760; 1029.960
911.311;  163.729;  -14.750; 1009.780
911.870;  161.787;  -13.860;  971.460
912.429;  159.521;  -13.480; 1094.080
912.988;  157.239;  -12.370; 1081.060
913.547;  153.479;  -14.670;  940.380
914.106;  150.072;  -12.800;  999.420
914.665;  147.449;  -11.370;  984.020
915.224;  147.387;  -11.430; 1035.760
915.782;  147.037;  -12.260;  922.560
916.341;  147.557;  -12.540; 1049.840
916.900;  143.993;  -12.540;  925.260
917.458;  142.759;  -13.480;  884.220
918.017;  142.863;  -12.470;  942.600
918.576;  141.940;  -13.450;  904.440
919.134;  139.759;  -12.890;  837.980
919.693;  137.837;  -15.480;  893.060
920.251;  136.151;  -14.420;  876.500
920.809;  136.748;  -12.170;  839.580
921.368;  135.463;  -13.650;  885.360
921.926;  135.591;  -12.750;  842.940
922.484;  135.707;  -14.150;  903.360
923.042;  136.810;  -15.100;  880.340
923.601;  139.311;  -10.990;  998.680
924.159;  139.010;  -12.470;  935.560
924.717;  139.332;  -15.640;  841.080
925.275;  139.751;  -12.380;  903.240
925.833;  139.101;  -12.710;  779.320
926.391;  140.996;  -11.200;  938.380
926.949;  142.351;  -16.000;  857.680
927.506;  143.309;  -12.260;  903.500
928.064;  144.066;  -11.300;  877.580
928.622;  144.689;  -13.750;  880.100
929.180;  143.795;  -15.290;  814.180
929.737;  142.209;  -14.500;  808.540
930.295;  144.089;  -10.630;  928.480
930.853;  146.344;  -14.590;  849.100
931.410;  148.965;  -14.450;  821.120
931.968;  152.387;  -14.390;  940.660
932.525;  151.460;  -13.050;  909.380
933.082;  150.602;  -15.620;  811.440
933.640;  153.963;  -15.650;  925.900
934.197;  155.753;  -13.610;  886.360
934.754;  159.976;  -13.320;  897.780
935.312;  163.150;  -13.370;  863.340
935.869;  167.077;  -12.780; 1012.980
936.426;  165.190;  -14.480;  872.800
936.983;  166.279;  -13.180;  889.020
937.540;  166.367;  -15.710;  838.280
938.097;  169.022;  -14.980;  940.120
938.654;  170.331;  -13.060;  898.860
939.211;  171.291;  -12.760;  952.480
939.768;  170.981;  -16.230;  915.420
940.324;  171.563;  -10.940;  904.200
940.881;  170.775;  -12.570;  878.500
941.438;  169.367;  -13.650; 1021.200
941.995;  169.556;  -13.300;  992.560
942.551;  172.295;  -15.800;  875.620
943.108;  170.968;  -14.180;  937.920
943.664;  169.857;  -13.890;  869.340
944.221;  173.849;  -12.640; 1088.140
944.777;  171.435;  -14.700;  869.680
945.334;  169.890;  -13.010;  884.840
945.890;  170.647;  -13.480;  946.480
946.446;  169.754;  -14.920;  947.020
947.003;  169.719;  -13.860;  964.940
947.559;  169.460;  -12.000; 1063.040
948.115;  168.885;  -10.510; 1026.540
948.671;  167.483;  -12.760;  967.300
949.227;  165.414;  -15.390;  859.560
949.783;  160.361;  -15.570;  858.900
950.339;  160.405;  -12.800;  991.000
950.895;  158.237;  -13.780; 1023.840
951.451;  157.297;  -13.810;  925.280
952.007;  160.210;  -12.390;  998.540
952.563;  159.163;  -11.980;  937.780
953.118;  157.799;  -14.070;  904.940
953.674;  159.613;  -14.140;  935.780
954.230;  163.470;  -12.680;  949.640
954.785;  165.735;  -12.770;  936.640
955.341;  162.740;  -11.450;  998.160
955.897;  154.434;  -15.350;  834.660
956.452;  151.075;  -14.200;  953.840
957.008;  146.176;  -10.820; 1083.640
957.563;  144.562;  -13.200; 1009.540
958.118;  143.583;  -14.460;  877.700
958.674;  144.218;  -13.840;  946.780
959.229;  143.828;  -10.670; 1013.980
959.784;  144.042;  -17.040;  832.400
960.339;  148.034;  -12.970; 1001.280
960.894;  151.189;  -12.700;  963.760
961.449;  153.717;  -13.790;  859.960
962.004;  159.813;  -11.760; 1212.840
962.559;  156.905;  -14.840;  860.140
963.114;  151.516;  -14.530;  742.480
963.669;  148.825;  -12.780;  915.500
964.224;  144.598;  -14.330;  874.340
964.779;  140.129;  -14.380;  828.420
965.334;  136.449;  -12.460; 1017.860
965.888;  132.460;  -13.490;  875.360
966.443;  132.346;  -14.140;  972.380
966.998;  129.189;  -16.240;  819.460
967.552;  128.694;  -12.730;  908.380
968.107;  125.509;  -14.510;  868.300
968.661;  126.575;  -11.850;  922.440
969.216;  123.807;  -14.370;  856.280
969.770;  121.763;  -13.010;  917.200
970.324;  120.383;  -12.460;  923.140
970.879;  121.935;  -11.580;  947.180
971.433;  123.501;  -13.130;  952.720
971.987;  121.136;  -12.360;  895.340
972.541;  118.667;  -14.330;  917.100
973.095;  115.146;  -13.310; 1009.460
973.649;  112.448;  -15.830;  809.480
974.203;  111.248;  -15.830;  829.040
974.757;  113.739;  -13.480;  855.220
975.311;  116.720;  -13.720;  872.600
975.865;  117.249;  -15.780;  881.820
976.419;  116.068;  -14.290;  857.400
976.973;  113.446;  -13.210;  849.620
977.526;  111.185;  -12.300;  949.920
978.080;  106.927;  -14.840;  796.780
978.634;  105.504;  -13.100;  921.320
979.187;  100.931;  -12.300;  905.400
979.741;  101.667;  -12.020; 1018.380
980.294;   98.570;  -14.590;  789.160
980.848;   97.203;  -14.390;  717.220
981.401;   97.246;  -14.280;  816.540
981.955;   96.731;  -11.920;  844.300
982.508;   94.173;  -15.790;  746.340
983.061;   94.053;  -12.070;  915.260
983.615;   89.815;  -13.260;  798.800
984.168;   88.626;  -15.540;  770.080
984.721;   87.595;  -13.230;  880.760
985.274;   85.558;  -11.820;  867.500
985.827;   81.871;  -13.510;  834.220
986.380;   80.898;  -14.840;  721.340
986.933;   82.908;  -13.970;  864.800
987.486;   81.927;  -12.450;  861.920
988.039;   79.310;  -11.170;  863.100
988.591;   76.386;  -13.070;  893.260
989.144;   74.187;  -15.530;  737.260
989.697;   72.689;  -14.300;  758.740
990.250;   71.650;  -13.310;  858.100
990.802;   68.911;  -14.490;  755.860
991.355;   70.523;  -12.980;  974.880
991.907;   67.383;  -13.715;  864.320
992.460;   64.243;  -14.450;  753.760
993.012;   64.377;  -12.590;  749.540
993.565;   62.914;  -15.180;  711.360
994.117;   63.440;  -11.630;  950.780
994.669;   60.729;  -13.760;  701.320
995.221;   60.550;  -12.710;  791.920
995.774;   60.107;  -14.620;  787.580
996.326;   58.748;  -13.150;  740.220
996.878;   58.671;  -12.880;  838.420
997.430;   55.892;  -14.580;  699.860
997.982;   56.196;  -14.030;  750.140
998.534;   55.216;  -12.190;  739.060
999.086;   54.227;  -12.990;  738.220
999.638;   53.449;  -13.180;  661.380
1000.190;   52.601;  -14.970;  699.320
1000.741;   51.977;  -12.200;  742.700
1001.293;   50.515;  -13.400;  686.020
1001.845;   50.756;  -14.490;  676.640
1002.396;   51.349;  -15.280;  743.400
1002.948;   51.177;  -12.380;  737.400
1003.500;   49.331;  -13.260;  723.780
1004.051;   50.646;  -13.730;  907.580
1004.603;   49.739;  -12.300;  791.820
1005.154;   45.849;  -15.330;  608.980
1005.705;   45.268;  -12.800;  723.960
1006.257;   44.400;  -13.900;  707.220
1006.808;   43.337;  -14.430;  685.460
1007.359;   42.973;  -12.010;  763.240
1007.910;   41.556;  -12.690;  646.640
1008.461;   41.196;  -13.610;  732.940
1009.013;   40.616;  -14.990;  588.340
1009.564;   41.706;  -11.860;  793.520
1010.115;   38.161;  -12.640;  597.040
1010.665;   37.908;  -14.570;  602.160
1011.216;   39.066;  -15.190;  667.920
1011.767;   37.810;  -13.470;  697.920
1012.318;   38.342;  -13.760;  736.980
1012.869;   37.483;  -15.950;  679.000
1013.419;   37.137;  -15.880;  603.120
1013.970;   37.050;  -14.540;  666.640
1014.521;   36.095;  -13.220;  620.620
1015.071;   36.515;  -15.020;  670.380
1015.622;   36.706;  -17.510;  635.460
1016.172;   35.608;  -14.130;  596.820
1016.723;   35.423;  -14.220;  614.380
1017.273;   34.977;  -15.370;  604.160
1017.823;   35.485;  -15.290;  650.340
1018.374;   34.730;  -13.420;  611.760
1018.924;   34.527;  -11.740;  716.880
1019.474;   34.896;  -12.250;  718.880
1020.024;   33.825;  -15.850;  657.580
1020.574;   34.794;  -13.280;  726.160
1021.124;   34.058;  -13.560;  673.580
1021.674;   31.915;  -13.790;  559.120
1022.224;   34.508;  -14.610;  708.940
1022.774;   33.219;  -13.100;  668.820
1023.324;   33.155;  -11.470;  753.520
1023.874;   34.816;  -11.990;  875.760
1024.423;   32.355;  -14.550;  613.700
1024.973;   31.956;  -14.440;  610.760
1025.523;   30.748;  -13.250;  620.960
1026.072;   30.941;  -15.200;  606.420
1026.622;   30.691;  -14.590;  675.740
1027.172;   32.097;  -11.080;  715.660
1027.721;   29.941;  -14.010;  601.220
1028.270;   30.886;  -13.690;  663.400
1028.820;   30.685;  -15.380;  638.080
1029.369;   30.664;  -14.980;  612.700
1029.918;   30.372;  -13.100;  649.840
1030.468;   29.586;  -13.680;  564.780
1031.017;   30.565;  -13.770;  634.800
1031.566;   29.268;  -14.100;  608.900
1032.115;   29.856;  -11.770;  694.500
1032.664;   28.714;  -14.940;  596.480
1033.213;   29.837;  -13.370;  735.420
1033.762;   28.705;  -13.660;  635.620
1034.311;   27.897;  -13.650;  677.220
1034.860;   28.572;  -13.820;  691.000
1035.408;   28.893;  -12.860;  722.720
1035.957;   29.621;  -13.060;  719.540
1036.506;   26.341;  -14.510;  530.800
1037.055;   29.626;  -13.470;  844.320
1037.603;   27.591;  -14.800;  664.000
1038.152;   26.139;  -14.190;  534.760
1038.700;   26.758;  -11.810;  585.740
1039.249;   25.830;  -12.850;  681.220
1039.797;   27.495;  -14.610;  633.360
1040.345;   26.616;  -15.220;  705.420
1040.894;   26.079;  -13.480;  625.300
1041.442;   24.946;  -13.310;  632.200
1041.990;   24.413;  -14.510;  559.160
1042.538;   24.450;  -15.700;  536.180
1043.087;   24.266;  -13.910;  570.860
1043.635;   25.987;  -13.620;  670.500
1044.183;   25.047;  -14.230;  586.400
1044.731;   25.096;  -13.730;  576.000
1045.279;   25.230;  -13.970;  674.920
1045.827;   27.324;  -10.750;  892.400
1046.374;   24.044;  -15.230;  515.420
1046.922;   23.118;  -15.390;  590.580
1047.470;   24.281;  -12.320;  691.300
1048.018;   23.867;  -13.230;  647.960
1048.565;   25.642;  -13.390;  708.600
1049.113;   22.882;  -15.030;  557.000
1049.660;   22.933;  -12.540;  629.660
1050.208;   23.341;  -15.040;  675.640
1050.755;   22.671;  -14.680;  606.580
1051.303;   23.050;  -13.610;  686.820
1051.850;   22.629;  -14.340;  635.120
1052.397;   20.039;  -16.330;  473.960
1052.945;   21.894;  -15.710;  617.760
1053.492;   23.228;  -12.320;  741.840
1054.039;   22.152;  -13.730;  720.180
1054.586;   21.376;  -16.140;  557.240
1055.133;   21.941;  -14.020;  693.140
1055.680;   22.709;  -13.430;  646.620
1056.227;   21.022;  -14.570;  542.780
1056.774;   22.825;  -14.400;  794.980
1057.321;   20.764;  -14.230;  523.260
1057.868;   21.118;  -14.220;  651.320
1058.415;   20.719;  -14.060;  651.980
1058.961;   21.419;  -14.640;  678.940
1059.508;   20.844;  -13.970;  643.820
1060.055;   20.070;  -15.100;  581.780
1060.601;   20.417;  -12.180;  624.300
1061.148;   19.472;  -15.010;  616.820
1061.694;   20.055;  -14.750;  592.580
1062.241;   20.290;  -14.130;  596.320
1062.787;   19.696;  -14.770;  663.140
1063.334;   21.628;  -13.130;  808.560
1063.880;   19.767;  -14.420;  668.360
1064.426;   20.249;  -13.130;  706.820
1064.972;   18.033;  -13.960;  601.340
1065.518;   17.588;  -13.680;  566.640
1066.065;   18.308;  -15.720;  624.460
1066.611;   17.567;  -13.970;  598.800
1067.157;   18.238;  -13.920;  641.860
1067.703;   19.006;  -14.760;  668.480
1068.249;   18.415;  -14.490;  605.220
1068.794;   18.375;  -14.740;  626.880
1069.340;   17.424;  -13.220;  578.960
1069.886;   17.821;  -14.930;  590.700
1070.432;   17.337;  -14.700;  541.720
1070.977;   17.122;  -14.470;  601.080
1071.523;   17.269;  -14.330;  573.060
1072.068;   16.758;  -14.960;  582.000
1072.614;   16.511;  -16.220;  527.760
1073.160;   17.953;  -11.280;  687.040
1073.705;   15.892;  -15.990;  572.520
1074.250;   16.016;  -16.550;  559.900
1074.796;   17.057;  -14.600;  655.160
1075.341;   17.116;  -13.440;  664.100
1075.886;   16.454;  -14.450;  594.240
1076.431;   16.556;  -13.160;  649.880
1076.976;   16.292;  -14.710;  639.220
1077.521;   16.018;  -14.000;  583.080
1078.067;   15.208;  -14.470;  579.400
1078.612;   15.421;  -14.530;  661.620
1079.156;   16.115;  -15.660;  601.540
1079.701;   15.765;  -16.120;  693.260
1080.246;   15.929;  -12.960;  696.300
1080.791;   15.106;  -13.700;  625.020
1081.336;   16.205;  -15.540;  659.320
1081.880;   15.755;  -14.640;  649.680
1082.425;   13.773;  -14.220;  573.480
1082.970;   15.809;  -11.890;  717.040
1083.514;   15.471;  -13.820;  597.000
1084.059;   14.114;  -14.280;  586.720
1084.603;   13.644;  -12.890;  565.840
1085.147;   14.089;  -13.590;  645.220
1085.692;   15.551;  -14.050;  716.800
1086.236;   13.438;  -14.990;  503.140
1086.780;   15.125;  -12.640;  751.440
1087.325;   13.941;  -15.550;  654.620
1087.869;   14.709;  -14.980;  610.700
1088.413;   13.966;  -13.440;  705.040
1088.957;   12.535;  -12.170;  543.400
1089.501;   14.435;  -12.730;  766.640
1090.045;   14.067;  -14.650;  726.480
1090.589;   11.890;  -14.500;  569.920
1091.133;   13.144;  -12.320;  673.340
1091.676;   12.596;  -16.130;  591.940
1092.220;   13.069;  -13.930;  600.920
1092.764;   14.276;  -12.820;  706.960
1093.307;   12.813;  -11.700;  673.780
1093.851;   11.289;  -15.600;  556.540
1094.395;   12.248;  -13.920;  683.140
1094.938;   12.545;  -16.090;  632.520
1095.482;   12.473;  -13.820;  559.800
1096.025;   12.818;  -12.720;  710.880
1096.568;   13.814;  -12.100;  779.280
1097.112;   10.265;  -15.450;  508.180
1097.655;   12.026;  -14.310;  603.000
1098.198;    9.725;  -14.740;  600.180
1098.741;   11.359;  -15.550;  612.860
1099.285;   11.427;  -12.600;  657.300
1099.828;    9.060;  -15.050;  439.400
1100.371;   10.422;  -14.800;  608.160
1100.914;   10.961;  -16.480;  682.660
1101.457;   11.407;  -12.990;  679.900
1101.999;    9.660;  -14.110;  584.680
1102.542;   11.096;  -11.450;  641.440
1103.085;   10.654;  -13.350;  658.500
1103.628;   11.296;  -13.200;  762.060
1104.170;    9.836;  -12.310;  588.280
1104.713;   10.017;  -14.320;  646.700
1105.256;    9.678;  -16.110;  557.440
1105.798;    7.985;  -15.910;  499.980
1106.341;   10.607;  -12.200;  728.900
1106.883;    8.765;  -14.910;  521.340
1107.425;    9.659;  -14.960;  668.180
1107.968;    9.641;  -13.440;  612.380
1108.510;   10.168;  -14.010;  684.960
1109.052;    8.145;  -15.430;  612.620
1109.594;    8.803;  -15.290;  554.440
1110.136;    9.514;  -13.360;  643.220
1110.679;    8.167;  -13.820;  633.080
1111.221;    8.828;  -13.690;  604.460
1111.763;    8.214;  -14.890;  559.220
1112.304;    7.894;  -14.550;  547.140
1112.846;    8.803;  -12.760;  666.240
1113.388;   11.670;  -10.780;  942.180
1113.930;    8.571;  -12.690;  694.200
1114.472;    7.836;  -15.730;  606.540
1115.013;    6.826;  -14.620;  551.280
1115.555;    7.795;  -14.950;  587.100
1116.097;    6.863;  -16.460;  579.480
1116.638;    8.414;  -13.730;  684.600
1117.180;    7.635;  -13.810;  667.740
1117.721;    7.196;  -13.280;  568.580
1118.262;    7.449;  -15.080;  677.960
1118.804;    8.168;  -14.040;  637.340
1119.345;    6.285;  -15.430;  578.400
1119.886;    7.589;  -15.240;  704.040
1120.427;    6.818;  -15.820;  589.020
1120.969;    6.519;  -14.550;  597.920
1121.510;    5.639;  -14.030;  563.060
1122.051;    7.111;  -11.990;  723.580
1122.592;    6.163;  -16.490;  655.420
1123.133;    5.230;  -15.580;  547.940
1123.673;    7.121;  -12.850;  706.480
1124.214;    5.734;  -13.630;  612.460
1124.755;    6.750;  -14.830;  639.460
1125.296;    6.769;  -13.110;  627.320
1125.836;    6.868;  -11.320;  691.500
1126.377;    5.012;  -14.330;  599.660
1126.918;    7.037;  -12.800;  614.980
1127.458;    5.699;  -13.580;  622.220
1127.999;    5.526;  -10.330;  656.980
1128.539;    6.175;  -13.390;  694.240
1129.079;    5.177;  -16.420;  632.720
1129.620;    4.842;  -15.700;  558.100
1130.160;    4.114;  -14.790;  539.480
1130.700;    5.260;  -12.910;  640.840
1131.240;    6.370;  -15.610;  643.700
1131.781;    5.131;  -12.920;  619.680
1132.321;    4.351;  -15.300;  599.120
1132.861;    4.091;  -14.760;  564.200
1133.401;    4.507;  -15.470;  593.940
1133.941;    4.570;  -13.710;  626.280
1134.481;    4.183;  -11.820;  597.580
1135.020;    4.356;  -14.810;  609.160
1135.560;    4.973;  -13.660;  674.940
1136.100;    3.492;  -13.940;  501.160
1136.640;    3.475;  -15.410;  510.480
1137.179;    3.117;  -16.920;  537.960
1137.719;    4.393;  -16.430;  605.400
1138.258;    3.811;  -16.300;  587.360
1138.798;    4.211;  -13.710;  663.780
1139.337;    2.620;  -13.840;  482.840
1139.877;    3.931;  -16.140;  642.360
1140.416;    6.341;  -11.410;  878.060
1140.955;    1.975;  -12.820;  535.380
1141.494;    3.505;  -12.310;  669.280
1142.034;    3.456;  -16.280;  583.520
1142.573;    3.990;  -13.090;  646.280
1143.112;    2.137;  -13.770;  553.480
1143.651;    2.014;  -15.830;  536.480
1144.190;    3.524;  -15.010;  691.640
1144.729;    3.158;  -13.650;  607.420
1145.267;    2.125;  -13.670;  584.900
1145.806;    3.718;  -13.630;  637.040
1146.345;    3.069;  -14.160;  635.020
1146.884;    2.826;  -11.180;  622.500
1147.422;    1.494;  -15.890;  533.060
1147.961;    3.662;  -12.760;  708.460
1148.500;    3.306;  -15.220;  669.720
1149.038;    4.065;  -13.720;  632.500
1149.577;    2.808;  -13.250;  698.640
1150.115;    0.007;  -16.790;  452.280
1150.653;    2.589;  -15.810;  607.340
1151.192;    2.226;  -14.730;  552.920
1151.730;    1.591;  -13.660;  652.560
1152.268;    1.925;  -15.120;  589.520
1152.806;    0.980;  -15.580;  571.180
1153.344;    0.135;  -16.210;  577.640
1153.882;    1.814;  -12.810;  600.060
1154.421;   -0.118;  -14.150;  470.620
1154.958;    1.095;  -15.360;  595.240
1155.496;    1.769;  -14.710;  645.280
1156.034;    1.487;  -13.640;  721.880
1156.572;    1.776;  -13.740;  667.060
1157.110;    0.120;  -16.960;  473.940
1157.647;    2.377;  -11.940;  676.960
1158.185;    0.618;  -14.090;  564.320
1158.723;   -0.532;  -13.610;  509.200
1159.260;    1.279;  -14.760;  701.700
1159.798;    2.202;  -13.700;  658.160
1160.335;    0.323;  -13.820;  631.820

