
Integration time [ms]:   3.276
Averaging Nr. [scans]: 1000
Smoothing Nr. [pixels]: 0
Data measured with spectrometer [name]: 7414430SP
Wave   ;Sample   ;Dark     ;Reference
[nm]   ;[counts] ;[counts] ;[counts] 

288.544;  150.397;    7.793;  793.890
289.143;  154.895;    7.462;  681.602
289.742;  156.088;    8.602;  828.814
290.341;  140.008;    1.321;  789.841
290.940;  129.067;   -0.709;  730.702
291.538;  130.492;    0.881;  881.108
292.137;  130.731;    0.122;  792.581
292.736;  135.610;   -1.929;  975.101
293.335;  131.549;   -8.229;  735.086
293.934;  132.068;   -5.279;  781.677
294.532;  130.936;   -1.369; 1031.958
295.131;  116.596;   -7.641;  834.394
295.730;  116.295;   -8.420;  809.588
296.328;  116.725;   -5.611;  783.442
296.927;  116.898;   -5.781;  779.652
297.525;  117.072;   -6.361;  781.236
298.124;  107.369;  -11.382;  654.009
298.722;  111.916;   -7.641;  761.933
299.321;  110.253;   -6.811;  708.597
299.919;  107.228;   -6.991;  751.918
300.518;  104.662;  -10.362;  689.338
301.116;  106.195;   -9.581;  691.381
301.715;  106.388;   -4.891;  730.222
302.313;  104.916;   -8.801;  704.943
302.911;  100.308;   -8.522;  733.830
303.509;  105.149;   -6.171;  925.627
304.108;  103.818;   -7.311;  760.383
304.706;  103.690;   -8.321;  801.664
305.304;   97.251;  -10.222;  796.707
305.902;  102.429;   -6.021;  784.484
306.500;   98.175;   -4.971;  728.200
307.098;   96.331;   -7.061;  746.560
307.696;   94.599;   -8.801;  780.432
308.294;   94.933;   -6.411;  731.359
308.892;   97.198;   -2.901;  759.769
309.490;   93.014;   -5.041;  712.161
310.088;   90.961;   -5.002;  788.444
310.686;   95.872;   -2.041;  821.749
311.284;   91.634;   -2.351;  766.040
311.882;   88.179;   -4.422;  731.225
312.480;   86.559;   -4.192;  697.167
313.078;   87.547;   -1.172;  808.331
313.675;   88.653;   -2.601;  691.600
314.273;   83.055;   -1.312;  797.837
314.871;   82.601;   -3.942;  589.829
315.468;   80.957;   -2.802;  652.090
316.066;   83.962;   -0.701;  694.427
316.664;   76.186;   -4.362;  656.351
317.261;   81.138;   -2.872;  910.128
317.859;   76.288;   -2.022;  768.735
318.456;   75.809;   -0.531;  830.096
319.054;   72.155;   -3.912;  787.828
319.651;   70.478;   -4.752;  759.928
320.249;   69.319;   -2.602;  810.188
320.846;   66.903;   -0.821;  714.286
321.443;   65.369;   -4.642;  832.135
322.041;   62.156;   -5.002;  812.315
322.638;   59.498;   -3.982;  701.456
323.235;   61.164;   -3.411;  665.683
323.833;   58.093;   -7.361;  740.354
324.430;   53.258;   -8.611;  615.900
325.027;   54.424;   -4.061;  876.855
325.624;   54.202;   -4.031;  644.532
326.221;   51.231;   -7.481;  689.717
326.818;   50.646;   -5.281;  818.332
327.415;   53.669;   -7.460;  748.828
328.012;   54.323;   -5.510;  690.585
328.609;   51.977;   -7.880;  731.389
329.206;   49.511;   -8.331;  778.621
329.803;   50.186;   -5.121;  737.841
330.400;   52.793;   -4.510;  704.260
330.997;   54.328;   -6.441;  817.147
331.594;   53.009;   -8.831;  788.185
332.191;   57.981;   -7.621;  728.722
332.787;   61.022;   -4.591;  844.463
333.384;   60.011;   -7.412;  763.093
333.981;   58.586;   -8.293;  815.687
334.578;   61.248;   -7.052;  708.378
335.174;   64.762;   -3.102;  731.469
335.771;   64.263;   -5.943;  836.456
336.367;   61.048;   -7.393;  710.631
336.964;   64.399;   -4.063;  793.266
337.561;   62.421;   -3.813;  731.112
338.157;   58.480;   -4.654;  911.916
338.754;   55.232;   -7.934;  796.589
339.350;   54.544;   -4.414;  722.493
339.946;   55.396;   -4.664;  773.135
340.543;   47.453;   -6.375;  846.136
341.139;   41.789;   -9.815;  720.836
341.735;   39.945;   -4.526;  772.593
342.332;   38.591;   -4.895;  691.472
342.928;   38.649;   -4.295;  795.394
343.524;   32.678;   -5.476;  761.684
344.120;   29.842;   -5.856;  738.562
344.716;   32.488;   -2.155;  723.717
345.313;   30.039;   -6.275;  795.342
345.909;   24.883;   -8.815;  627.336
346.505;   26.640;   -5.305;  740.247
347.101;   27.582;   -2.674;  827.864
347.697;   27.147;   -4.344;  785.398
348.293;   21.770;   -9.975;  627.244
348.889;   23.002;   -5.774;  745.914
349.485;   22.987;   -5.004;  688.205
350.081;   22.607;   -4.704;  772.592
350.676;   18.051;   -6.635;  691.606
351.272;   22.521;   -4.504;  809.530
351.868;   22.339;   -3.914;  780.497
352.464;   19.583;   -9.044;  723.932
353.059;   15.827;   -8.314;  646.017
353.655;   19.396;   -7.024;  777.063
354.251;   20.166;   -5.343;  759.845
354.846;   14.369;   -8.604;  740.646
355.442;   11.759;   -6.945;  753.071
356.038;   13.841;   -7.564;  751.708
356.633;   14.446;   -5.814;  728.594
357.229;   12.278;   -7.364;  724.757
357.824;   10.842;   -8.024;  703.600
358.420;    9.344;   -9.384;  679.726
359.015;    9.537;   -5.104;  695.357
359.610;   11.090;   -6.854;  763.920
360.206;    4.996;  -10.185;  603.240
360.801;    7.767;   -7.054;  646.503
361.396;   10.783;   -5.034;  725.975
361.992;    5.591;   -8.284;  668.220
362.587;    2.962;   -8.625;  670.160
363.182;    5.023;   -7.674;  689.631
363.777;    6.116;   -5.164;  738.242
364.372;    5.750;   -8.604;  737.314
364.967;    0.808;   -9.055;  680.744
365.563;    5.616;   -6.114;  815.567
366.158;    2.825;   -5.814;  685.161
366.753;    3.330;   -7.854;  649.263
367.348;    0.642;   -7.804;  746.056
367.942;    1.164;   -7.954;  697.298
368.537;    0.679;   -4.984;  754.245
369.132;    0.532;   -8.564;  703.428
369.727;   -3.358;   -8.855;  638.079
370.322;   -2.202;   -6.245;  580.186
370.917;   -2.093;   -6.425;  710.646
371.511;    1.148;   -6.294;  861.834
372.106;   -2.623;   -7.685;  776.964
372.701;   -5.866;   -7.335;  585.988
373.296;   -0.332;   -4.564;  863.135
373.890;   -5.623;  -10.235;  647.840
374.485;   -7.416;   -7.885;  691.199
375.079;   -4.342;   -7.324;  738.685
375.674;   -2.350;   -3.494;  812.970
376.268;   -6.666;   -8.525;  691.759
376.863;  -12.101;  -10.086;  580.327
377.457;   -6.556;   -7.025;  662.490
378.052;   -7.822;   -3.585;  764.884
378.646;   -9.327;   -7.595;  741.167
379.240;   -9.902;   -8.335;  721.176
379.835;   -8.971;   -5.785;  636.978
380.429;  -10.419;   -4.335;  562.557
381.023;  -10.400;   -6.805;  779.205
381.617;  -12.610;   -9.195;  680.106
382.212;   -9.152;   -6.905;  685.303
382.806;   -8.726;   -3.745;  760.690
383.400;  -13.082;   -7.745;  672.281
383.994;  -13.984;   -9.765;  664.870
384.588;   -9.635;   -6.564;  697.701
385.182;   -8.304;   -5.344;  726.624
385.776;  -10.585;   -8.514;  706.875
386.370;  -13.342;   -9.555;  681.968
386.964;  -12.281;   -8.715;  684.155
387.558;  -11.080;   -6.174;  598.360
388.152;  -14.230;   -8.725;  681.959
388.745;  -12.229;   -7.965;  814.707
389.339;  -10.251;   -5.924;  747.642
389.933;   -9.722;   -5.524;  695.370
390.527;  -10.428;   -7.114;  859.029
391.120;  -17.352;  -10.725;  595.318
391.714;  -14.339;   -8.035;  711.633
392.308;  -10.326;   -3.574;  780.253
392.901;  -14.835;   -7.245;  642.460
393.495;  -16.392;   -9.285;  595.414
394.089;  -13.765;   -5.895;  760.452
394.682;  -14.334;   -4.295;  697.188
395.275;  -15.605;   -9.875;  719.927
395.869;  -15.976;   -8.485;  667.314
396.462;  -15.514;   -7.455;  616.609
397.056;  -11.335;   -5.424;  776.621
397.649;  -15.422;   -6.605;  731.575
398.242;  -13.296;   -8.224;  712.645
398.836;  -12.553;   -7.474;  766.408
399.429;  -14.011;   -7.094;  631.041
400.022;  -17.828;   -9.475;  665.902
400.615;  -14.931;   -7.145;  805.609
401.208;  -12.319;   -7.174;  691.451
401.802;  -15.197;   -5.515;  699.329
402.395;  -16.438;   -9.875;  683.502
402.988;  -16.753;   -8.845;  696.627
403.581;  -13.012;   -8.874;  646.878
404.174;  -11.413;   -5.324;  686.568
404.767;  -14.708;   -9.575;  638.583
405.360;  -17.296;  -10.965;  621.445
405.953;  -11.592;   -8.764;  759.034
406.545;  -11.160;   -7.514;  725.342
407.138;  -15.503;  -10.025;  618.350
407.731;  -14.326;  -10.034;  613.303
408.324;   -9.868;   -9.374;  660.554
408.917;  -10.371;   -6.534;  681.864
409.509;  -13.125;   -8.004;  740.396
410.102;  -15.352;   -9.875;  643.948
410.695;   -9.067;   -8.604;  665.758
411.287;   -9.531;   -6.794;  599.821
411.880;  -11.300;   -9.334;  585.421
412.472;  -14.261;  -10.254;  613.092
413.065;  -11.113;   -6.714;  629.408
413.657;   -8.581;   -7.234;  576.678
414.250;   -8.901;  -10.544;  646.681
414.842;  -11.584;   -9.744;  676.353
415.434;   -9.035;   -6.994;  570.463
416.027;   -4.265;   -5.893;  652.196
416.619;   -7.294;   -7.264;  713.400
417.211;   -6.875;  -10.374;  599.352
417.804;   -3.669;   -7.993;  628.499
418.396;   -7.182;   -7.234;  607.643
418.988;   -5.389;   -9.443;  659.238
419.580;   -9.233;  -10.724;  568.276
420.172;   -6.153;  -10.323;  536.196
420.764;   -2.225;   -8.793;  672.482
421.356;   -3.291;  -11.143;  636.898
421.948;   -4.245;   -8.293;  677.661
422.540;    0.672;   -7.893;  680.027
423.132;    0.210;   -7.082;  600.641
423.724;   -3.186;   -8.653;  561.267
424.316;   -1.402;  -10.213;  621.345
424.908;    1.831;   -9.762;  591.517
425.500;    3.489;   -5.572;  647.978
426.092;    2.680;   -8.422;  648.268
426.683;    2.028;   -9.283;  684.836
427.275;    5.370;   -7.852;  641.471
427.867;    7.006;   -5.272;  668.948
428.458;    5.963;   -7.682;  732.344
429.050;    5.071;  -10.612;  680.749
429.642;    7.296;   -9.882;  743.124
430.233;    8.586;   -6.962;  569.356
430.825;    9.336;   -6.842;  724.809
431.416;    6.593;   -9.672;  698.241
432.008;   10.769;   -6.552;  651.723
432.599;   11.247;   -6.891;  656.073
433.190;    7.418;  -10.912;  637.670
433.782;    7.457;  -11.172;  590.395
434.373;   14.485;   -6.061;  884.765
434.964;   13.876;   -8.251;  602.920
435.556;   11.119;   -9.722;  634.537
436.147;   13.613;   -9.082;  758.490
436.738;   14.236;   -8.041;  701.099
437.329;   19.933;   -7.341;  721.723
437.920;   11.707;   -8.162;  666.688
438.511;   12.273;  -11.802;  564.526
439.103;   18.476;  -10.191;  623.998
439.694;   21.127;   -7.601;  681.583
440.285;   21.422;   -8.541;  764.432
440.876;   19.317;   -9.751;  845.738
441.466;   18.824;   -9.401;  575.162
442.057;   24.187;   -7.760;  665.814
442.648;   22.934;   -9.971;  746.255
443.239;   21.177;  -11.001;  620.477
443.830;   26.188;   -7.990;  704.958
444.421;   28.470;   -7.910;  655.474
445.011;   24.683;   -8.131;  693.619
445.602;   24.318;   -7.111;  743.126
446.193;   25.927;  -10.920;  488.117
446.783;   31.404;   -6.500;  640.397
447.374;   25.970;   -8.671;  692.759
447.964;   26.039;  -10.781;  713.770
448.555;   34.728;   -9.650;  822.742
449.145;   31.909;   -8.660;  662.853
449.736;   32.294;   -8.990;  803.179
450.326;   31.813;   -9.500;  713.626
450.917;   36.560;   -8.680;  675.324
451.507;   36.780;   -7.520;  600.661
452.097;   36.260;   -8.590;  746.267
452.688;   38.237;  -11.340;  742.160
453.278;   37.606;  -10.100;  566.840
453.868;   41.715;   -6.019;  793.550
454.458;   40.293;   -9.440;  651.141
455.048;   39.503;  -10.560;  711.783
455.639;   41.488;  -11.799;  567.096
456.229;   45.995;   -6.899;  710.694
456.819;   46.454;   -7.389;  751.158
457.409;   47.380;  -11.119;  773.993
457.999;   50.066;   -9.289;  737.505
458.589;   50.140;   -6.139;  686.606
459.179;   49.686;   -8.729;  717.658
459.769;   48.343;   -9.789;  627.099
460.358;   52.614;  -10.259;  797.262
460.948;   52.805;   -7.299;  689.503
461.538;   54.079;  -10.289;  660.677
462.128;   52.160;  -11.269;  664.934
462.717;   59.391;   -9.368;  710.326
463.307;   62.309;   -7.908;  705.846
463.897;   57.795;   -9.599;  656.942
464.486;   56.693;   -9.769;  837.128
465.076;   61.592;   -8.048;  733.776
465.666;   65.760;   -9.358;  652.900
466.255;   62.660;   -7.919;  785.651
466.845;   61.848;  -11.689;  666.749
467.434;   65.005;   -7.818;  725.873
468.023;   65.834;   -7.678;  658.357
468.613;   63.646;  -10.939;  713.946
469.202;   68.079;  -10.118;  646.507
469.791;   72.089;   -9.108;  737.811
470.381;   74.340;   -6.058;  742.813
470.970;   73.768;  -10.428;  711.099
471.559;   73.751;  -10.268;  733.291
472.148;   76.783;   -8.448;  675.737
472.738;   79.372;   -6.917;  765.466
473.327;   78.836;  -11.978;  637.529
473.916;   77.428;  -11.888;  737.446
474.505;   82.607;   -9.437;  751.703
475.094;   85.278;   -6.747;  806.570
475.683;   84.987;   -9.367;  797.699
476.272;   86.045;  -12.637;  730.632
476.861;   88.467;  -10.027;  706.754
477.449;   95.382;   -8.716;  728.487
478.038;   88.800;   -9.577;  692.513
478.627;   89.980;   -9.718;  714.852
479.216;   97.039;   -8.947;  769.441
479.805;  100.308;   -6.256;  783.375
480.393;  100.174;   -7.937; 1008.945
480.982;   99.344;   -7.717;  874.501
481.571;  105.343;   -9.266;  858.333
482.159;  105.454;   -7.636;  705.386
482.748;  105.460;   -9.667;  821.385
483.336;  109.640;  -10.376;  858.209
483.925;  110.405;   -7.147;  774.373
484.513;  117.549;   -7.996;  758.962
485.102;  113.425;  -10.027;  810.965
485.690;  122.350;  -10.446; 1011.050
486.278;  124.223;   -8.446;  979.329
486.867;  125.428;   -6.356;  809.662
487.455;  126.971;   -9.136;  898.229
488.043;  127.779;  -10.646;  748.361
488.631;  136.819;   -7.456; 1005.079
489.220;  140.562;   -6.636;  908.626
489.808;  141.172;  -11.036;  741.415
490.396;  148.730;  -10.246;  914.645
490.984;  154.748;   -8.556;  830.161
491.572;  164.968;   -5.886;  940.315
492.160;  170.581;   -9.486;  919.081
492.748;  182.016;  -10.976;  884.341
493.336;  205.743;   -8.776; 1019.693
493.924;  232.090;   -5.465;  958.077
494.512;  260.089;   -9.986; 1066.638
495.100;  295.646;  -10.636; 1103.280
495.687;  350.145;  -10.885; 1206.373
496.275;  409.471;   -8.126; 1150.796
496.863;  474.095;  -10.586; 1281.171
497.451;  569.509;  -11.926; 1386.805
498.038;  701.375;  -10.885; 1556.729
498.626;  809.666;   -6.315; 1741.407
499.214;  949.413;   -7.326; 2016.609
499.801; 1127.804;  -11.906; 2220.633
500.389; 1368.007;  -10.466; 2312.494
500.976; 1666.800;   -5.236; 2744.849
501.564; 2070.076;   -8.936; 3148.565
502.151; 2418.503;  -13.176; 3515.999
502.738; 2846.430;  -10.646; 3971.274
503.326; 3232.446;   -9.525; 4403.796
503.913; 3608.243;  -10.856; 5161.749
504.500; 3905.055;  -11.586; 5986.420
505.088; 4332.250;  -10.336; 6381.201
505.675; 4854.505;   -6.355; 6925.547
506.262; 5475.582;   -9.046; 7619.060
506.849; 6190.639;  -10.416; 8733.969
507.436; 6653.350;  -10.305; 9790.121
508.023; 7179.478;   -5.496; 9985.472
508.610; 7427.698;   -7.856;10434.618
509.197; 8102.010;  -10.097;11198.435
509.784; 9427.535;  -10.886;12391.194
510.371;10420.693;   -9.315;13603.713
510.958;11137.068;   -9.936;14426.586
511.545;11865.461;   -9.326;15243.775
512.132;12708.384;  -10.075;15945.876
512.719;13201.990;   -7.796;16340.369
513.305;14065.050;  -10.606;18011.766
513.892;14797.406;  -11.486;19754.971
514.479;16172.599;   -9.126;20967.805
515.066;17747.996;   -6.026;22299.793
515.652;18987.551;   -8.466;22908.660
516.239;20057.297;  -10.886;23798.875
516.825;21017.416;  -11.496;25567.275
517.412;21929.090;   -5.796;28154.959
517.998;22727.363;  -10.506;28344.111
518.585;22849.939;  -10.076;27134.219
519.171;23159.355;   -8.315;27268.576
519.758;24315.438;   -8.596;28964.129
520.344;26275.836;   -8.466;30664.494
520.930;26635.713;  -11.006;32550.605
521.516;27899.758;  -10.495;35422.895
522.103;30426.188;   -5.526;38280.004
522.689;31300.039;   -8.746;37835.117
523.275;31163.584;  -11.376;37288.613
523.861;32350.523;  -11.156;37281.395
524.447;33422.477;   -8.135;37846.949
525.033;32848.980;   -7.896;38321.949
525.619;33134.020;  -12.476;38579.285
526.205;34758.258;   -9.516;40622.875
526.791;37580.992;   -6.926;42258.836
527.377;37616.242;   -8.346;42966.902
527.963;39137.293;   -8.717;42018.949
528.549;38180.332;  -11.016;42476.828
529.135;36758.152;   -8.536;41854.852
529.721;36082.723;   -9.666;41237.711
530.306;35415.047;  -10.066;41259.445
530.892;35496.531;  -11.356;41506.047
531.478;36834.934;   -6.596;43559.613
532.063;39337.555;   -8.836;47695.563
532.649;40033.707;  -10.047;50808.324
533.235;41124.254;   -9.746;51787.500
533.820;42102.305;   -6.566;52145.035
534.406;42990.926;  -10.817;51133.488
534.991;42570.719;   -9.416;49996.805
535.576;41456.422;   -9.036;48882.852
536.162;41948.535;   -6.156;46942.285
536.747;42884.129;  -11.607;45711.746
537.333;45923.570;  -11.787;48510.180
537.918;49402.234;  -12.437;50439.891
538.503;48419.609;   -7.196;50863.711
539.088;45034.656;  -10.556;50906.922
539.673;45035.164;   -8.767;52621.965
540.259;45060.297;  -10.026;52368.094
540.844;42425.277;   -7.416;50879.109
541.429;43092.289;   -9.467;52077.777
542.014;46318.203;   -9.527;52716.695
542.599;46494.273;   -9.946;52363.281
543.184;43554.746;   -7.927;53187.137
543.769;44062.211;   -9.297;54697.605
544.354;43920.844;  -10.127;53913.914
544.938;43138.355;   -9.267;49680.164
545.523;45329.625;   -6.506;47386.277
546.108;47781.750;   -9.787;49151.949
546.693;49927.863;  -11.587;51384.637
547.278;49678.918;  -10.986;51853.254
547.862;46635.273;   -8.206;51173.750
548.447;42245.191;  -10.067;51691.395
549.031;41483.242;   -9.637;52456.703
549.616;45933.930;   -9.926;52714.516
550.201;45408.996;   -6.347;52414.598
550.785;45997.797;   -7.917;52355.059
551.370;45455.004;  -10.867;54589.453
551.954;45296.988;   -9.047;58267.348
552.538;46937.137;   -7.827;59062.176
553.123;45494.590;  -10.287;58115.285
553.707;42836.129;  -12.178;56556.285
554.291;43347.582;   -8.717;56201.668
554.876;45309.797;   -7.457;55335.762
555.460;45854.020;  -10.387;54155.703
556.044;47315.988;   -9.618;53721.484
556.628;45684.215;  -11.567;53731.016
557.212;44643.434;   -8.097;54312.531
557.796;42921.902;  -11.077;53797.773
558.380;43079.555;  -11.108;56145.984
558.964;43924.977;   -9.057;57277.930
559.548;45127.578;   -6.977;56459.641
560.132;43102.879;  -11.457;54434.543
560.716;41689.480;  -11.378;54800.617
561.300;42421.035;   -9.577;57606.945
561.884;43496.637;   -7.127;58972.445
562.467;42163.875;   -7.118;57327.570
563.051;41769.508;  -13.358;54962.434
563.635;42470.480;  -10.178;52594.473
564.219;42619.492;   -7.837;50610.410
564.802;43171.715;  -11.398;49551.180
565.386;43277.813;  -12.788;48370.953
565.969;43035.656;   -9.077;48178.871
566.553;41793.340;   -6.207;49957.305
567.136;42130.617;   -8.568;50369.594
567.720;38768.320;  -11.868;49492.004
568.303;37100.035;   -8.268;50616.352
568.887;36975.750;   -8.698;50727.148
569.470;37319.441;   -6.808;51698.379
570.053;36466.973;  -13.188;52122.078
570.637;34944.008;  -12.037;52536.438
571.220;34475.375;   -8.577;51186.098
571.803;34674.242;   -8.498;51032.762
572.386;36232.809;  -10.498;49609.887
572.969;38836.613;   -9.388;48285.926
573.552;37726.191;   -8.338;47624.285
574.135;36527.852;   -8.518;45498.641
574.718;33917.188;  -13.628;41970.434
575.301;32303.439;  -10.893;41447.137
575.884;30689.691;   -8.158;40923.836
576.467;31010.926;  -10.328;45267.723
577.050;32562.533;  -13.058;48175.543
577.633;35023.711;   -9.458;47729.328
578.216;35280.355;   -8.928;47579.793
578.799;34785.582;   -9.358;47820.996
579.381;33665.410;  -11.388;48115.551
579.964;31792.834;  -11.718;47333.766
580.547;33275.379;   -8.588;46668.969
581.129;34164.066;   -8.859;44466.141
581.712;34787.867;  -10.729;44164.922
582.294;35553.652;  -11.118;46477.855
582.877;35709.742;   -5.218;48244.254
583.459;33665.098;   -8.679;47437.895
584.042;31903.227;  -10.709;46943.219
584.624;32146.795;  -11.669;46792.227
585.206;31703.533;   -8.218;46557.250
585.789;31578.592;  -10.569;45793.773
586.371;34130.809;  -11.859;43836.391
586.953;35169.754;  -10.719;42972.492
587.536;35880.773;   -7.198;42487.211
588.118;36137.996;   -8.720;42086.414
588.700;31989.775;  -10.439;43389.930
589.282;30371.793;   -9.198;43646.039
589.864;30256.588;   -9.199;43438.109
590.446;29980.373;  -11.319;43151.926
591.028;28484.021;  -11.159;42781.867
591.610;27788.354;  -11.779;42839.098
592.192;27404.371;   -7.668;42820.402
592.774;27818.064;  -11.949;40724.277
593.356;27563.932;  -12.129;39874.789
593.937;27228.078;  -10.669;39980.648
594.519;29250.563;   -6.509;42069.633
595.101;31597.961;  -10.849;42976.031
595.683;31899.303;  -11.679;44084.441
596.264;32889.223;   -9.049;43478.797
596.846;32122.996;   -8.849;43803.672
597.427;31536.617;   -9.570;42986.934
598.009;33134.605;  -12.620;42832.219
598.591;33541.809;  -10.039;42580.086
599.172;32832.852;  -10.369;43061.805
599.753;33018.488;   -9.140;41691.469
600.335;34743.266;  -11.430;40692.520
600.916;33248.121;   -9.939;39982.422
601.498;30638.855;   -8.479;40318.617
602.079;29126.014;  -10.920;40670.609
602.660;28802.371;  -11.480;41450.898
603.241;30076.127;  -11.699;41137.738
603.823;29034.328;   -9.579;38868.797
604.404;28479.785;  -10.620;38182.785
604.985;30045.670;  -10.450;38078.047
605.566;29670.064;   -9.129;38056.633
606.147;29591.449;   -7.510;37020.418
606.728;31668.109;  -10.660;37883.359
607.309;30778.910;  -11.740;38748.273
607.890;30151.402;   -9.759;38850.230
608.471;29786.508;   -8.250;37457.918
609.051;29084.766;   -9.240;36066.457
609.632;27973.061;  -12.120;35991.074
610.213;28686.758;   -9.110;37402.641
610.794;29484.266;   -8.030;38383.363
611.374;28847.314;   -8.110;40562.387
611.955;29276.443;  -13.560;38533.727
612.536;30902.090;  -11.400;36951.789
613.116;30314.650;   -8.070;37197.891
613.697;30664.486;  -10.830;38411.125
614.277;29053.750;  -11.641;38673.938
614.858;29939.855;  -13.310;37075.863
615.438;29507.807;   -7.460;35092.906
616.019;27017.977;   -7.601;33666.301
616.599;27409.182;  -12.020;34189.023
617.179;29396.627;  -11.780;36952.047
617.760;30199.611;   -8.570;39582.574
618.340;31245.270;  -11.471;38943.977
618.920;32775.430;  -11.170;37594.156
619.500;32344.830;  -11.071;37866.938
620.080;31372.932;   -7.750;37869.043
620.660;32308.777;  -12.711;36868.617
621.241;33344.832;  -10.211;36352.309
621.821;33536.148;  -10.961;35459.520
622.401;33100.445;   -7.720;35207.414
622.980;32257.830;   -8.981;35980.422
623.560;30765.141;   -9.331;37351.328
624.140;29721.109;   -9.850;34388.582
624.720;25082.531;   -7.451;32368.764
625.300;21503.166;   -9.070;32638.629
625.880;24690.156;  -12.601;34599.035
626.459;28432.066;  -11.751;36831.738
627.039;31399.791;   -9.281;38299.098
627.619;31538.668;   -8.801;38289.574
628.198;29941.182;  -12.071;37220.695
628.778;29085.783;   -9.461;37632.563
629.357;29790.316;   -8.491;38003.012
629.937;29767.912;   -9.721;38402.039
630.516;29172.324;   -9.951;37868.801
631.096;29137.146;  -11.731;35760.410
631.675;31463.504;   -8.572;35225.219
632.254;36687.086;  -11.282;35130.289
632.834;36251.633;  -13.322;35794.570
633.413;34589.328;  -10.301;35788.922
633.992;31814.406;   -8.582;34532.863
634.571;32827.426;   -8.352;33590.113
635.151;35865.551;  -11.912;34943.863
635.730;34359.773;  -10.511;35352.523
636.309;30672.959;   -7.731;35366.605
636.888;27779.279;   -9.952;36165.637
637.467;28132.299;  -11.672;37515.902
638.046;30183.033;   -8.901;39288.695
638.625;33417.398;   -7.912;38279.699
639.204;33370.625;  -10.022;37741.598
639.782;31519.684;  -12.252;38364.551
640.361;27901.035;  -10.041;36740.621
640.940;24958.402;  -11.161;34950.082
641.519;25346.646;   -9.701;34137.398
642.097;27941.430;  -11.271;35654.258
642.676;30996.600;   -8.651;35637.957
643.255;32280.373;   -8.711;36567.074
643.833;31416.969;   -9.581;37809.434
644.412;31640.059;  -13.711;37337.293
644.990;30870.156;  -11.811;37018.531
645.569;30380.088;   -9.411;36518.469
646.147;29366.643;  -10.291;36186.430
646.726;29019.631;  -12.401;36267.688
647.304;30435.422;  -10.411;36647.625
647.882;32221.266;   -9.651;39286.742
648.461;33733.398;   -9.631;39157.703
649.039;32329.025;  -11.881;35412.883
649.617;31734.734;   -9.661;34744.918
650.195;31426.883;   -9.301;35403.098
650.773;30356.865;  -10.511;35053.797
651.352;27759.963;  -11.521;33756.816
651.930;25300.408;  -12.211;31868.773
652.508;23739.279;   -9.171;33121.551
653.086;27559.607;   -9.371;33564.793
653.663;30834.758;  -13.161;34054.668
654.241;29358.135;  -13.031;35693.309
654.819;30661.844;   -9.371;36422.906
655.397;30572.971;  -10.511;38213.484
655.975;30318.619;  -10.371;39507.625
656.553;30699.318;  -10.051;39498.223
657.130;29047.643;  -10.061;40395.480
657.708;28135.666;   -9.561;39242.020
658.286;28145.176;  -11.511;38920.020
658.863;29483.494;  -10.261;40202.898
659.441;32258.395;   -7.531;39677.938
660.018;31641.385;   -9.501;40413.355
660.596;30490.895;  -13.301;39931.414
661.173;32440.203;  -11.211;39604.531
661.750;32670.246;   -9.951;39700.070
662.328;31409.543;   -9.390;39292.809
662.905;30670.195;  -11.330;38235.648
663.482;26688.602;   -9.050;36212.305
664.060;24596.754;   -8.240;35944.945
664.637;27133.891;  -10.050;35170.785
665.214;28981.492;  -11.760;34197.523
665.791;31042.258;  -10.530;34549.520
666.368;29911.914;   -9.690;35118.578
666.945;30113.875;   -9.320;36019.418
667.522;31659.656;  -11.860;36048.438
668.099;31831.658;  -10.770;36243.914
668.676;30991.932;   -6.260;35958.875
669.253;29404.691;   -7.000;37384.730
669.830;29666.148;  -10.190;36779.629
670.407;29531.627;   -9.550;35231.289
670.984;29592.877;   -9.260;35544.270
671.560;30073.322;   -9.280;35466.867
672.137;28927.848;  -11.810;34280.863
672.714;29689.102;  -11.490;34632.863
673.290;30205.779;   -7.740;35135.422
673.867;30165.111;  -10.660;36114.480
674.443;30759.822;  -12.230;36152.859
675.020;29190.006;  -10.450;35327.238
675.596;29955.072;   -9.260;35795.176
676.173;30386.576;  -10.780;35430.355
676.749;29876.160;  -13.690;33549.516
677.326;30017.191;  -11.980;32210.012
677.902;30191.340;   -8.630;32068.871
678.478;29470.754;  -10.730;32583.891
679.054;28957.719;  -10.520;32088.928
679.631;29852.432;  -11.920;30978.848
680.207;30977.637;   -7.490;33160.887
680.783;32316.473;   -9.860;35570.363
681.359;31527.434;  -13.380;36125.184
681.935;30747.588;  -12.480;35240.922
682.511;29742.482;   -7.900;34429.961
683.087;29524.291;   -7.710;34463.680
683.663;29197.820;  -11.480;34648.898
684.239;28496.770;  -14.090;34546.457
684.815;28179.752;   -7.560;35586.375
685.390;28314.457;   -9.910;35821.895
685.966;28817.162;  -11.159;35085.871
686.542;31538.248;  -11.169;34198.230
687.118;33816.758;   -5.959;32847.707
687.693;34226.664;  -10.329;32794.027
688.269;33551.629;  -12.059;33072.367
688.844;31482.064;  -10.909;33141.664
689.420;29508.834;   -8.019;33965.742
689.995;27389.861;   -8.399;34655.523
690.571;25950.602;  -10.949;33576.742
691.146;26279.354;   -9.619;32657.219
691.722;25778.396;   -8.999;32526.979
692.297;25287.637;  -11.589;33014.617
692.872;27161.869;  -11.739;34012.254
693.448;26940.152;  -11.059;34237.434
694.023;26031.988;  -10.139;34142.672
694.598;28083.752;   -9.029;34132.031
695.173;28650.002;  -13.319;34205.250
695.748;28020.176;  -10.169;32882.488
696.323;27968.385;   -8.339;32864.906
696.898;27876.078;   -8.169;33170.004
697.473;27705.791;  -12.309;32432.984
698.048;27496.262;  -10.989;31649.303
698.623;27704.625;   -9.329;30778.141
699.198;29429.342;   -9.849;31140.119
699.773;30540.381;  -12.329;31764.299
700.348;28972.396;  -10.389;31780.816
700.922;29027.967;   -9.269;32046.375
701.497;29769.736;   -9.329;32603.574
702.072;30042.770;  -10.789;34799.871
702.646;29018.193;  -10.839;35793.172
703.221;26625.820;   -9.099;35201.590
703.795;28717.666;  -10.939;34764.527
704.370;29423.361;  -12.859;34307.367
704.944;29667.451;  -11.559;33509.887
705.519;30696.381;   -7.939;31388.584
706.093;31736.344;  -10.499;31340.104
706.668;32024.648;  -11.289;32630.281
707.242;30553.424;  -11.509;32728.779
707.816;28921.189;   -9.639;32947.238
708.390;27566.914;  -11.429;33277.855
708.965;28449.967;  -11.869;33834.336
709.539;28835.254;  -11.689;33709.273
710.113;29245.191;  -10.478;33044.313
710.687;28809.160;  -10.228;31953.992
711.261;26686.232;  -13.698;30505.949
711.835;26248.045;  -13.378;30262.369
712.409;26975.820;   -9.698;31254.447
712.983;28715.033;  -11.898;32754.986
713.557;29832.039;  -15.138;34018.824
714.131;29700.797;  -14.098;34579.625
714.704;28891.127;   -9.958;33890.262
715.278;26423.068;  -10.028;33531.102
715.852;25579.057;  -11.148;33601.660
716.425;26325.203;   -9.068;33515.117
716.999;26875.709;  -10.038;33185.555
717.573;27864.494;   -9.798;33905.996
718.146;29145.117;  -12.378;35199.293
718.720;28938.277;  -11.918;35060.551
719.293;28278.449;   -8.088;34973.230
719.867;31209.016;  -10.888;36394.449
720.440;31435.537;  -11.938;36663.008
721.013;29959.408;  -12.818;35102.426
721.587;28479.182;  -10.298;33985.266
722.160;26732.199;  -10.048;33524.965
722.733;25738.209;  -12.108;32987.043
723.306;26493.035;  -10.818;33066.301
723.880;28763.051;   -8.908;33399.500
724.453;30843.346;   -9.878;33468.297
725.026;29879.943;  -11.188;33816.637
725.599;26942.563;  -11.678;32797.996
726.172;26906.383;   -9.618;33187.434
726.745;28136.953;   -8.258;35136.613
727.318;29736.549;  -12.978;35751.730
727.891;30753.893;  -12.148;35890.430
728.463;30676.010;   -8.968;34822.090
729.036;29449.814;  -10.188;32895.086
729.609;29641.785;  -11.788;31823.225
730.182;26280.430;  -11.788;31445.283
730.754;23789.242;  -10.268;32373.223
731.327;23953.285;   -9.998;33676.820
731.900;23924.041;  -12.228;33417.000
732.472;25103.148;  -13.848;31978.498
733.045;27403.896;   -8.698;30368.777
733.617;27462.967;  -10.607;30574.215
734.190;27169.182;  -11.507;31280.975
734.762;24498.525;  -13.647;31674.412
735.334;22689.549;   -9.767;31247.291
735.907;23038.697;   -9.897;29876.211
736.479;22860.855;  -11.637;29808.488
737.051;22467.299;   -9.567;30233.547
737.623;23855.631;   -8.187;31469.086
738.195;24775.771;  -11.187;31784.225
738.768;26376.369;  -12.337;32120.523
739.340;26669.512;  -12.227;32094.342
739.912;25626.488;  -11.057;31312.680
740.484;24416.830;  -10.207;31946.238
741.056;23175.242;  -10.047;32984.059
741.628;24783.713;  -13.627;33897.715
742.199;27116.400;   -7.177;33213.016
742.771;25531.701;  -10.797;31369.113
743.343;23129.854;  -11.997;31865.473
743.915;21872.904;  -12.867;32388.631
744.487;21939.756;   -7.617;31079.568
745.058;22247.623;   -9.557;30570.107
745.630;23065.895;   -9.877;29970.127
746.201;24215.861;  -14.177;29186.766
746.773;24680.680;   -9.237;28805.723
747.344;24532.406;   -9.847;29591.223
747.916;22964.662;  -11.657;31412.201
748.487;22666.926;  -10.587;32194.898
749.059;23906.791;   -8.707;32533.719
749.630;24977.107;  -10.537;32158.518
750.201;23989.811;  -11.687;30855.395
750.773;22150.934;  -11.647;28622.555
751.344;22092.146;   -7.147;28405.732
751.915;23246.295;   -9.757;28461.551
752.486;22920.826;  -12.427;27842.850
753.057;20537.834;  -12.227;27845.008
753.628;19228.574;  -10.417;27728.107
754.199;20352.668;  -11.767;27381.086
754.770;21631.707;  -11.187;25882.203
755.341;21659.314;  -10.507;25886.184
755.912;21916.896;   -9.387;26050.861
756.483;21301.660;  -10.647;26798.779
757.054;19488.701;  -11.837;27048.238
757.625;18144.154;  -12.716;26294.838
758.195;17794.758;   -9.666;26142.076
758.766;17368.600;   -8.656;26392.234
759.337;18219.498;  -12.856;26334.594
759.907;20098.396;  -13.366;27579.652
760.478;21033.283;   -8.576;28352.770
761.048;20550.092;  -10.526;27325.088
761.619;19745.693;  -11.116;26460.428
762.189;19627.066;  -12.136;26029.826
762.760;20495.076;   -9.456;26430.145
763.330;21783.070;   -7.136;26670.902
763.900;21322.674;  -11.786;26603.021
764.471;18559.150;  -11.546;25542.740
765.041;17198.896;   -8.096;24358.459
765.611;17374.270;   -8.876;23991.297
766.181;17860.039;  -12.196;24470.236
766.751;18700.328;  -11.636;24845.975
767.321;18674.469;  -10.156;24533.633
767.891;16745.357;  -11.766;24916.492
768.461;16011.520;  -14.936;24776.771
769.031;16357.254;  -12.356;24757.988
769.601;18126.801;   -7.526;24181.088
770.171;18260.326;  -10.766;23670.387
770.741;17217.754;  -13.176;22960.045
771.311;17268.844;  -10.616;22917.523
771.880;17771.947;   -9.576;23562.941
772.450;17304.109;  -10.336;24216.500
773.020;17138.721;  -13.516;24140.398
773.589;16704.178;  -13.466;24414.857
774.159;16219.130;   -8.686;23858.717
774.729;15771.258;   -9.476;22942.135
775.298;15326.891;  -13.666;22324.033
775.867;14966.104;  -11.716;21140.313
776.437;15052.445;   -9.906;20838.092
777.006;14731.227;  -12.166;20599.510
777.576;14653.188;  -12.356;20508.809
778.145;14801.136;  -11.646;20732.947
778.714;14711.278;   -8.226;21062.465
779.283;13924.312;   -9.556;20949.664
779.853;13477.083;  -14.116;20508.623
780.422;13875.499;  -11.506;20649.082
780.991;13404.321;   -9.556;21527.520
781.560;12321.135;   -9.095;22632.658
782.129;12144.085;  -12.135;23048.277
782.698;12149.030;  -10.865;23438.555
783.267;11850.002;   -9.335;23267.734
783.836;11807.350;  -11.045;22415.133
784.404;12806.333;  -13.865;20443.152
784.973;13303.515;  -13.095;19699.150
785.542;13092.774;  -11.575;19763.828
786.111;12895.032;   -9.705;20341.408
786.679;12561.390;  -12.105;20207.967
787.248;12358.129;  -12.455;19516.465
787.817;12151.431;  -11.535;18900.363
788.385;11750.779;   -9.765;17879.121
788.954;11138.172;  -14.005;17658.301
789.522;10609.938;  -11.955;17788.879
790.090;11148.152;  -10.135;18118.277
790.659;11608.795;  -10.975;18338.736
791.227;11029.706;  -13.375;18508.615
791.795;11449.508;  -12.375;17898.254
792.364;11883.721;  -10.725;17295.133
792.932;12230.523;   -9.715;16822.051
793.500;12441.905;  -12.675;17040.148
794.068;12665.312;  -13.495;17179.787
794.636;12847.078;  -10.885;16664.246
795.204;12248.536;  -11.045;16524.545
795.772;12248.465;  -13.175;17274.564
796.340;11795.007;  -12.445;17891.002
796.908;11614.934;   -9.735;17648.561
797.476;11627.894;   -9.815;17064.080
798.044;11211.248;  -13.985;16672.777
798.612;10325.437;  -13.115;17023.996
799.180; 9946.177;  -10.185;16561.615
799.747; 9820.464;   -9.055;15962.773
800.315; 9472.469;  -12.385;15296.992
800.883; 9205.586;  -15.035;14801.771
801.450; 9259.772;  -10.365;14534.430
802.018; 9298.144;   -9.855;14173.248
802.585; 9312.013;  -11.905;14029.547
803.153; 9332.616;  -11.585;13836.846
803.720; 9251.874;   -9.095;13567.324
804.287; 8955.729;   -9.135;13360.622
804.855; 8524.710;  -11.604;13681.981
805.422; 8366.118;  -11.794;13536.560
805.989; 8355.601;  -10.734;13355.958
806.556; 8486.699;  -10.444;13747.896
807.124; 8760.094;  -12.764;13987.376
807.691; 8690.842;  -12.964;14038.674
808.258; 8512.854;  -11.134;14120.152
808.825; 8219.862;   -9.854;13860.111
809.392; 8294.460;  -10.504;13268.790
809.959; 7793.741;  -13.054;12680.389
810.526; 7352.627;   -8.294;12427.308
811.093; 7377.255;   -8.394;12030.105
811.659; 8000.730;  -12.304;11653.664
812.226; 8460.307;  -13.944;11637.183
812.793; 8118.814;  -10.484;11611.521
813.360; 7450.839;  -10.144;11885.181
813.926; 7035.857;  -11.684;12770.539
814.493; 6784.387;  -13.644;12677.638
815.060; 6434.887;   -9.724;11974.336
815.626; 6462.369;   -9.854;11594.715
816.193; 6902.342;  -13.254;11579.474
816.759; 6972.689;  -13.204;11666.972
817.325; 7059.209;   -9.434;11325.530
817.892; 7392.562;  -10.134;11105.369
818.458; 7798.300;  -13.474;10843.928
819.024; 7496.568;  -11.854;10714.406
819.591; 7158.756;  -10.244;10469.165
820.157; 6899.050;  -10.704;10235.523
820.723; 6351.759;  -12.324;10847.563
821.289; 6029.336;   -9.444;11040.980
821.855; 5992.605;   -8.374;10357.100
822.421; 6054.761;  -10.234; 9978.918
822.987; 6035.433;  -13.294; 9754.177
823.553; 5670.846;  -10.884;10065.755
824.119; 5455.369;   -8.884;10036.294
824.685; 5550.410;   -6.784;10029.192
825.251; 5656.720;  -12.004;10199.230
825.816; 5604.261;  -11.474; 9820.189
826.382; 5355.011;   -9.174; 9297.248
826.948; 5513.552;   -9.214; 9381.347
827.513; 5958.104;  -10.774; 9450.726
828.079; 5819.544;  -11.924; 9472.444
828.645; 5214.633;  -10.543; 9292.643
829.210; 5074.486;  -10.533; 9065.341
829.776; 5057.375;  -10.753; 9132.620
830.341; 4913.971;  -10.173; 9092.878
830.906; 5068.066;  -10.743; 9078.557
831.472; 5459.032;  -11.113; 8534.535
832.037; 5286.369;  -10.603; 8677.874
832.602; 4741.431;  -13.323; 8628.692
833.167; 4403.521;  -10.823; 8879.031
833.733; 4322.932;  -10.113; 9189.790
834.298; 4439.339;  -13.583; 9052.608
834.863; 4487.228;  -12.703; 8895.087
835.428; 4446.200;  -10.523; 8824.266
835.993; 4330.642;   -6.963; 8845.385
836.558; 4183.219;  -10.763; 8888.563
837.123; 4294.962;   -9.903; 8966.582
837.688; 4505.480;   -9.913; 8617.860
838.253; 4733.496;  -10.283; 8590.699
838.817; 4954.401;  -12.963; 8443.797
839.382; 4904.292;  -14.243; 8799.356
839.947; 4587.484;  -10.733; 8810.595
840.511; 4273.782;   -9.383; 8796.394
841.076; 3895.122;  -12.563; 8347.231
841.641; 3915.627;  -12.953; 8224.330
842.205; 3999.674;   -7.043; 8223.349
842.770; 4090.178;   -8.163; 8622.107
843.334; 4323.814;  -12.503; 8410.386
843.898; 4318.567;  -11.693; 8337.465
844.463; 4337.135;  -10.203; 8506.283
845.027; 4080.892;   -9.533; 8280.962
845.591; 3840.516;  -13.443; 8231.141
846.156; 3858.459;  -13.143; 7969.179
846.720; 3742.197;   -9.433; 7768.278
847.284; 3622.051;  -11.033; 7630.957
847.848; 3466.556;  -10.403; 7472.395
848.412; 3392.582;  -11.553; 7437.394
848.976; 3459.829;   -8.393; 7674.592
849.540; 3399.535;   -8.713; 7836.011
850.104; 3453.851;  -12.463; 7913.669
850.668; 3799.700;  -12.973; 7694.508
851.232; 3943.250;  -10.793; 7756.887
851.796; 3766.658;  -10.662; 7926.545
852.359; 3450.102;  -13.082; 7827.844
852.923; 3285.533;  -12.192; 7641.163
853.487; 3124.334;  -11.912; 7342.501
854.050; 3053.728;  -10.892; 7042.820
854.614; 3192.891;  -13.992; 7151.338
855.177; 3322.115;  -11.732; 7105.077
855.741; 3381.680;   -8.962; 6989.675
856.304; 3273.152;   -9.442; 6596.634
856.868; 3190.543;  -14.192; 6356.272
857.431; 3292.736;  -12.702; 6468.571
857.995; 3402.040;   -9.942; 6373.210
858.558; 3415.660;   -9.112; 6324.448
859.121; 3146.622;  -12.932; 6408.327
859.684; 3007.338;  -13.442; 6347.886
860.247; 3147.188;  -10.632; 6321.264
860.810; 3160.641;  -11.272; 6301.903
861.374; 2925.802;   -9.832; 6607.881
861.937; 2661.969;  -11.762; 6408.200
862.500; 2624.656;   -9.722; 6572.639
863.062; 2772.157;  -10.512; 6387.297
863.625; 2952.276;  -11.232; 6190.836
864.188; 3117.710;  -14.112; 5807.254
864.751; 3179.869;  -11.302; 5682.413
865.314; 3077.558;  -10.112; 5547.492
865.876; 2882.328;  -12.182; 5500.150
866.439; 2869.374;  -10.722; 5415.909
867.002; 2837.698;   -9.252; 5501.567
867.564; 2632.161;   -9.572; 5413.946
868.127; 2415.705;  -13.142; 5160.325
868.689; 2320.192;  -12.902; 5133.183
869.252; 2259.653;   -9.732; 5252.382
869.814; 2179.209;   -9.432; 5297.141
870.377; 2191.430;  -11.552; 5390.919
870.939; 2255.929;   -9.052; 5599.898
871.501; 2316.996;  -10.982; 5248.336
872.063; 2325.592;  -12.292; 4854.235
872.626; 2287.530;  -14.912; 4817.074
873.188; 2286.886;  -13.112; 4987.732
873.750; 2245.399;  -13.442; 4868.651
874.312; 2140.747;   -9.402; 4779.330
874.874; 2049.978;  -11.062; 4866.348
875.436; 1971.811;  -13.931; 4718.887
875.998; 1969.779;   -9.561; 4660.005
876.560; 1992.315;  -11.321; 4462.964
877.122; 1940.242;  -12.221; 4145.042
877.683; 1843.803;  -12.191; 4056.481
878.245; 1763.733;  -12.101; 3950.740
878.807; 1793.104;   -8.971; 4058.958
879.369; 1810.585;  -12.071; 3954.677
879.930; 1712.275;  -14.621; 3941.495
880.492; 1651.371;  -10.311; 4067.014
881.053; 1632.552;  -10.901; 3859.633
881.615; 1526.292;  -14.411; 3776.071
882.176; 1427.907;  -13.761; 3734.750
882.738; 1387.089;   -9.181; 3678.489
883.299; 1360.225;  -11.791; 3405.407
883.860; 1351.924;  -13.121; 3351.106
884.422; 1359.638;  -11.211; 3394.044
884.983; 1323.647;  -10.091; 3166.443
885.544; 1233.122;   -8.461; 3189.802
886.105; 1147.767;  -12.361; 3160.360
886.666; 1077.890;  -14.141; 3093.059
887.227; 1018.149;  -11.361; 2941.957
887.788;  950.521;  -11.401; 2974.836
888.349;  885.219;  -13.791; 2721.214
888.910;  882.887;  -13.191; 2696.493
889.471;  891.453;   -9.881; 2560.172
890.032;  879.914;   -9.881; 2558.190
890.593;  852.976;  -10.371; 2567.669
891.153;  822.180;  -13.301; 2460.307
891.714;  772.551;  -11.431; 2372.046
892.275;  738.677;  -11.291; 2309.505
892.835;  702.935;  -11.471; 2382.543
893.396;  647.380;  -11.541; 2295.502
893.956;  587.969;  -11.181; 2162.420
894.517;  549.552;  -11.741; 2125.439
895.077;  539.695;  -11.671; 2086.978
895.638;  537.947;  -11.311; 2126.316
896.198;  508.688;   -9.831; 1838.275
896.758;  463.590;   -8.421; 1892.813
897.319;  429.121;  -12.351; 1792.232
897.879;  411.729;  -13.511; 1762.751
898.439;  385.305;  -12.001; 1661.149
898.999;  360.435;  -10.180; 1781.468
899.559;  350.467;  -12.030; 1703.347
900.119;  346.030;  -15.710; 1537.525
900.679;  344.082;   -8.900; 1638.384
901.239;  331.773;   -8.340; 1527.902
901.799;  320.245;  -13.910; 1456.441
902.359;  312.448;  -13.460; 1357.140
902.919;  305.429;  -11.490; 1331.118
903.479;  292.141;  -12.110; 1317.257
904.038;  269.503;  -11.720; 1262.595
904.598;  250.965;  -13.610; 1152.034
905.158;  246.568;  -11.040; 1240.893
905.717;  240.146;  -10.900; 1233.691
906.277;  228.881;  -15.080; 1217.330
906.836;  219.266;  -13.380; 1222.408
907.396;  211.192;  -10.780; 1193.047
907.955;  205.000;   -8.500; 1182.526
908.515;  197.876;  -12.760; 1099.364
909.074;  190.822;  -11.900; 1092.863
909.633;  184.938;   -8.950; 1069.121
910.192;  180.276;   -8.770; 1196.460
910.752;  175.106;  -12.390; 1029.960
911.311;  170.035;  -13.680; 1009.780
911.870;  168.736;  -12.370;  971.460
912.429;  168.212;  -10.900; 1094.080
912.988;  167.632;  -11.690; 1081.060
913.547;  162.779;  -13.240;  940.380
914.106;  157.563;  -11.990;  999.420
914.665;  154.055;   -9.990;  984.020
915.224;  153.167;  -12.880; 1035.760
915.782;  153.013;  -12.350;  922.560
916.341;  152.639;   -9.110; 1049.840
916.900;  149.467;   -9.270;  925.260
917.458;  147.032;  -13.240;  884.220
918.017;  145.686;  -13.550;  942.600
918.576;  145.306;  -12.320;  904.440
919.134;  143.725;  -11.490;  837.980
919.693;  141.647;  -13.670;  893.060
920.251;  139.734;  -15.470;  876.500
920.809;  138.960;  -11.290;  839.580
921.368;  139.109;  -10.210;  885.360
921.926;  137.621;  -12.140;  842.940
922.484;  136.267;  -13.080;  903.360
923.042;  135.044;  -11.720;  880.340
923.601;  138.805;   -7.480;  998.680
924.159;  136.884;  -11.570;  935.560
924.717;  133.888;  -13.840;  841.080
925.275;  133.525;  -10.640;  903.240
925.833;  133.523;  -11.540;  779.320
926.391;  134.287;  -12.960;  938.380
926.949;  131.625;  -14.130;  857.680
927.506;  133.414;  -11.750;  903.500
928.064;  134.214;  -10.250;  877.580
928.622;  132.552;  -13.030;  880.100
929.180;  131.626;  -13.400;  814.180
929.737;  132.777;  -10.700;  808.540
930.295;  137.201;  -10.070;  928.480
930.853;  138.577;  -11.960;  849.100
931.410;  138.411;  -13.120;  821.120
931.968;  138.271;  -10.770;  940.660
932.525;  137.874;  -10.680;  909.380
933.082;  138.877;  -13.130;  811.440
933.640;  139.094;  -13.210;  925.900
934.197;  137.857;  -11.060;  886.360
934.754;  138.215;   -9.580;  897.780
935.312;  142.099;  -14.000;  863.340
935.869;  145.850;  -10.710; 1012.980
936.426;  145.585;   -9.860;  872.800
936.983;  147.126;   -9.710;  889.020
937.540;  146.680;  -13.990;  838.280
938.097;  145.507;  -14.040;  940.120
938.654;  146.839;  -10.310;  898.860
939.211;  150.428;  -10.560;  952.480
939.768;  153.299;  -13.900;  915.420
940.324;  156.543;  -14.760;  904.200
940.881;  157.381;  -10.370;  878.500
941.438;  158.718;   -8.260; 1021.200
941.995;  153.579;  -12.540;  992.560
942.551;  151.611;  -14.670;  875.620
943.108;  151.839;  -10.450;  937.920
943.664;  154.622;  -10.750;  869.340
944.221;  157.418;  -11.550; 1088.140
944.777;  154.789;  -14.770;  869.680
945.334;  156.272;  -12.820;  884.840
945.890;  158.991;  -10.130;  946.480
946.446;  159.605;  -13.470;  947.020
947.003;  161.402;  -12.120;  964.940
947.559;  163.687;   -9.980; 1063.040
948.115;  163.105;   -9.080; 1026.540
948.671;  160.162;  -10.830;  967.300
949.227;  156.491;  -12.440;  859.560
949.783;  154.510;  -12.910;  858.900
950.339;  156.392;  -10.270;  991.000
950.895;  156.071;  -13.630; 1023.840
951.451;  155.720;  -15.100;  925.280
952.007;  157.360;  -11.330;  998.540
952.563;  159.020;  -10.580;  937.780
953.118;  158.417;  -13.440;  904.940
953.674;  157.007;  -12.710;  935.780
954.230;  157.284;  -10.350;  949.640
954.785;  155.652;   -9.190;  936.640
955.341;  152.499;  -11.200;  998.160
955.897;  150.247;  -16.560;  834.660
956.452;  152.475;  -12.570;  953.840
957.008;  151.866;   -7.970; 1083.640
957.563;  148.562;  -11.940; 1009.540
958.118;  143.491;  -13.450;  877.700
958.674;  143.998;  -12.030;  946.780
959.229;  146.138;   -9.410; 1013.980
959.784;  143.670;  -12.000;  832.400
960.339;  142.574;  -14.780; 1001.280
960.894;  139.684;   -9.860;  963.760
961.449;  136.244;   -9.970;  859.960
962.004;  135.845;  -10.900; 1212.840
962.559;  130.420;  -13.150;  860.140
963.114;  128.578;  -13.740;  742.480
963.669;  128.724;   -9.820;  915.500
964.224;  126.402;  -13.890;  874.340
964.779;  125.245;  -12.600;  828.420
965.334;  127.423;  -10.950; 1017.860
965.888;  125.813;  -11.170;  875.360
966.443;  130.034;  -12.540;  972.380
966.998;  131.077;  -15.780;  819.460
967.552;  131.870;   -9.760;  908.380
968.107;  129.843;   -9.060;  868.300
968.661;  129.559;  -11.950;  922.440
969.216;  125.779;  -12.800;  856.280
969.770;  118.541;  -11.210;  917.200
970.324;  108.428;  -11.610;  923.140
970.879;   96.814;  -11.370;  947.180
971.433;   89.880;  -12.540;  952.720
971.987;   86.077;  -11.320;  895.340
972.541;   86.104;  -10.720;  917.100
973.095;   88.956;   -9.680; 1009.460
973.649;   89.558;  -11.440;  809.480
974.203;   90.709;  -11.210;  829.040
974.757;   92.328;  -10.240;  855.220
975.311;   94.030;  -13.720;  872.600
975.865;   92.905;  -13.770;  881.820
976.419;   92.370;  -11.690;  857.400
976.973;   92.891;   -9.510;  849.620
977.526;   95.405;  -12.620;  949.920
978.080;   94.255;  -12.010;  796.780
978.634;   96.883;  -10.170;  921.320
979.187;   95.076;   -9.020;  905.400
979.741;   93.055;   -9.820; 1018.380
980.294;   88.517;  -14.870;  789.160
980.848;   86.700;  -12.380;  717.220
981.401;   89.319;  -10.350;  816.540
981.955;   91.016;  -13.720;  844.300
982.508;   89.581;  -11.490;  746.340
983.061;   91.479;  -10.000;  915.260
983.615;   87.583;  -11.480;  798.800
984.168;   84.965;  -13.220;  770.080
984.721;   83.472;  -13.960;  880.760
985.274;   83.304;  -10.870;  867.500
985.827;   82.251;   -9.790;  834.220
986.380;   80.381;  -13.120;  721.340
986.933;   78.880;  -12.450;  864.800
987.486;   77.482;  -10.210;  861.920
988.039;   76.958;   -8.430;  863.100
988.591;   74.980;  -10.520;  893.260
989.144;   72.039;  -14.860;  737.260
989.697;   71.920;  -13.080;  758.740
990.250;   73.063;  -10.150;  858.100
990.802;   72.866;  -13.430;  755.860
991.355;   72.301;  -12.750;  974.880
991.907;   70.168;  -12.040;  864.320
992.460;   68.034;  -11.330;  753.760
993.012;   67.258;  -13.610;  749.540
993.565;   65.958;  -13.460;  711.360
994.117;   67.841;   -9.360;  950.780
994.669;   65.573;  -11.300;  701.320
995.221;   63.486;  -13.540;  791.920
995.774;   60.863;  -13.430;  787.580
996.326;   58.918;  -12.520;  740.220
996.878;   59.097;  -10.950;  838.420
997.430;   57.347;  -14.300;  699.860
997.982;   56.514;  -13.760;  750.140
998.534;   55.851;  -11.530;  739.060
999.086;   55.142;  -10.310;  738.220
999.638;   53.781;  -12.530;  661.380
1000.190;   52.713;  -11.840;  699.320
1000.741;   51.538;  -10.260;  742.700
1001.293;   50.863;   -8.860;  686.020
1001.845;   48.312;  -13.700;  676.640
1002.396;   46.667;  -12.100;  743.400
1002.948;   46.733;  -12.760;  737.400
1003.500;   45.579;  -10.380;  723.780
1004.051;   47.239;  -11.900;  907.580
1004.603;   45.720;  -12.250;  791.820
1005.154;   42.091;  -13.210;  608.980
1005.705;   42.396;  -10.950;  723.960
1006.257;   41.645;  -13.880;  707.220
1006.808;   41.033;  -12.840;  685.460
1007.359;   39.982;  -10.570;  763.240
1007.910;   39.290;   -9.620;  646.640
1008.461;   39.525;  -13.630;  732.940
1009.013;   38.037;  -17.200;  588.340
1009.564;   39.026;  -10.200;  793.520
1010.115;   37.308;  -12.570;  597.040
1010.665;   37.540;  -15.150;  602.160
1011.216;   37.529;  -14.480;  667.920
1011.767;   36.395;  -11.340;  697.920
1012.318;   36.932;   -9.780;  736.980
1012.869;   35.730;  -12.380;  679.000
1013.419;   34.936;  -15.560;  603.120
1013.970;   35.779;  -11.010;  666.640
1014.521;   34.371;  -11.610;  620.620
1015.071;   35.524;  -13.450;  670.380
1015.622;   35.225;  -13.870;  635.460
1016.172;   34.068;  -11.610;  596.820
1016.723;   34.307;  -12.120;  614.380
1017.273;   33.336;  -13.620;  604.160
1017.823;   33.719;  -14.140;  650.340
1018.374;   33.203;  -12.800;  611.760
1018.924;   33.152;  -12.340;  716.880
1019.474;   33.190;  -11.410;  718.880
1020.024;   31.309;  -14.770;  657.580
1020.574;   32.960;   -9.780;  726.160
1021.124;   32.907;   -8.560;  673.580
1021.674;   31.804;  -15.190;  559.120
1022.224;   32.277;  -13.530;  708.940
1022.774;   32.413;  -13.280;  668.820
1023.324;   32.661;  -10.690;  753.520
1023.874;   33.615;  -10.240;  875.760
1024.423;   30.952;  -12.540;  613.700
1024.973;   30.573;  -10.010;  610.760
1025.523;   29.889;  -10.550;  620.960
1026.072;   29.761;  -13.560;  606.420
1026.622;   29.029;  -15.120;  675.740
1027.172;   30.234;  -11.260;  715.660
1027.721;   29.146;  -11.410;  601.220
1028.270;   29.611;  -13.530;  663.400
1028.820;   29.359;  -13.680;  638.080
1029.369;   28.309;  -13.520;  612.700
1029.918;   28.901;  -10.980;  649.840
1030.468;   28.636;  -13.530;  564.780
1031.017;   29.370;  -13.170;  634.800
1031.566;   27.763;  -12.200;  608.900
1032.115;   29.204;   -9.960;  694.500
1032.664;   27.550;  -13.210;  596.480
1033.213;   28.711;  -12.500;  735.420
1033.762;   27.927;  -11.910;  635.620
1034.311;   27.821;   -9.640;  677.220
1034.860;   27.656;  -13.310;  691.000
1035.408;   27.911;  -11.830;  722.720
1035.957;   27.618;  -12.000;  719.540
1036.506;   25.565;  -11.690;  530.800
1037.055;   28.444;  -10.990;  844.320
1037.603;   26.250;  -15.120;  664.000
1038.152;   24.515;  -12.450;  534.760
1038.700;   25.448;  -10.560;  585.740
1039.249;   25.547;  -11.080;  681.220
1039.797;   25.793;  -12.540;  633.360
1040.345;   25.406;  -11.920;  705.420
1040.894;   24.669;  -11.410;  625.300
1041.442;   24.337;  -14.320;  632.200
1041.990;   24.032;  -16.240;  559.160
1042.538;   24.691;  -11.680;  536.180
1043.087;   24.073;  -10.760;  570.860
1043.635;   25.072;  -11.850;  670.500
1044.183;   24.462;  -15.480;  586.400
1044.731;   23.294;  -11.770;  576.000
1045.279;   23.076;  -13.090;  674.920
1045.827;   25.281;  -12.440;  892.400
1046.374;   22.587;  -13.840;  515.420
1046.922;   21.959;  -13.220;  590.580
1047.470;   24.274;  -10.230;  691.300
1048.018;   22.555;  -14.590;  647.960
1048.565;   23.399;  -12.050;  708.600
1049.113;   22.117;  -11.650;  557.000
1049.660;   22.942;  -10.510;  629.660
1050.208;   22.288;  -13.310;  675.640
1050.755;   22.060;  -15.900;  606.580
1051.303;   21.575;  -11.430;  686.820
1051.850;   21.938;   -8.480;  635.120
1052.397;   19.994;  -15.010;  473.960
1052.945;   20.658;  -13.960;  617.760
1053.492;   22.228;  -13.150;  741.840
1054.039;   22.278;   -9.630;  720.180
1054.586;   20.692;  -13.680;  557.240
1055.133;   20.780;  -14.570;  693.140
1055.680;   21.250;  -13.820;  646.620
1056.227;   20.077;  -11.730;  542.780
1056.774;   21.863;  -12.480;  794.980
1057.321;   19.432;  -13.930;  523.260
1057.868;   19.575;  -11.690;  651.320
1058.415;   19.615;   -9.520;  651.980
1058.961;   20.147;  -13.160;  678.940
1059.508;   19.529;  -12.920;  643.820
1060.055;   19.916;  -11.920;  581.780
1060.601;   20.622;  -11.500;  624.300
1061.148;   20.075;  -14.330;  616.820
1061.694;   18.347;  -16.870;  592.580
1062.241;   18.917;  -10.330;  596.320
1062.787;   18.811;  -10.620;  663.140
1063.334;   20.245;  -10.110;  808.560
1063.880;   18.996;  -13.400;  668.360
1064.426;   18.546;  -10.680;  706.820
1064.972;   18.599;   -9.920;  601.340
1065.518;   16.538;  -10.980;  566.640
1066.065;   17.642;  -14.890;  624.460
1066.611;   17.298;  -12.870;  598.800
1067.157;   18.548;  -12.950;  641.860
1067.703;   18.194;  -13.540;  668.480
1068.249;   17.835;  -13.540;  605.220
1068.794;   17.495;  -12.600;  626.880
1069.340;   17.082;  -10.620;  578.960
1069.886;   17.328;  -12.830;  590.700
1070.432;   16.006;  -14.870;  541.720
1070.977;   16.713;  -11.980;  601.080
1071.523;   16.782;   -8.200;  573.060
1072.068;   16.279;  -12.330;  582.000
1072.614;   15.939;  -16.370;  527.760
1073.160;   17.228;  -11.100;  687.040
1073.705;   15.835;  -10.480;  572.520
1074.250;   16.479;  -14.520;  559.900
1074.796;   16.580;  -11.460;  655.160
1075.341;   16.606;  -11.950;  664.100
1075.886;   16.579;  -11.460;  594.240
1076.431;   15.483;  -13.770;  649.880
1076.976;   15.028;  -12.680;  639.220
1077.521;   14.918;  -13.170;  583.080
1078.067;   14.818;  -10.860;  579.400
1078.612;   15.655;  -13.920;  661.620
1079.156;   14.770;  -13.880;  601.540
1079.701;   15.980;  -13.120;  693.260
1080.246;   15.679;   -9.940;  696.300
1080.791;   15.111;  -14.740;  625.020
1081.336;   14.816;  -13.750;  659.320
1081.880;   14.365;  -13.400;  649.680
1082.425;   13.613;  -12.220;  573.480
1082.970;   15.469;  -11.610;  717.040
1083.514;   13.900;  -13.580;  597.000
1084.059;   13.005;  -12.810;  586.720
1084.603;   13.000;  -12.320;  565.840
1085.147;   13.716;  -13.190;  645.220
1085.692;   14.292;  -12.480;  716.800
1086.236;   13.186;  -13.020;  503.140
1086.780;   14.868;   -9.190;  751.440
1087.325;   14.015;  -12.480;  654.620
1087.869;   13.460;  -12.450;  610.700
1088.413;   13.229;  -12.240;  705.040
1088.957;   12.238;   -9.020;  543.400
1089.501;   14.237;  -10.320;  766.640
1090.045;   12.507;  -12.720;  726.480
1090.589;   11.263;  -13.690;  569.920
1091.133;   12.340;  -10.020;  673.340
1091.676;   12.444;  -12.330;  591.940
1092.220;   12.532;  -14.970;  600.920
1092.764;   13.489;  -12.430;  706.960
1093.307;   12.552;   -9.800;  673.780
1093.851;   10.798;  -14.970;  556.540
1094.395;   11.266;  -15.310;  683.140
1094.938;   10.737;  -10.370;  632.520
1095.482;   11.949;  -11.050;  559.800
1096.025;   12.180;  -11.840;  710.880
1096.568;   12.099;  -12.840;  779.280
1097.112;    9.854;  -14.700;  508.180
1097.655;   11.539;   -8.720;  603.000
1098.198;   10.392;  -13.610;  600.180
1098.741;   10.060;  -13.350;  612.860
1099.285;   11.181;  -11.230;  657.300
1099.828;   10.004;  -11.840;  439.400
1100.371;   10.563;  -10.840;  608.160
1100.914;   10.219;  -14.190;  682.660
1101.457;   10.107;  -11.240;  679.900
1101.999;    8.794;  -11.270;  584.680
1102.542;   10.637;  -11.480;  641.440
1103.085;    9.387;  -11.750;  658.500
1103.628;   10.631;  -11.400;  762.060
1104.170;    9.989;  -10.490;  588.280
1104.713;   10.461;  -10.600;  646.700
1105.256;    9.194;  -14.360;  557.440
1105.798;    8.020;  -13.210;  499.980
1106.341;   10.421;  -10.270;  728.900
1106.883;    8.609;  -12.200;  521.340
1107.425;    9.243;  -13.110;  668.180
1107.968;    8.870;  -12.840;  612.380
1108.510;    9.808;   -6.480;  684.960
1109.052;    7.451;  -13.940;  612.620
1109.594;    8.237;  -13.690;  554.440
1110.136;    8.641;  -11.880;  643.220
1110.679;    8.230;   -9.500;  633.080
1111.221;    8.590;  -14.160;  604.460
1111.763;    7.582;  -13.980;  559.220
1112.304;    7.171;  -13.880;  547.140
1112.846;    8.810;  -12.210;  666.240
1113.388;   11.127;  -11.390;  942.180
1113.930;    7.713;  -14.540;  694.200
1114.472;    7.016;  -12.640;  606.540
1115.013;    6.272;  -11.620;  551.280
1115.555;    6.345;  -13.640;  587.100
1116.097;    6.360;  -15.380;  579.480
1116.638;    6.838;  -12.640;  684.600
1117.180;    7.579;   -9.850;  667.740
1117.721;    7.401;  -13.690;  568.580
1118.262;    7.062;  -12.680;  677.960
1118.804;    7.223;  -12.530;  637.340
1119.345;    6.303;  -11.690;  578.400
1119.886;    7.665;  -13.380;  704.040
1120.427;    6.629;  -14.070;  589.020
1120.969;    5.020;  -13.500;  597.920
1121.510;    5.923;  -11.480;  563.060
1122.051;    6.411;  -12.830;  723.580
1122.592;    5.919;  -14.290;  655.420
1123.133;    4.675;  -12.400;  547.940
1123.673;    6.525;  -10.130;  706.480
1124.214;    6.393;  -12.930;  612.460
1124.755;    6.052;  -14.380;  639.460
1125.296;    5.647;  -14.000;  627.320
1125.836;    6.722;  -10.070;  691.500
1126.377;    5.676;  -12.640;  599.660
1126.918;    5.043;  -12.960;  614.980
1127.458;    4.496;  -13.350;  622.220
1127.999;    5.986;  -10.750;  656.980
1128.539;    5.036;  -12.350;  694.240
1129.079;    4.628;  -14.860;  632.720
1129.620;    4.003;  -13.840;  558.100
1130.160;    4.360;  -12.330;  539.480
1130.700;    5.276;  -14.530;  640.840
1131.240;    5.146;  -12.530;  643.700
1131.781;    3.967;  -14.450;  619.680
1132.321;    4.466;   -9.790;  599.120
1132.861;    2.963;  -14.860;  564.200
1133.401;    3.742;  -14.290;  593.940
1133.941;    4.312;  -11.750;  626.280
1134.481;    3.477;   -9.920;  597.580
1135.020;    3.456;  -12.290;  609.160
1135.560;    3.858;  -11.650;  674.940
1136.100;    3.454;  -16.270;  501.160
1136.640;    3.317;  -10.890;  510.480
1137.179;    3.288;  -14.180;  537.960
1137.719;    3.407;  -16.250;  605.400
1138.258;    3.576;  -14.230;  587.360
1138.798;    4.162;   -9.090;  663.780
1139.337;    2.940;  -15.130;  482.840
1139.877;    2.806;  -13.680;  642.360
1140.416;    5.423;  -11.320;  878.060
1140.955;    2.438;  -10.860;  535.380
1141.494;    3.075;  -12.920;  669.280
1142.034;    2.142;  -13.930;  583.520
1142.573;    3.250;  -11.440;  646.280
1143.112;    2.321;  -12.000;  553.480
1143.651;    2.929;  -13.670;  536.480
1144.190;    3.512;  -12.730;  691.640
1144.729;    2.429;  -14.560;  607.420
1145.267;    2.919;  -11.830;  584.900
1145.806;    3.210;  -12.230;  637.040
1146.345;    1.768;  -14.130;  635.020
1146.884;    1.960;  -11.590;  622.500
1147.422;    1.572;  -12.550;  533.060
1147.961;    3.457;  -11.180;  708.460
1148.500;    2.177;  -11.510;  669.720
1149.038;    2.744;  -11.640;  632.500
1149.577;    2.355;  -10.130;  698.640
1150.115;    0.433;  -13.970;  452.280
1150.653;    2.032;  -14.520;  607.340
1151.192;    1.621;  -12.810;  552.920
1151.730;    2.286;   -9.100;  652.560
1152.268;    0.619;  -12.220;  589.520
1152.806;    1.380;  -14.140;  571.180
1153.344;   -0.115;  -12.350;  577.640
1153.882;    2.143;   -8.980;  600.060
1154.421;   -0.276;  -15.190;  470.620
1154.958;    0.348;  -15.210;  595.240
1155.496;    2.259;  -12.850;  645.280
1156.034;    1.070;   -9.940;  721.880
1156.572;    2.136;  -13.570;  667.060
1157.110;   -0.142;  -14.590;  473.940
1157.647;    1.726;  -13.030;  676.960
1158.185;    0.595;  -12.140;  564.320
1158.723;   -0.523;  -14.390;  509.200
1159.260;    0.012;  -14.090;  701.700
1159.798;    1.177;  -11.920;  658.160
1160.335;    0.529;  -11.110;  631.820

