source
Integration time [ms]: 238.412
Averaging Nr. [scans]: 40
Smoothing Nr. [pixels]: 0
Data measured with spectrometer [name]: 7414430SP
Wave   ;Sample   ;Dark     ;Reference
[nm]   ;[counts] ;[counts] ;[counts] 

288.544;  576.037;  332.182;    6.613
289.143;  525.922;  271.583;   14.216
289.742;  607.474;  358.283;   11.816
290.341;  583.204;  338.184;   -4.936
290.940;  546.323;  301.359;    0.852
291.538;  630.555;  386.909;    1.792
292.137;  579.587;  339.183;    6.262
292.736;  695.979;  448.984;    8.164
293.335;  548.269;  303.109;   -6.418
293.934;  583.968;  331.034;   -2.904
294.532;  721.948;  479.809;   -5.162
295.131;  599.285;  376.861;  -10.283
295.730;  590.441;  361.060;  -16.141
296.328;  574.973;  345.711;  -14.740
296.927;  567.476;  342.761;   -8.768
297.525;  571.067;  342.961;  -15.255
298.124;  489.397;  272.787;  -22.063
298.722;  556.424;  336.861;  -14.796
299.321;  525.120;  303.761;  -10.466
299.919;  545.906;  329.786;  -10.979
300.518;  510.348;  293.262;  -12.077
301.116;  514.284;  297.361;  -13.509
301.715;  536.256;  315.411;  -11.939
302.313;  520.168;  306.661;  -15.424
302.911;  528.946;  329.612;  -19.833
303.509;  649.032;  439.211;   -3.567
304.108;  544.683;  342.436;   -9.553
304.706;  575.798;  367.686;   -8.582
305.304;  567.504;  366.712;  -12.348
305.902;  563.738;  359.286;  -14.411
306.500;  527.740;  325.311;   -7.194
307.098;  539.114;  342.011;   -9.322
307.696;  554.309;  361.986;  -19.192
308.294;  521.311;  331.561;   -9.736
308.892;  544.100;  349.686;  -15.482
309.490;  509.451;  314.911;  -14.107
310.088;  550.979;  372.612;  -15.862
310.686;  569.909;  389.461;  -10.781
311.284;  534.561;  356.336;  -14.878
311.882;  512.707;  336.862;   -9.948
312.480;  492.259;  321.162;  -15.503
313.078;  555.477;  388.612;  -17.262
313.675;  487.340;  320.411;   -3.694
314.273;  539.875;  384.962;  -18.246
314.871;  426.679;  268.837;  -15.190
315.468;  454.996;  299.362;  -12.633
316.066;  483.674;  321.511;   -5.765
316.664;  454.208;  302.362;  -14.317
317.261;  596.819;  448.487;   -8.677
317.859;  517.150;  378.637;  -11.804
318.456;  547.374;  411.961;   -3.107
319.054;  514.906;  378.962;   -3.062
319.651;  502.734;  371.737;   -6.706
320.249;  525.109;  398.562;   -5.206
320.846;  476.580;  345.061;   -4.679
321.443;  533.654;  418.661;   -7.920
322.041;  513.766;  400.187;  -14.105
322.638;  458.646;  339.787;   -6.263
323.235;  438.118;  314.961;   -7.424
323.833;  474.998;  363.186;  -14.765
324.430;  401.738;  280.436;  -10.550
325.027;  554.177;  440.611;   -9.951
325.624;  425.229;  298.761;   -3.712
326.221;  445.203;  318.936;   -9.368
326.818;  525.103;  400.711;   -5.637
327.415;  483.196;  346.260;   -6.699
328.012;  450.012;  319.885;   -5.713
328.609;  470.333;  339.260;   -9.983
329.206;  502.728;  366.561;   -7.154
329.803;  476.877;  339.636;   -1.682
330.400;  462.342;  313.485;   -2.741
330.997;  522.959;  377.636;   -4.339
331.594;  505.013;  363.311;  -10.278
332.191;  477.830;  324.736;   -6.967
332.787;  541.966;  386.261;   -0.480
333.384;  492.768;  342.112;  -10.333
333.981;  520.419;  375.163;  -19.900
334.578;  462.699;  310.587;  -19.816
335.174;  469.544;  319.387;  -15.844
335.771;  534.392;  384.438;  -12.670
336.367;  461.829;  320.113;  -21.124
336.964;  513.035;  369.313;  -18.226
337.561;  477.824;  329.313;  -13.311
338.157;  569.394;  432.764;  -19.006
338.754;  508.431;  371.839;  -19.418
339.350;  461.721;  324.864;  -29.433
339.946;  489.649;  348.714;  -16.622
340.543;  522.054;  399.465;  -16.744
341.139;  449.455;  331.215;  -21.841
341.735;  480.594;  363.566;  -25.012
342.332;  427.821;  316.015;  -19.156
342.928;  489.991;  376.415;  -20.443
343.524;  473.501;  357.341;  -14.397
344.120;  453.868;  353.591;  -20.654
344.716;  437.883;  332.640;   -5.730
345.313;  491.410;  378.515;  -10.929
345.909;  384.488;  276.840;  -19.843
346.505;  452.391;  349.565;  -19.645
347.101;  501.412;  394.639;   -9.618
347.697;  483.000;  377.889;  -10.305
348.293;  388.573;  275.590;  -23.189
348.889;  452.783;  352.389;  -18.418
349.485;  420.659;  316.289;  -10.476
350.081;  472.394;  364.839;  -17.320
350.676;  427.203;  319.940;  -21.088
351.272;  495.305;  385.314;  -12.821
351.868;  475.932;  359.189;  -13.165
352.464;  451.672;  339.314;  -12.464
353.059;  403.620;  297.664;  -22.547
353.655;  482.936;  371.639;   -9.379
354.251;  469.047;  356.313;   -8.266
354.846;  457.499;  350.714;  -17.705
355.442;  459.020;  355.915;   -9.317
356.038;  462.057;  352.164;  -11.049
356.633;  447.514;  340.389;  -10.006
357.229;  447.696;  340.089;  -13.120
357.824;  431.600;  327.589;  -15.647
358.420;  423.807;  310.939;  -19.204
359.015;  428.558;  318.914;  -12.263
359.610;  474.359;  365.289;  -16.421
360.206;  374.932;  270.590;  -20.074
360.801;  400.928;  291.064;  -13.277
361.396;  453.174;  343.139;   -5.822
361.992;  414.750;  306.264;  -11.247
362.587;  409.131;  308.515;  -21.502
363.182;  427.448;  322.764;   -7.461
363.777;  461.173;  351.864;   -8.719
364.372;  461.485;  358.189;  -14.590
364.967;  427.895;  321.715;  -15.145
365.563;  500.268;  388.039;   -7.192
366.158;  427.235;  320.264;   -5.662
366.753;  409.670;  295.314;   -8.378
367.348;  464.990;  357.064;  -14.990
367.942;  433.850;  327.764;   -6.005
368.537;  467.541;  361.689;  -11.504
369.132;  442.514;  329.614;  -10.576
369.727;  403.516;  298.440;  -12.573
370.322;  378.154;  266.940;  -11.560
370.917;  450.728;  339.490;  -10.388
371.511;  542.420;  427.164;   -9.161
372.106;  487.495;  379.790;  -10.245
372.701;  373.752;  272.315;  -10.158
373.296;  535.125;  427.564;   -4.719
373.890;  409.031;  307.915;  -11.802
374.485;  437.773;  337.115;  -13.500
375.079;  471.192;  362.789;   -6.276
375.674;  511.946;  401.664;   -0.447
376.268;  438.028;  332.240;   -6.916
376.863;  372.326;  276.716;  -14.483
377.457;  423.968;  314.690;   -6.903
378.052;  475.403;  374.315;   -9.844
378.646;  466.539;  370.840;  -12.601
379.240;  461.614;  351.240;  -14.715
379.835;  408.290;  308.715;  -12.331
380.429;  370.236;  266.490;   -9.074
381.023;  489.190;  393.115;   -1.729
381.617;  428.777;  332.440;  -13.714
382.212;  431.308;  334.815;   -7.060
382.806;  477.143;  377.590;   -2.303
383.400;  429.792;  331.115;   -0.815
383.994;  416.767;  329.140;   -4.429
384.588;  446.752;  348.039;   -6.261
385.182;  462.922;  362.014;    0.008
385.776;  447.723;  356.039;   -3.247
386.370;  429.203;  341.465;   -1.030
386.964;  429.082;  342.840;   -1.346
387.558;  385.268;  293.714;   -2.020
388.152;  429.667;  343.690;   -5.345
388.745;  506.956;  419.915;   -2.774
389.339;  472.434;  385.039;    3.510
389.933;  437.814;  347.289;    5.280
390.527;  528.566;  452.139;    2.610
391.120;  377.495;  295.940;   -7.914
391.714;  447.198;  363.840;   -1.903
392.308;  490.508;  405.564;    6.023
392.901;  408.047;  324.365;   -4.103
393.495;  373.559;  301.415;    3.284
394.089;  472.894;  399.790;    8.655
394.682;  436.683;  361.290;    2.312
395.275;  448.130;  373.240;   -7.402
395.869;  414.823;  342.490;   -1.072
396.462;  392.263;  315.340;    6.454
397.056;  481.421;  403.889;    8.494
397.649;  448.212;  381.015;    1.599
398.242;  441.602;  373.064;    3.153
398.836;  471.679;  402.914;   11.395
399.429;  388.080;  324.289;   14.695
400.022;  407.896;  345.590;    3.627
400.615;  495.398;  432.340;    8.383
401.208;  423.751;  354.989;   13.295
401.802;  427.925;  365.940;    6.211
402.395;  418.746;  361.290;    7.227
402.988;  426.022;  362.265;    2.700
403.581;  397.718;  336.689;   11.225
404.174;  418.422;  354.064;   18.922
404.767;  393.493;  339.265;   14.169
405.360;  379.767;  326.690;    8.999
405.953;  458.586;  403.039;   13.138
406.545;  440.601;  377.889;   13.937
407.138;  372.617;  313.990;   10.869
407.731;  377.359;  317.039;   12.768
408.324;  404.332;  343.789;   22.921
408.917;  408.647;  359.814;   15.308
409.509;  443.200;  395.314;   12.239
410.102;  384.993;  340.165;   13.741
410.695;  401.835;  347.989;   20.249
411.287;  367.079;  311.239;   21.793
411.880;  356.128;  302.339;   22.965
412.472;  366.886;  318.389;   15.082
413.065;  378.030;  336.289;   23.423
413.657;  347.262;  298.039;   21.077
414.250;  387.207;  336.714;   12.349
414.842;  398.774;  352.064;   20.423
415.434;  340.249;  296.714;   19.906
416.027;  387.680;  339.988;   26.574
416.619;  423.719;  384.414;   15.705
417.211;  353.491;  309.039;   17.791
417.804;  370.892;  325.263;   30.244
418.396;  361.614;  319.364;   24.177
418.988;  388.255;  348.488;   24.904
419.580;  337.527;  292.489;   20.692
420.172;  320.598;  278.713;   22.275
420.764;  399.649;  355.763;   26.773
421.356;  375.197;  338.413;   25.731
421.948;  397.100;  359.838;   24.876
422.540;  397.474;  355.188;   30.042
423.132;  357.118;  313.387;   32.728
423.724;  329.823;  290.788;   21.317
424.316;  361.723;  323.238;   29.359
424.908;  352.647;  304.287;   28.798
425.500;  378.201;  335.712;   30.512
426.092;  380.982;  336.912;   26.741
426.683;  403.375;  362.463;   27.029
427.275;  384.560;  336.387;   32.611
427.867;  396.851;  351.337;   33.796
428.458;  436.841;  385.937;   34.453
429.050;  400.135;  356.687;   34.255
429.642;  437.126;  391.712;   39.082
430.233;  324.905;  287.987;   41.138
430.825;  430.794;  384.287;   31.581
431.416;  403.386;  366.212;   35.755
432.008;  381.130;  337.812;   40.566
432.599;  386.787;  335.336;   46.322
433.190;  374.215;  333.212;   46.897
433.782;  350.382;  302.337;   41.069
434.373;  523.866;  470.836;   48.778
434.964;  354.039;  307.636;   50.078
435.556;  370.718;  329.587;   52.381
436.147;  440.800;  392.887;   38.251
436.738;  407.918;  360.061;   47.237
437.329;  424.020;  372.511;   61.304
437.920;  392.688;  345.062;   48.611
438.511;  327.507;  279.837;   44.910
439.103;  367.601;  315.036;   62.404
439.694;  407.310;  350.436;   63.075
440.285;  452.709;  400.436;   61.033
440.876;  496.357;  444.436;   57.249
441.466;  335.887;  290.086;   61.306
442.057;  395.613;  331.460;   65.773
442.648;  441.670;  386.736;   65.676
443.239;  364.805;  312.761;   55.963
443.830;  418.436;  361.860;   69.631
444.421;  395.020;  328.660;   69.943
445.011;  404.978;  350.386;   72.791
445.602;  439.797;  379.461;   68.848
446.193;  291.784;  228.810;   80.044
446.783;  381.794;  313.585;   82.599
447.374;  407.080;  357.311;   77.419
447.964;  419.927;  362.536;   72.605
448.555;  487.876;  424.460;   82.041
449.145;  390.075;  330.310;   76.230
449.736;  467.839;  414.985;   75.545
450.326;  422.538;  359.935;   67.945
450.917;  410.759;  333.685;   77.598
451.507;  364.098;  290.635;   68.027
452.097;  441.247;  383.935;   67.771
452.688;  441.193;  368.435;   62.884
453.278;  338.644;  275.160;   65.512
453.868;  480.744;  403.809;   71.796
454.458;  393.783;  318.910;   60.956
455.048;  422.938;  353.535;   62.356
455.639;  340.340;  268.759;   58.782
456.229;  428.361;  346.284;   65.209
456.819;  450.375;  368.959;   61.466
457.409;  466.531;  386.634;   59.967
457.999;  446.841;  361.034;   58.093
458.589;  412.805;  333.359;   59.536
459.179;  438.076;  349.659;   55.994
459.769;  383.800;  298.609;   43.624
460.358;  478.033;  390.959;   46.978
460.948;  419.971;  328.684;   49.821
461.538;  406.980;  310.534;   54.678
462.128;  400.661;  315.259;   49.309
462.717;  435.945;  337.158;   52.774
463.307;  438.313;  332.983;   48.101
463.897;  402.709;  311.684;   45.606
464.486;  506.042;  417.409;   45.010
465.076;  451.021;  353.758;   45.519
465.666;  404.897;  297.008;   50.058
466.255;  478.316;  380.084;   44.463
466.845;  414.208;  313.384;   41.206
467.434;  448.551;  343.333;   44.847
468.023;  416.567;  300.133;   46.760
468.613;  440.730;  335.959;   39.736
469.202;  401.072;  295.883;   46.461
469.791;  455.370;  345.133;   47.944
470.381;  456.913;  347.033;   47.529
470.970;  440.554;  332.058;   43.773
471.559;  454.387;  342.008;   41.646
472.148;  425.353;  303.683;   37.914
472.738;  476.685;  356.482;   48.071
473.327;  400.216;  281.358;   47.871
473.916;  458.875;  344.183;   37.716
474.505;  469.926;  347.732;   40.256
475.094;  506.690;  376.407;   43.269
475.683;  490.113;  365.032;   36.499
476.272;  462.477;  330.607;   44.542
476.861;  451.718;  312.082;   42.297
477.449;  469.648;  321.156;   46.878
478.038;  436.081;  303.132;   35.156
478.627;  450.676;  312.283;   42.514
479.216;  489.258;  339.082;   43.937
479.805;  493.759;  342.281;   51.393
480.393;  622.228;  478.332;   53.239
480.982;  554.296;  400.307;   38.955
481.571;  549.742;  389.631;   45.436
482.159;  457.783;  293.706;   51.007
482.748;  529.330;  366.357;   49.695
483.336;  549.087;  381.181;   48.280
483.925;  504.444;  334.082;   47.166
484.513;  495.255;  315.681;   55.404
485.102;  518.594;  343.207;   54.238
485.690;  643.051;  454.581;   55.748
486.278;  630.823;  440.606;   55.934
486.867;  526.672;  333.306;   57.106
487.455;  580.153;  388.156;   56.979
488.043;  494.251;  294.606;   57.564
488.631;  648.710;  434.606;   57.432
489.220;  594.407;  375.931;   63.646
489.808;  502.737;  280.831;   65.449
490.396;  604.934;  376.381;   61.977
490.984;  559.099;  312.181;   68.834
491.572;  623.996;  372.756;   70.775
492.160;  608.776;  353.331;   67.564
492.748;  594.589;  321.856;   66.808
493.336;  686.264;  385.406;   79.747
493.924;  653.782;  328.880;   88.688
494.512;  725.148;  377.506;   84.120
495.100;  752.973;  368.731;   86.250
495.687;  823.607;  385.755;  103.074
496.275;  808.076;  306.906;  108.717
496.863;  901.362;  320.381;  107.035
497.451; 1000.105;  318.181;  117.993
498.038; 1149.035;  337.580;  120.116
498.626; 1271.426;  323.705;  143.059
499.214; 1454.123;  350.431;  153.434
499.801; 1647.730;  340.156;  175.121
500.389; 1812.995;  273.880;  185.617
500.976; 2166.167;  353.806;  215.789
501.564; 2502.206;  344.506;  240.321
502.151; 2688.534;  238.081;  267.007
502.738; 3013.442;  318.731;  317.961
503.326; 3481.983;  325.180;  361.216
503.913; 3979.464;  343.006;  401.433
504.500; 4533.769;  355.181;  446.492
505.088; 5037.634;  301.106;  512.063
505.675; 5792.628;  330.580;  586.387
506.262; 6554.237;  325.506;  671.021
506.849; 7344.824;  335.756;  759.062
507.436; 8258.560;  380.255;  849.788
508.023; 8961.688;  334.181;  944.288
508.610; 9693.430;  374.231; 1020.690
509.197;10544.588;  357.257; 1089.052
509.784;11535.180;  331.206; 1133.776
510.371;12573.750;  273.280; 1165.501
510.958;13986.659;  344.181; 1251.735
511.545;14192.303;  392.581; 1350.248
512.132;14414.219;  338.105; 1525.945
512.719;15350.664;  294.131; 1834.933
513.305;16840.707;  302.831; 1965.349
513.892;18511.256;  390.881; 1963.265
514.479;19981.057;  344.106; 2046.446
515.066;21375.977;  381.056; 2252.803
515.652;22765.713;  342.181; 2567.247
516.239;24073.918;  367.031; 2636.919
516.825;24400.605;  280.781; 2482.304
517.412;24607.051;  440.656; 2427.031
517.998;24366.713;  326.831; 2540.463
518.585;24210.859;  321.031; 2609.007
519.171;25512.656;  344.230; 2842.088
519.758;28275.496;  289.856; 3090.703
520.344;30610.330;  375.481; 3176.076
520.930;31389.852;  299.831; 3295.037
521.516;32441.100;  355.580; 3500.959
522.103;32226.154;  395.056; 3736.704
522.689;33357.617;  322.431; 3971.022
523.275;34872.848;  381.706; 4213.778
523.861;34848.098;  331.131; 4190.361
524.447;34743.762;  380.380; 4070.602
525.033;35589.273;  381.681; 4088.892
525.619;35390.750;  303.906; 4416.851
526.205;36543.785;  288.856; 4836.835
526.791;39048.398;  321.731; 4885.903
527.377;40084.262;  315.431; 4544.907
527.963;40513.598;  343.282; 4321.995
528.549;39358.055;  352.506; 4473.979
529.135;37807.285;  304.081; 4788.663
529.721;36555.742;  338.481; 4888.577
530.306;37488.355;  466.581; 4775.779
530.892;39329.273;  318.656; 4793.906
531.478;40476.973;  312.706; 4956.948
532.063;42542.590;  298.081; 5136.936
532.649;44588.699;  423.182; 5336.867
533.235;46963.504;  301.356; 5748.092
533.820;48714.637;  387.506; 6456.875
534.406;48544.023;  323.132; 6590.167
534.991;47486.191;  297.731; 6179.622
535.576;46285.594;  323.756; 6098.691
536.162;46362.102;  473.231; 6441.234
536.747;47433.367;  284.632; 6816.224
537.333;49146.570;  300.207; 6889.752
537.918;48322.891;  334.732; 7154.280
538.503;49263.500;  313.831; 7150.848
539.088;50045.668;  347.831; 7253.308
539.673;49442.418;  326.957; 7625.180
540.259;47753.754;  310.081; 8226.793
540.844;49478.273;  268.181; 8745.092
541.429;49763.027;  415.182; 8762.553
542.014;49825.625;  283.257; 8871.497
542.599;51746.090;  349.206; 8886.008
543.184;54516.520;  292.582; 9079.139
543.769;54267.707;  299.932; 9076.182
544.354;53035.055;  316.832; 8354.081
544.938;50542.676;  346.957; 8236.809
545.523;48597.852;  408.931; 8222.179
546.108;50038.684;  333.957; 8114.082
546.693;50485.387;  329.582; 8535.912
547.278;50007.348;  329.756; 9238.322
547.862;48599.848;  335.231; 9034.405
548.447;47593.023;  375.007; 7795.011
549.031;47480.488;  323.407; 7485.099
549.616;47987.547;  345.556; 7626.308
550.201;48738.379;  317.957; 7627.909
550.785;50717.973;  360.657; 7859.125
551.370;53094.340;  285.157; 7990.654
551.954;53759.086;  376.732; 8196.468
552.538;54509.402;  363.782; 7959.495
553.123;54161.855;  305.957; 7964.826
553.707;52438.391;  321.858; 8515.957
554.291;51219.043;  389.882; 8724.024
554.876;51273.000;  368.932; 8524.211
555.460;51105.453;  314.232; 8704.456
556.044;51643.105;  312.058; 9141.473
556.628;50782.527;  331.082; 9250.197
557.212;49960.805;  381.732; 9444.237
557.796;48339.348;  322.682; 9379.783
558.380;50989.324;  349.858; 9353.658
558.964;51059.688;  337.832; 9210.310
559.548;49296.172;  285.732; 8475.153
560.132;49065.637;  317.732; 7954.084
560.716;49756.238;  287.633; 7489.529
561.300;52416.992;  293.532; 7211.952
561.884;53925.934;  356.157; 7141.313
562.467;52124.027;  357.083; 7155.386
563.051;51577.469;  332.158; 7323.158
563.635;51896.699;  321.708; 7709.114
564.219;51286.945;  329.757; 7678.855
564.802;50684.434;  354.833; 7376.187
565.386;49643.922;  337.983; 7054.372
565.969;48780.863;  393.007; 6589.196
566.553;47508.809;  431.132; 6279.371
567.136;47055.270;  387.258; 5967.930
567.720;47806.176;  333.033; 5660.703
568.303;47546.633;  350.983; 5648.615
568.887;48364.934;  336.083; 5618.443
569.470;47981.250;  347.808; 5411.875
570.053;47978.020;  362.008; 5149.274
570.637;48543.258;  311.582; 5122.798
571.220;49006.297;  370.182; 4957.369
571.803;48134.613;  431.408; 4933.018
572.386;48266.637;  321.158; 4840.973
572.969;49260.473;  324.383; 4592.886
573.552;50393.883;  327.358; 4348.387
574.135;46706.762;  301.458; 4002.290
574.718;39913.984;  306.533; 3654.773
575.301;39441.031;  305.583; 3502.288
575.884;38968.082;  304.633; 3349.803
576.467;40877.250;  382.608; 3191.403
577.050;42372.285;  344.783; 3062.418
577.633;43741.277;  419.133; 3214.200
578.216;44995.375;  323.983; 3284.889
578.799;45096.465;  325.158; 3189.777
579.381;45525.875;  437.358; 3064.502
579.964;45845.867;  306.433; 2888.357
580.547;46140.723;  343.283; 2905.760
581.129;46851.742;  402.609; 2966.849
581.712;49591.313;  353.784; 2887.292
582.294;50791.934;  340.783; 2771.631
582.877;50720.895;  440.133; 2711.602
583.459;50000.148;  337.109; 2577.049
584.042;47601.238;  331.484; 2454.707
584.624;46189.762;  309.609; 2305.893
585.206;44708.840;  266.683; 2189.546
585.789;42155.750;  312.459; 2112.577
586.371;40013.469;  356.459; 2153.065
586.953;40375.855;  368.459; 2197.806
587.536;42166.551;  400.958; 2105.489
588.118;42874.133;  328.560; 1963.911
588.700;43991.039;  402.784; 1843.179
589.282;44218.930;  356.533; 1813.834
589.864;43620.336;  339.384; 1777.620
590.446;43885.578;  270.159; 1733.780
591.028;45041.055;  335.084; 1676.008
591.610;46424.320;  269.934; 1631.649
592.192;45247.313;  343.883; 1632.362
592.774;42620.723;  296.959; 1569.507
593.356;40198.582;  308.434; 1524.539
593.937;39891.805;  305.209; 1569.720
594.519;41083.742;  385.159; 1569.049
595.101;43283.379;  280.159; 1545.452
595.683;43745.863;  312.384; 1607.568
596.264;44155.906;  329.084; 1615.506
596.846;43999.148;  316.159; 1667.622
597.427;44568.098;  311.585; 1670.469
598.009;46370.262;  306.135; 1640.312
598.591;44719.652;  368.334; 1541.022
599.172;43710.469;  329.159; 1598.665
599.753;44269.020;  287.835; 1619.068
600.335;42263.695;  399.860; 1548.612
600.916;39746.773;  330.059; 1607.510
601.498;41321.832;  352.434; 1745.181
602.079;43165.258;  332.735; 1801.011
602.660;43342.020;  331.085; 1834.640
603.241;42655.961;  266.484; 1787.351
603.823;42914.574;  312.009; 1684.266
604.404;42474.871;  294.460; 1654.241
604.985;42702.652;  311.435; 1758.741
605.566;41505.918;  373.284; 1697.679
606.147;40960.434;  326.810; 1526.728
606.728;43167.629;  287.885; 1484.086
607.309;44100.961;  312.260; 1421.070
607.890;43200.059;  320.084; 1369.867
608.471;42778.891;  305.985; 1277.826
609.051;42338.934;  345.735; 1180.416
609.632;43347.375;  298.910; 1075.816
610.213;44349.270;  327.260; 1053.313
610.794;43118.008;  319.860;  979.442
611.374;42288.254;  353.585;  917.414
611.955;41027.164;  279.385;  819.987
612.536;41085.320;  350.760;  752.627
613.116;42487.996;  314.485;  690.799
613.697;43480.547;  306.310;  674.974
614.277;43093.547;  296.261;  663.846
614.858;40120.293;  315.435;  665.898
615.438;38012.418;  331.435;  660.712
616.019;37495.871;  396.911;  632.732
616.599;37745.785;  257.935;  551.759
617.179;39551.023;  288.785;  512.871
617.760;40395.301;  453.610;  473.655
618.340;39613.246;  327.786;  440.004
618.920;41383.984;  411.910;  429.731
619.500;41255.813;  317.361;  441.361
620.080;41386.379;  299.235;  425.202
620.660;41716.039;  298.436;  408.164
621.241;41685.484;  315.461;  387.161
621.821;42841.289;  335.836;  378.017
622.401;41485.301;  382.235;  379.188
622.980;40480.559;  283.836;  350.019
623.560;39210.953;  316.836;  336.446
624.140;35974.395;  340.235;  336.473
624.720;34590.125;  346.736;  334.974
625.300;33874.383;  297.610;  325.717
625.880;35697.836;  329.611;  308.519
626.459;39129.941;  329.936;  307.117
627.039;42557.496;  273.711;  290.890
627.619;46381.906;  432.161;  286.635
628.198;45818.324;  382.786;  282.535
628.778;41722.852;  359.011;  285.474
629.357;39340.359;  289.461;  284.103
629.937;39359.863;  314.761;  292.178
630.516;41571.902;  404.261;  290.749
631.096;42819.332;  305.311;  285.489
631.675;43872.215;  395.186;  287.022
632.254;44416.582;  305.012;  286.038
632.834;43105.449;  326.362;  276.451
633.413;40479.910;  400.736;  279.447
633.992;39780.938;  375.962;  264.508
634.571;40038.406;  361.012;  271.010
635.151;40149.629;  293.462;  277.338
635.730;40211.078;  321.436;  289.305
636.309;38454.992;  358.911;  285.306
636.888;36774.426;  354.262;  254.051
637.467;35964.535;  269.612;  230.324
638.046;36802.027;  400.486;  253.349
638.625;39884.055;  386.537;  246.866
639.204;40489.789;  345.112;  240.825
639.782;39468.320;  333.362;  261.970
640.361;38253.375;  391.961;  277.780
640.940;36480.316;  308.461;  270.101
641.519;36226.434;  360.011;  248.622
642.097;36105.422;  353.961;  239.843
642.676;36562.164;  338.986;  244.264
643.255;39115.980;  319.311;  234.985
643.833;42234.645;  360.561;  244.406
644.412;42597.238;  314.386;  244.927
644.990;39466.102;  338.211;  249.948
645.569;38982.418;  355.861;  249.569
646.147;38927.184;  372.611;  243.290
646.726;40650.625;  335.211;  249.511
647.304;42073.215;  321.061;  228.032
647.882;41469.230;  270.686;  214.552
648.461;39812.945;  342.686;  214.973
649.039;38095.137;  366.261;  223.394
649.617;36206.328;  357.161;  261.415
650.195;35627.668;  346.036;  298.736
650.773;37161.586;  314.336;  309.557
651.352;36925.828;  258.236;  297.978
651.930;33963.418;  257.711;  289.399
652.508;34083.656;  366.686;  285.620
653.086;34616.398;  350.436;  272.241
653.663;36270.289;  306.061;  265.062
654.241;39081.980;  282.711;  286.083
654.819;40585.996;  288.861;  286.404
655.397;40744.285;  297.536;  291.825
655.975;40699.379;  319.561;  299.145
656.553;40500.992;  400.861;  288.866
657.130;41505.785;  294.961;  304.087
657.708;40718.023;  344.761;  302.908
658.286;39753.465;  337.811;  294.629
658.863;39196.934;  338.536;  293.350
659.441;39467.047;  343.611;  318.671
660.018;39340.363;  327.111;  333.692
660.596;39035.703;  265.536;  335.013
661.173;39118.570;  309.686;  371.534
661.750;39033.711;  294.510;  365.155
662.328;39176.625;  357.635;  349.976
662.905;37920.293;  312.110;  332.997
663.482;36123.957;  325.085;  321.717
664.060;35322.598;  303.885;  314.438
664.637;36350.738;  362.985;  306.259
665.214;38183.207;  343.760;  314.580
665.791;38929.445;  318.410;  334.501
666.368;39246.238;  312.610;  329.222
666.945;38450.727;  360.485;  342.143
667.522;37718.043;  298.035;  370.964
668.099;36986.234;  321.685;  396.885
668.676;38052.227;  327.960;  391.706
669.253;39124.418;  403.010;  369.627
669.830;39602.609;  384.935;  360.348
670.407;39506.449;  321.710;  344.769
670.984;39286.664;  324.710;  322.890
671.560;38323.930;  366.585;  316.910
672.137;36848.145;  316.510;  322.531
672.714;35880.563;  348.160;  318.552
673.290;36107.379;  339.310;  324.473
673.867;35771.668;  305.735;  340.594
674.443;35065.785;  280.660;  319.515
675.020;35480.699;  334.360;  286.336
675.596;38086.539;  325.335;  247.557
676.173;38990.855;  284.685;  227.778
676.749;39584.871;  241.110;  224.399
677.326;38865.289;  276.485;  230.520
677.902;37861.180;  299.535;  241.841
678.478;38191.820;  287.935;  239.762
679.054;37695.910;  496.185;  248.583
679.631;37546.977;  350.035;  237.503
680.207;38365.891;  420.585;  245.924
680.783;37982.984;  257.685;  224.845
681.359;37733.676;  328.635;  209.666
681.935;37543.590;  333.235;  191.687
682.511;37590.629;  334.310;  210.008
683.087;37416.371;  353.460;  213.329
683.663;37910.988;  316.860;  216.850
684.239;37445.203;  282.010;  229.471
684.815;37490.668;  371.410;  248.792
685.390;37341.609;  420.910;  231.813
685.966;37481.801;  330.384;  221.234
686.542;37687.516;  293.884;  214.255
687.118;36809.008;  337.609;  212.276
687.693;36376.199;  354.159;  233.096
688.269;36431.688;  319.759;  246.917
688.844;35726.180;  348.934;  236.938
689.420;35418.719;  332.309;  242.059
689.995;36018.535;  412.309;  245.480
690.571;36043.801;  387.209;  244.701
691.146;35948.219;  318.634;  251.922
691.722;37719.285;  346.309;  284.743
692.297;38362.898;  309.209;  320.664
692.872;38231.914;  292.359;  313.885
693.448;37508.758;  286.509;  290.106
694.023;36880.621;  338.409;  304.327
694.598;37810.961;  330.909;  319.648
695.173;39221.152;  309.734;  323.169
695.748;39343.746;  262.034;  376.389
696.323;38601.684;  322.634;  397.610
696.898;39106.602;  380.859;  430.231
697.473;39514.719;  270.409;  454.952
698.048;38005.133;  315.859;  478.973
698.623;37844.199;  275.434;  477.094
699.198;38467.488;  332.634;  496.915
699.773;39692.531;  296.709;  490.236
700.348;41192.320;  286.534;  519.957
700.922;40852.535;  335.884;  575.678
701.497;40327.676;  329.484;  621.399
702.072;40006.070;  368.459;  664.420
702.646;40449.336;  358.209;  690.541
703.221;39866.699;  345.334;  748.862
703.795;37918.215;  292.784;  774.282
704.370;37283.207;  240.209;  799.803
704.944;37874.199;  308.359;  875.824
705.519;38640.637;  341.384;  902.945
706.093;39435.855;  295.009;  889.266
706.668;38794.695;  352.859;  903.487
707.242;38485.563;  362.059;  881.708
707.816;37466.902;  319.884;  892.329
708.390;37915.617;  325.334;  970.250
708.965;38208.559;  337.084;  984.671
709.539;37186.125;  317.284; 1026.092
710.113;36419.641;  331.783; 1067.913
710.687;37609.906;  359.383; 1166.434
711.261;38921.996;  281.883; 1190.854
711.835;39356.113;  289.733; 1197.275
712.409;40124.578;  268.058; 1308.096
712.983;41496.695;  265.958; 1461.617
713.557;40790.711;  264.508; 1611.838
714.131;41102.301;  313.533; 1554.359
714.704;40988.793;  298.083; 1520.780
715.278;39826.281;  328.983; 1575.101
715.852;38769.598;  353.558; 1689.822
716.425;39951.863;  415.733; 1829.143
716.999;40411.879;  263.658; 2008.664
717.573;40012.297;  348.733; 2000.485
718.146;41686.660;  407.658; 1914.506
718.720;42046.176;  336.808; 1818.026
719.293;41193.469;  347.408; 1734.147
719.867;40720.832;  302.283; 1716.968
720.440;42032.449;  390.233; 1918.589
721.013;43524.566;  307.233; 1975.410
721.587;43640.480;  270.283; 2073.331
722.160;43131.398;  369.008; 2357.852
722.733;43190.887;  340.358; 2657.073
723.306;44046.453;  324.358; 2703.894
723.880;45136.570;  337.958; 2549.415
724.453;45468.512;  381.208; 2414.336
725.026;45405.801;  305.433; 2298.557
725.599;44549.566;  334.183; 2168.778
726.172;43874.508;  349.033; 2106.099
726.745;45483.875;  346.783; 2253.320
727.318;44746.289;  364.533; 2404.740
727.891;44401.457;  335.333; 2680.161
728.463;44511.172;  334.933; 2838.882
729.036;42550.238;  296.258; 2755.103
729.609;40997.504;  294.583; 2731.824
730.182;40232.445;  360.033; 2855.645
730.754;41959.836;  246.233; 2946.866
731.327;43231.625;  351.758; 2840.187
731.900;42128.793;  271.533; 2647.608
732.472;41643.934;  323.433; 2473.929
733.045;40924.121;  313.083; 2445.750
733.617;40691.039;  262.832; 2511.771
734.190;40168.281;  346.907; 2581.592
734.762;41457.020;  316.282; 2710.813
735.334;42730.484;  329.782; 3005.733
735.907;41613.629;  333.132; 3154.954
736.479;40656.367;  370.857; 3171.675
737.051;41348.109;  347.357; 3217.496
737.623;44266.523;  357.882; 3246.217
738.195;45291.117;  299.482; 2985.238
738.768;43918.805;  252.782; 2727.559
739.340;43056.871;  304.857; 2666.880
739.912;41872.563;  357.657; 2769.601
740.484;39566.430;  350.757; 2731.422
741.056;40167.418;  312.057; 2963.043
741.628;43610.461;  289.782; 3361.364
742.199;45683.750;  383.907; 3641.185
742.771;44945.168;  280.457; 3932.005
743.343;44874.082;  292.832; 4319.926
743.915;45056.047;  344.282; 4706.647
744.487;44736.516;  347.457; 4874.968
745.058;44434.055;  353.457; 4616.589
745.630;43756.098;  348.382; 4253.410
746.201;43597.488;  304.807; 4056.131
746.773;43006.879;  349.032; 3772.952
747.344;42509.770;  322.357; 3642.473
747.916;43360.160;  333.257; 3752.294
748.487;43610.301;  359.432; 4106.215
749.059;41645.840;  284.982; 4457.835
749.630;40828.605;  297.432; 4366.457
750.201;41737.922;  320.057; 4600.078
750.773;42349.465;  303.332; 4658.499
751.344;41894.703;  327.382; 4609.319
751.915;40651.695;  322.882; 4526.440
752.486;41209.285;  293.582; 4536.061
753.057;40432.500;  329.332; 4383.282
753.628;39162.219;  295.257; 4296.503
754.199;38316.910;  310.882; 4383.224
754.770;37815.426;  353.057; 4653.545
755.341;36946.340;  360.857; 4831.666
755.912;36381.004;  319.107; 4831.387
756.483;37334.922;  345.682; 4735.808
757.054;38589.813;  311.757; 4685.029
757.625;38584.379;  283.281; 4994.250
758.195;37295.293;  271.456; 5051.471
758.766;36896.512;  334.106; 5317.792
759.337;37205.750;  271.731; 5646.512
759.907;37571.391;  273.281; 5404.133
760.478;37777.781;  301.906; 5090.954
761.048;37494.922;  350.156; 4871.175
761.619;37047.266;  343.981; 4589.396
762.189;37135.129;  323.481; 4171.317
762.760;36558.047;  353.681; 3872.538
763.330;37032.137;  348.956; 3832.259
763.900;37572.402;  336.956; 4150.180
764.471;36850.867;  288.831; 4529.801
765.041;35014.008;  377.656; 4715.922
765.611;35258.676;  345.006; 4681.442
766.181;36620.840;  313.381; 4717.063
766.751;36296.480;  326.356; 4710.285
767.321;35307.023;  281.681; 4450.305
767.891;35084.262;  335.006; 4274.126
768.461;34556.879;  317.181; 4215.047
769.031;33718.969;  319.931; 4173.068
769.601;33003.535;  371.706; 4174.689
770.171;32748.127;  271.681; 4229.310
770.741;33380.418;  308.231; 4352.031
771.311;33188.383;  349.906; 4336.652
771.880;31980.148;  290.606; 4300.873
772.450;32083.215;  293.831; 4387.194
773.020;33320.930;  265.356; 4220.415
773.589;34095.871;  304.181; 4075.835
774.159;34361.063;  303.806; 4105.756
774.729;33801.277;  302.231; 4114.978
775.298;33192.992;  295.981; 3693.298
775.867;33015.984;  299.481; 3343.119
776.437;31459.826;  327.631; 3062.040
777.006;31268.516;  274.856; 2927.161
777.576;31623.258;  344.456; 3046.482
778.145;31462.297;  343.356; 3230.203
778.714;30734.488;  322.006; 3253.324
779.283;29951.029;  348.206; 3129.745
779.853;29502.096;  314.331; 2983.566
780.422;30429.160;  318.631; 2929.887
780.991;30402.377;  342.380; 2863.908
781.560;29218.768;  388.455; 2948.029
782.129;28275.734;  340.005; 3074.149
782.698;28588.000;  380.505; 2893.970
783.267;28015.541;  307.955; 2721.391
783.836;28049.330;  330.805; 2659.712
784.404;27995.896;  279.880; 2622.233
784.973;28365.713;  237.455; 2600.754
785.542;27977.053;  315.855; 2528.475
786.111;27146.520;  374.280; 2404.396
786.679;26174.234;  344.680; 2365.717
787.248;26006.875;  267.330; 2498.438
787.817;25636.393;  303.955; 2645.659
788.385;25905.232;  369.230; 2709.280
788.954;26273.049;  275.655; 2620.500
789.522;26432.264;  355.780; 2625.422
790.090;26408.355;  278.980; 2743.843
790.659;25794.746;  306.080; 2635.163
791.227;25014.037;  311.805; 2495.484
791.795;24711.127;  331.755; 2413.705
792.364;24683.494;  290.980; 2345.326
792.932;24512.309;  340.980; 2350.447
793.500;23994.025;  316.380; 2429.768
794.068;23529.340;  268.080; 2513.589
794.636;23873.982;  295.280; 2664.310
795.204;23547.922;  262.980; 2721.431
795.772;22219.113;  290.305; 2802.052
796.340;21433.779;  299.005; 2847.173
796.908;22286.471;  261.530; 2997.194
797.476;22902.785;  284.905; 3151.615
798.044;22549.176;  253.155; 3110.735
798.612;21953.617;  314.105; 2931.656
799.180;21935.559;  325.680; 2785.777
799.747;21585.699;  319.580; 2899.098
800.315;21313.141;  274.780; 2955.519
800.883;21099.656;  252.155; 2948.940
801.450;20691.971;  315.580; 2965.361
802.018;20360.313;  334.130; 3070.582
802.585;19758.254;  322.055; 3156.103
803.153;19647.318;  289.680; 3199.524
803.720;19743.535;  296.830; 3168.845
804.287;19631.576;  306.930; 3248.366
804.855;19539.791;  359.104; 3406.187
805.422;18533.406;  307.929; 3430.907
805.989;17653.973;  290.679; 3453.528
806.556;17507.363;  291.654; 3612.649
807.124;18095.180;  357.604; 3736.570
807.691;18169.545;  281.554; 3770.491
808.258;17456.361;  319.179; 3705.012
808.825;17065.977;  355.079; 3828.733
809.392;16964.469;  385.954; 3986.754
809.959;17018.283;  332.604; 4410.075
810.526;16664.350;  389.054; 4774.996
811.093;16223.990;  368.679; 4754.217
811.659;16403.355;  315.429; 4661.238
812.226;16852.848;  314.129; 4672.559
812.793;17083.188;  327.529; 4822.979
813.360;16459.953;  317.729; 5189.800
813.926;15720.270;  328.854; 5310.622
814.493;15082.410;  271.154; 5414.542
815.060;14589.926;  255.704; 5548.963
815.626;14778.167;  275.854; 5452.284
816.193;14946.883;  325.404; 5339.305
816.759;14443.773;  287.029; 5544.426
817.325;14495.114;  257.729; 5706.547
817.892;15052.505;  353.004; 5623.468
818.458;14976.621;  337.154; 5586.689
819.024;14732.587;  363.754; 5647.910
819.591;14742.628;  321.029; 5762.031
820.157;14347.618;  276.979; 6284.452
820.723;14277.935;  336.229; 6906.973
821.289;14600.375;  506.079; 7086.894
821.855;14306.041;  346.254; 7054.915
822.421;13997.782;  299.279; 7112.035
822.987;14057.822;  280.329; 7256.156
823.553;14080.863;  308.029; 7538.077
824.119;13900.805;  357.979; 7594.298
824.685;13676.570;  375.329; 7613.619
825.251;13513.411;  349.804; 7644.140
825.816;13471.502;  394.904; 7720.261
826.382;12999.518;  353.229; 8014.282
826.948;12535.059;  360.979; 8281.503
827.513;12676.549;  312.229; 8289.624
828.079;12893.765;  284.654; 8587.045
828.645;12910.631;  331.953; 8821.865
829.210;12842.196;  280.028; 9054.486
829.776;13005.037;  341.478; 9054.607
830.341;12846.804;  348.903; 9415.628
830.906;12679.169;  366.128; 9932.449
831.472;12528.035;  292.928;10150.271
832.037;12446.275;  358.778; 9420.391
832.602;12008.191;  297.278; 8664.912
833.167;11802.982;  322.128; 8491.933
833.733;11748.273;  355.203; 8872.854
834.298;11286.889;  283.078; 9370.575
834.863;10989.955;  335.253; 9610.695
835.428;10892.896;  332.603; 9655.616
835.993;11010.111;  346.478; 9437.838
836.558;11336.353;  350.903; 9441.459
837.123;11501.218;  435.803; 9600.979
837.688;11271.759;  333.278; 9798.301
838.253;11258.800;  336.928; 9902.921
838.817;11574.791;  311.203;10339.742
839.382;12135.182;  374.978;10548.363
839.947;12203.723;  323.128;10252.484
840.511;11573.613;  393.528;10040.005
841.076;10880.329;  252.078;10099.926
841.641;10808.395;  344.703;10347.347
842.205;10788.961;  337.778;10817.368
842.770;11097.701;  408.353;11435.289
843.334;11398.393;  312.103;12072.409
843.898;11287.708;  310.603;12635.431
844.463;11302.224;  380.278;12537.252
845.027;11177.114;  308.503;12759.673
845.591;11288.730;  363.603;12821.993
846.156;11258.472;  299.378;12520.914
846.720;11015.362;  354.153;12390.436
847.284;10940.228;  330.928;12956.456
847.848;10805.669;  348.053;13240.177
848.412;10229.460;  323.753;13216.998
848.976;10114.625;  386.653;13014.619
849.540;10310.091;  417.803;12355.740
850.104;10312.707;  383.053;12208.761
850.668; 9942.548;  254.278;12106.882
851.232; 9992.313;  268.203;11862.103
851.796;10189.704;  320.853;11700.523
852.359;10429.295;  357.802;12375.944
852.923;10311.636;  372.677;13087.966
853.487; 9782.402;  354.002;13297.187
854.050; 9290.618;  221.277;13851.207
854.614; 9385.233;  307.352;14854.229
855.177; 9331.850;  338.277;15802.149
855.741; 9054.016;  345.252;16603.570
856.304; 8585.356;  368.077;16359.891
856.868; 8059.472;  285.127;14365.512
857.431; 8126.863;  327.252;13361.333
857.995; 8325.304;  311.852;14130.554
858.558; 8498.319;  344.802;14883.175
859.121; 8528.860;  356.802;15754.195
859.684; 8211.601;  334.527;15995.017
860.247; 8028.142;  330.327;15149.537
860.810; 7996.983;  315.502;14640.358
861.374; 8095.074;  427.327;15551.079
861.937; 7958.089;  281.702;16519.801
862.500; 8166.355;  308.952;16796.521
863.062; 8127.671;  286.727;16538.742
863.625; 8102.762;  336.352;16716.764
864.188; 7966.028;  303.952;17055.084
864.751; 7970.068;  311.477;17197.705
865.314; 7929.884;  328.227;17151.625
865.876; 7763.150;  367.602;17783.547
866.439; 7581.966;  356.927;19283.467
867.002; 7454.032;  418.077;20256.389
867.564; 7199.973;  382.527;20485.410
868.127; 6975.863;  339.677;20789.730
868.689; 6825.279;  337.727;21981.951
869.252; 6690.970;  379.552;23803.771
869.814; 6565.786;  297.202;24974.094
870.377; 6665.626;  333.127;24690.314
870.939; 6760.167;  475.577;23963.436
871.501; 6517.758;  336.752;25167.156
872.063; 6353.099;  240.777;26995.477
872.626; 6450.865;  266.427;27443.098
873.188; 6488.906;  339.102;26718.418
873.750; 6249.747;  318.952;26558.840
874.312; 6146.413;  307.927;26701.561
874.874; 6310.678;  397.902;27970.582
875.436; 6169.294;  355.951;29173.402
875.998; 6093.310;  389.851;30376.623
876.560; 5902.201;  360.801;32507.344
877.122; 5611.617;  294.651;34833.066
877.683; 5330.482;  350.176;36458.285
878.245; 5259.673;  318.351;37248.207
878.807; 5345.289;  347.801;36758.027
879.369; 5399.530;  283.901;35223.551
879.930; 5389.746;  283.676;33824.969
880.492; 5490.761;  383.151;34436.492
881.053; 5318.852;  294.601;37745.313
881.615; 5021.843;  307.076;41184.633
882.176; 4781.809;  324.176;42871.555
882.738; 4742.225;  358.351;41693.074
883.299; 4627.465;  262.026;40289.895
883.860; 4503.031;  266.201;39231.215
884.422; 4398.372;  356.201;38264.039
884.983; 4213.788;  288.701;37171.859
885.544; 4189.879;  334.101;35842.379
886.105; 4113.570;  327.726;34810.000
886.666; 4088.611;  316.601;34519.020
887.227; 3954.176;  267.851;33905.641
887.788; 3875.442;  338.601;34502.965
888.349; 3627.883;  284.426;34241.785
888.910; 3491.949;  352.301;33722.203
889.471; 3307.390;  338.351;32539.625
890.032; 3163.430;  326.526;31528.346
890.593; 3129.321;  353.451;32655.068
891.153; 3072.462;  318.251;33882.289
891.714; 3015.478;  271.876;33318.711
892.275; 2925.544;  279.076;31848.930
892.835; 2853.185;  366.851;30339.752
893.396; 2747.325;  351.251;30074.973
893.956; 2592.791;  321.201;30338.393
894.517; 2488.732;  334.976;30864.113
895.077; 2438.348;  341.851;29766.734
895.638; 2405.389;  397.501;26379.557
896.198; 2161.729;  284.226;24056.277
896.758; 2145.345;  363.351;22961.898
897.319; 2021.111;  322.426;21772.020
897.879; 1943.127;  327.851;20877.539
898.439; 1837.268;  269.326;19509.461
898.999; 1889.984;  347.950;17297.582
899.559; 1834.049;  342.950;14712.002
900.119; 1687.815;  283.975;12790.224
900.679; 1707.256;  392.525;11586.744
901.239; 1608.447;  353.950;10776.465
901.799; 1525.263;  331.000; 9691.687
902.359; 1418.754;  294.300; 8725.907
902.919; 1364.019;  289.650; 8305.728
903.479; 1330.460;  290.550; 8172.649
904.038; 1276.526;  279.900; 7913.870
904.598; 1204.392;  237.225; 7262.291
905.158; 1223.283;  307.100; 6609.012
905.717; 1196.848;  319.925; 6236.133
906.277; 1156.289;  329.425; 5829.054
906.836; 1139.030;  346.525; 5396.674
907.396; 1103.746;  345.100; 4964.195
907.955; 1085.912;  344.600; 4528.917
908.515; 1022.903;  310.200; 4223.837
909.074; 1004.493;  311.450; 4023.958
909.633;  972.859;  317.675; 4065.379
910.192; 1025.025;  398.125; 4066.300
910.752;  920.650;  311.025; 3971.600
911.311;  899.600;  302.425; 3839.600
911.870;  867.250;  294.400; 3684.500
912.429;  927.025;  367.100; 3635.600
912.988;  902.700;  360.725; 3689.800
913.547;  819.125;  291.250; 3737.700
914.106;  839.625;  328.775; 3740.300
914.665;  819.425;  328.125; 3604.600
915.224;  849.500;  367.300; 3358.700
915.782;  776.075;  303.450; 3188.400
916.341;  841.150;  375.900; 3091.400
916.900;  762.250;  309.825; 3044.800
917.458;  737.400;  290.900; 2888.600
918.017;  768.550;  323.825; 2818.900
918.576;  751.525;  306.850; 2838.600
919.134;  701.075;  270.925; 2880.100
919.693;  734.075;  303.825; 2996.300
920.251;  722.600;  294.975; 3183.100
920.809;  697.550;  280.075; 3247.000
921.368;  715.925;  306.550; 3156.600
921.926;  699.625;  286.775; 2964.900
922.484;  727.350;  321.075; 2846.300
923.042;  710.325;  309.775; 2890.400
923.601;  777.000;  378.950; 2987.700
924.159;  744.425;  343.425; 3049.800
924.717;  690.775;  283.975; 3087.000
925.275;  721.100;  320.000; 3093.400
925.833;  650.775;  253.450; 3182.400
926.391;  737.800;  344.775; 3397.900
926.949;  702.275;  295.650; 3575.400
927.506;  721.275;  326.450; 3713.400
928.064;  711.650;  311.175; 3871.300
928.622;  701.725;  309.725; 4092.800
929.180;  672.400;  275.125; 4499.300
929.737;  669.425;  266.100; 4813.200
930.295;  743.550;  337.375; 5084.100
930.853;  697.575;  283.675; 5185.000
931.410;  686.725;  273.025; 5313.100
931.968;  758.725;  344.250; 5339.600
932.525;  738.125;  327.375; 5399.900
933.082;  677.825;  265.950; 5457.500
933.640;  748.400;  328.025; 5692.900
934.197;  723.925;  309.200; 5821.200
934.754;  729.950;  305.600; 5617.900
935.312;  716.550;  289.325; 5512.400
935.869;  800.925;  374.375; 5582.400
936.426;  718.725;  289.250; 5650.100
936.983;  725.200;  298.200; 5657.400
937.540;  701.050;  269.650; 5564.300
938.097;  768.750;  327.175; 5574.000
938.654;  747.725;  301.500; 5665.900
939.211;  786.925;  331.500; 5931.600
939.768;  767.650;  310.250; 6153.600
940.324;  754.800;  298.750; 6397.600
940.881;  752.450;  285.525; 6454.200
941.438;  827.525;  365.925; 6206.900
941.995;  809.025;  349.275; 6003.900
942.551;  748.525;  272.650; 6228.300
943.108;  791.725;  313.650; 6603.500
943.664;  756.350;  277.825; 7188.100
944.221;  888.075;  401.575; 7579.900
944.777;  761.000;  269.500; 7658.100
945.334;  762.700;  282.525; 7670.400
945.890;  809.425;  317.025; 7525.100
946.446;  799.200;  313.075; 7261.500
947.003;  813.325;  323.250; 6949.200
947.559;  865.750;  383.950; 6773.100
948.115;  843.400;  358.575; 6668.400
948.671;  813.175;  322.300; 6488.400
949.227;  754.100;  259.975; 6236.600
949.783;  751.275;  255.075; 6008.900
950.339;  822.875;  331.025; 5934.100
950.895;  834.725;  351.200; 5933.500
951.451;  787.425;  295.350; 6074.700
952.007;  835.700;  338.975; 6066.400
952.563;  800.925;  298.450; 5884.100
953.118;  789.875;  287.425; 5733.800
953.674;  807.675;  306.625; 5734.300
954.230;  805.775;  314.075; 6039.700
954.785;  800.075;  312.725; 6383.500
955.341;  837.300;  351.075; 6568.200
955.897;  742.275;  254.200; 6488.600
956.452;  810.900;  328.625; 6239.200
957.008;  881.475;  404.550; 5954.600
957.563;  849.650;  367.550; 5816.700
958.118;  769.150;  282.450; 5828.200
958.674;  792.750;  322.825; 5717.400
959.229;  832.925;  367.175; 5506.800
959.784;  733.475;  267.275; 5292.200
960.339;  835.900;  364.800; 5101.900
960.894;  802.850;  341.450; 5093.200
961.449;  735.350;  280.925; 5227.900
962.004;  943.125;  490.500; 5349.300
962.559;  746.950;  284.775; 5514.900
963.114;  671.375;  222.725; 5717.300
963.669;  775.400;  317.925; 5841.400
964.224;  755.475;  299.750; 5805.900
964.779;  728.000;  267.100; 5723.400
965.334;  837.500;  380.675; 5779.500
965.888;  750.475;  292.650; 5948.500
966.443;  798.600;  350.425; 6344.200
966.998;  698.900;  257.300; 6666.300
967.552;  756.575;  312.450; 6710.100
968.107;  733.300;  293.775; 6593.500
968.661;  765.075;  326.450; 6344.100
969.216;  719.225;  284.875; 6062.400
969.770;  757.025;  322.850; 5785.500
970.324;  758.350;  329.125; 5426.800
970.879;  781.875;  344.225; 5016.800
971.433;  780.225;  343.925; 4904.500
971.987;  741.525;  314.875; 4991.000
972.541;  749.700;  331.825; 4978.500
973.095;  797.625;  388.575; 4832.000
973.649;  681.425;  265.950; 4767.900
974.203;  699.175;  281.000; 4881.200
974.757;  704.850;  301.075; 4969.500
975.311;  716.525;  310.600; 4953.000
975.865;  722.625;  311.625; 4884.300
976.419;  699.075;  300.375; 4739.800
976.973;  693.425;  297.375; 4698.100
977.526;  756.100;  357.650; 4631.100
978.080;  656.500;  267.000; 4621.600
978.634;  726.050;  342.325; 4650.200
979.187;  717.650;  335.325; 4669.200
979.741;  780.450;  401.000; 4658.000
980.294;  645.550;  272.800; 4579.100
980.848;  599.275;  232.750; 4452.800
981.401;  662.050;  297.025; 4271.900
981.955;  685.475;  316.275; 4087.800
982.508;  616.325;  256.725; 3973.900
983.061;  714.650;  358.500; 3928.600
983.615;  641.500;  283.725; 3851.200
984.168;  617.775;  269.550; 3734.800
984.721;  674.225;  334.400; 3628.300
985.274;  661.550;  326.400; 3564.300
985.827;  638.350;  308.675; 3558.100
986.380;  573.825;  247.075; 3559.900
986.933;  660.375;  332.400; 3688.700
987.486;  647.400;  328.700; 3778.500
988.039;  647.250;  335.625; 3559.900
988.591;  671.175;  355.000; 3219.300
989.144;  576.200;  263.175; 2902.900
989.697;  583.175;  282.775; 2722.600
990.250;  640.625;  343.775; 2618.000
990.802;  577.075;  284.350; 2523.900
991.355;  705.300;  416.225; 2436.500
991.907;  636.825;  353.175; 2412.200
992.460;  568.350;  290.125; 2387.900
993.012;  563.075;  292.925; 2365.800
993.565;  540.550;  269.025; 2311.100
994.117;  678.175;  415.075; 2308.700
994.669;  530.600;  272.775; 2249.300
995.221;  582.300;  325.775; 2158.100
995.774;  578.575;  323.950; 2085.600
996.326;  549.200;  302.975; 2068.100
996.878;  598.975;  364.650; 1975.300
997.430;  519.100;  280.975; 1929.500
997.982;  542.625;  314.375; 1861.900
998.534;  536.300;  312.325; 1830.200
999.086;  535.075;  309.400; 1823.200
999.638;  487.450;  264.475; 1815.000
1000.190;  515.475;  289.550; 1796.600
1000.741;  534.550;  315.700; 1738.800
1001.293;  493.050;  285.475; 1666.200
1001.845;  490.775;  282.400; 1566.500
1002.396;  530.050;  323.025; 1471.900
1002.948;  526.825;  319.025; 1398.000
1003.500;  506.475;  311.450; 1356.500
1004.051;  616.025;  427.075; 1294.200
1004.603;  545.425;  355.975; 1190.000
1005.154;  435.025;  256.550; 1063.900
1005.705;  500.350;  327.275;  968.300
1006.257;  487.275;  321.050;  889.800
1006.808;  477.075;  307.300;  801.500
1007.359;  519.200;  357.950;  716.400
1007.910;  448.650;  292.775;  639.100
1008.461;  493.500;  340.400;  561.600
1009.013;  411.875;  260.275;  500.400
1009.564;  528.725;  379.075;  476.100
1010.115;  409.775;  266.650;  431.600
1010.665;  418.425;  276.375;  409.300
1011.216;  458.325;  307.725;  399.700
1011.767;  466.675;  322.300;  388.100
1012.318;  493.275;  346.275;  381.400
1012.869;  459.175;  312.400;  375.400
1013.419;  414.600;  272.200;  357.600
1013.970;  451.300;  308.450;  358.300
1014.521;  418.250;  282.075;  344.100
1015.071;  449.525;  311.900;  322.800
1015.622;  432.450;  293.350;  320.600
1016.172;  404.575;  275.300;  301.700
1016.723;  414.150;  282.900;  289.800
1017.273;  407.150;  277.850;  287.600
1017.823;  436.375;  300.200;  278.700
1018.374;  411.550;  284.275;  274.400
1018.924;  469.450;  341.950;  283.200
1019.474;  469.750;  342.125;  278.500
1020.024;  438.775;  308.475;  274.700
1020.574;  474.425;  347.200;  272.700
1021.124;  447.075;  320.825;  278.400
1021.674;  378.925;  254.500;  269.200
1022.224;  469.125;  338.750;  267.800
1022.774;  439.300;  316.850;  258.100
1023.324;  492.850;  367.150;  260.000
1023.874;  564.050;  441.500;  260.700
1024.423;  412.050;  279.150;  252.700
1024.973;  404.600;  281.275;  234.700
1025.523;  413.575;  289.800;  226.500
1026.072;  405.825;  285.275;  225.500
1026.622;  444.925;  318.725;  210.100
1027.172;  459.325;  346.700;  213.000
1027.721;  395.300;  280.500;  207.700
1028.270;  438.975;  319.175;  205.400
1028.820;  421.675;  302.250;  201.000
1029.369;  413.800;  286.450;  201.000
1029.918;  429.100;  305.700;  198.400
1030.468;  376.250;  259.425;  199.200
1031.017;  421.000;  300.400;  192.600
1031.566;  403.775;  289.275;  197.400
1032.115;  449.225;  337.900;  188.300
1032.664;  395.075;  279.900;  193.700
1033.213;  468.375;  362.050;  191.900
1033.762;  415.800;  302.625;  184.500
1034.311;  442.100;  326.850;  194.300
1034.860;  447.125;  336.175;  192.300
1035.408;  466.825;  355.150;  182.600
1035.957;  464.975;  352.700;  173.900
1036.506;  354.600;  245.850;  185.200
1037.055;  537.750;  423.375;  182.500
1037.603;  434.225;  320.150;  167.600
1038.152;  358.675;  250.525;  168.200
1038.700;  385.175;  274.950;  169.600
1039.249;  441.100;  332.200;  164.300
1039.797;  411.175;  305.675;  169.600
1040.345;  452.000;  345.400;  167.100
1040.894;  405.150;  301.950;  164.400
1041.442;  409.650;  304.750;  158.300
1041.990;  370.425;  259.475;  160.000
1042.538;  356.725;  249.225;  156.800
1043.087;  369.850;  270.350;  146.600
1043.635;  438.025;  327.075;  162.400
1044.183;  385.575;  279.725;  156.300
1044.731;  380.675;  269.300;  158.100
1045.279;  434.500;  328.825;  154.500
1045.827;  560.275;  462.875;  146.200
1046.374;  339.875;  240.950;  154.000
1046.922;  385.300;  281.025;  149.000
1047.470;  436.875;  341.475;  154.900
1048.018;  421.525;  315.450;  148.400
1048.565;  455.825;  353.925;  146.300
1049.113;  356.225;  260.775;  156.100
1049.660;  400.650;  302.650;  154.300
1050.208;  436.525;  324.875;  149.400
1050.755;  388.825;  293.275;  157.500
1051.303;  442.025;  336.200;  157.700
1051.850;  408.700;  310.850;  152.800
1052.397;  311.375;  222.000;  146.300
1052.945;  396.250;  296.750;  149.500
1053.492;  466.575;  369.875;  149.300
1054.039;  453.375;  360.975;  163.100
1054.586;  359.225;  262.725;  150.400
1055.133;  440.000;  338.550;  153.500
1055.680;  409.200;  315.200;  155.600
1056.227;  352.350;  253.400;  148.700
1056.774;  494.875;  404.600;  151.500
1057.321;  339.825;  244.250;  143.700
1057.868;  412.750;  313.950;  145.300
1058.415;  409.050;  324.800;  153.500
1058.961;  430.000;  330.150;  149.900
1059.508;  409.700;  315.850;  147.300
1060.055;  374.250;  281.250;  151.000
1060.601;  399.225;  303.950;  148.700
1061.148;  398.300;  301.600;  153.800
1061.694;  376.875;  287.700;  150.500
1062.241;  378.050;  287.650;  149.100
1062.787;  417.700;  328.450;  153.000
1063.334;  502.275;  410.750;  153.200
1063.880;  426.075;  329.225;  148.400
1064.426;  444.350;  352.025;  149.200
1064.972;  378.825;  292.350;  156.400
1065.518;  363.725;  271.775;  144.700
1066.065;  394.150;  308.625;  139.400
1066.611;  384.125;  293.475;  139.300
1067.157;  401.325;  319.775;  138.400
1067.703;  421.225;  337.575;  142.700
1068.249;  384.275;  296.225;  136.700
1068.794;  394.475;  305.000;  139.400
1069.340;  363.925;  280.900;  142.700
1069.886;  376.450;  290.950;  135.600
1070.432;  342.575;  253.750;  133.400
1070.977;  384.175;  291.550;  138.200
1071.523;  364.600;  279.700;  132.400
1072.068;  370.850;  284.200;  132.700
1072.614;  333.525;  251.100;  127.000
1073.160;  433.650;  348.150;  131.300
1073.705;  365.875;  283.500;  135.700
1074.250;  348.925;  269.250;  133.000
1074.796;  415.500;  324.700;  138.000
1075.341;  417.900;  336.700;  137.300
1075.886;  373.075;  289.575;  134.300
1076.431;  407.600;  329.275;  138.200
1076.976;  405.000;  318.550;  132.200
1077.521;  368.200;  283.600;  138.900
1078.067;  362.150;  282.450;  128.600
1078.612;  413.200;  332.075;  138.900
1079.156;  378.700;  295.750;  128.900
1079.701;  427.025;  343.350;  129.700
1080.246;  430.900;  347.850;  128.600
1080.791;  391.700;  314.325;  122.600
1081.336;  411.800;  326.775;  122.000
1081.880;  408.275;  325.175;  123.900
1082.425;  361.300;  278.750;  120.600
1082.970;  443.050;  366.800;  124.500
1083.514;  376.000;  294.050;  112.000
1084.059;  364.325;  286.600;  120.700
1084.603;  360.500;  274.100;  116.000
1085.147;  405.350;  324.250;  116.300
1085.692;  444.075;  361.250;  108.200
1086.236;  322.200;  241.150;  114.600
1086.780;  468.500;  384.150;  118.900
1087.325;  405.075;  325.450;  120.400
1087.869;  381.700;  304.775;  110.500
1088.413;  439.000;  356.525;  114.000
1088.957;  336.650;  263.950;  114.300
1089.501;  472.575;  396.225;  114.600
1090.045;  448.500;  370.525;  114.200
1090.589;  358.900;  276.525;  105.500
1091.133;  413.250;  345.450;  111.800
1091.676;  370.675;  298.200;  110.900
1092.220;  374.700;  299.475;  110.100
1092.764;  439.350;  361.925;  108.100
1093.307;  416.825;  337.525;  109.900
1093.851;  346.925;  275.925;  107.500
1094.395;  425.600;  345.675;   96.200
1094.938;  389.900;  322.825;   99.300
1095.482;  349.475;  278.475;   97.700
1096.025;  435.225;  364.550;   84.900
1096.568;  479.150;  405.000;   88.500
1097.112;  316.450;  246.200;   95.700
1097.655;  373.250;  296.650;   97.300
1098.198;  367.100;  297.750;   92.600
1098.741;  384.900;  304.700;   91.800
1099.285;  403.100;  328.800;   88.000
1099.828;  279.900;  211.775;   91.700
1100.371;  378.300;  306.475;   89.900
1100.914;  422.425;  345.300;   91.500
1101.457;  419.525;  348.450;   88.100
1101.999;  356.950;  287.650;   86.400
1102.542;  399.700;  326.525;   90.800
1103.085;  405.025;  334.825;   95.400
1103.628;  466.025;  402.425;   97.700
1104.170;  366.000;  294.100;   84.000
1104.713;  402.500;  327.975;   93.900
1105.256;  343.600;  274.375;   93.000
1105.798;  311.975;  242.750;   85.600
1106.341;  444.250;  376.200;   87.100
1106.883;  326.975;  254.050;   85.200
1107.425;  413.350;  336.150;   85.000
1107.968;  378.225;  308.475;   84.300
1108.510;  421.850;  354.625;   88.200
1109.052;  378.125;  312.325;   86.600
1109.594;  345.175;  276.450;   79.400
1110.136;  394.900;  324.750;   81.700
1110.679;  390.550;  320.200;   75.500
1111.221;  373.950;  303.300;   88.500
1111.763;  343.200;  273.725;   87.700
1112.304;  334.800;  269.975;   89.700
1112.846;  404.075;  338.350;   81.900
1113.388;  566.625;  503.625;   86.400
1113.930;  420.050;  350.625;   84.700
1114.472;  375.025;  306.975;   78.900
1115.013;  339.300;  274.675;   78.100
1115.555;  360.875;  300.175;   84.900
1116.097;  349.750;  286.175;   79.200
1116.638;  415.925;  351.800;   83.700
1117.180;  407.425;  340.000;   85.500
1117.721;  348.225;  284.650;   78.800
1118.262;  417.200;  346.125;   77.400
1118.804;  384.725;  323.675;   81.400
1119.345;  355.575;  293.650;   77.800
1119.886;  427.825;  365.925;   81.200
1120.427;  356.975;  298.125;   77.200
1120.969;  366.725;  303.125;   75.200
1121.510;  342.950;  283.075;   80.900
1122.051;  439.450;  375.375;   77.300
1122.592;  400.875;  336.725;   73.300
1123.133;  332.875;  273.850;   90.100
1123.673;  432.850;  369.875;   75.000
1124.214;  371.200;  315.175;   80.600
1124.755;  394.525;  324.350;   78.000
1125.296;  371.875;  318.250;   77.500
1125.836;  418.900;  351.500;   80.400
1126.377;  367.600;  300.875;   75.600
1126.918;  375.825;  309.250;   78.900
1127.458;  378.625;  318.050;   78.000
1127.999;  394.825;  336.250;   76.100
1128.539;  415.225;  364.625;   81.400
1129.079;  384.250;  324.475;   77.400
1129.620;  339.225;  279.875;   68.000
1130.160;  328.175;  272.075;   77.500
1130.700;  384.300;  329.225;   76.300
1131.240;  392.000;  328.450;   66.800
1131.781;  376.775;  314.900;   70.600
1132.321;  365.950;  306.150;   77.200
1132.861;  343.450;  285.675;   70.400
1133.401;  363.575;  300.900;   68.700
1133.941;  382.625;  321.400;   68.500
1134.481;  361.550;  307.900;   75.900
1135.020;  366.125;  309.675;   66.600
1135.560;  408.600;  351.150;   68.100
1136.100;  302.525;  248.900;   64.900
1136.640;  312.950;  255.600;   72.500
1137.179;  328.275;  268.675;   69.700
1137.719;  366.200;  312.975;   68.400
1138.258;  356.425;  301.025;   67.000
1138.798;  400.200;  340.800;   69.600
1139.337;  294.175;  239.200;   64.000
1139.877;  388.025;  332.125;   64.500
1140.416;  524.400;  470.975;   74.900
1140.955;  319.275;  271.575;   67.200
1141.494;  403.700;  350.025;   69.900
1142.034;  354.500;  296.600;   59.100
1142.573;  395.500;  339.400;   65.900
1143.112;  333.025;  283.425;   70.600
1143.651;  329.200;  277.975;   67.100
1144.190;  418.000;  356.875;   56.700
1144.729;  366.950;  310.675;   61.800
1145.267;  352.550;  295.200;   62.500
1145.806;  383.725;  333.350;   68.500
1146.345;  382.350;  329.875;   58.300
1146.884;  373.750;  323.775;   63.100
1147.422;  320.875;  268.350;   54.800
1147.961;  424.425;  375.600;   67.600
1148.500;  401.575;  349.175;   64.700
1149.038;  382.975;  329.975;   61.000
1149.577;  415.375;  366.025;   65.100
1150.115;  269.975;  223.975;   58.100
1150.653;  363.825;  315.175;   60.500
1151.192;  332.025;  282.875;   56.600
1151.730;  392.350;  342.650;   62.300
1152.268;  355.500;  299.225;   55.500
1152.806;  344.650;  289.175;   58.200
1153.344;  344.025;  294.550;   55.000
1153.882;  357.950;  313.275;   64.200
1154.421;  284.075;  238.175;   60.300
1154.958;  362.225;  307.400;   58.100
1155.496;  381.100;  336.925;   55.800
1156.034;  429.750;  380.375;   61.000
1156.572;  399.475;  353.500;   56.200
1157.110;  286.900;  234.675;   53.200
1157.647;  410.575;  356.575;   57.400
1158.185;  340.050;  288.850;   55.500
1158.723;  305.200;  260.925;   58.000
1159.260;  415.100;  364.100;   53.700
1159.798;  392.525;  340.225;   51.700
1160.335;  375.125;  326.400;   59.600

